# www.neaspec.com
# Scan:	 	AFM
# Project:	 	20251007_PS
# Description:	 	
# Date:	 	10/07/2025 13:24:33
# Scanner Center Position (X, Y):	[µm]	49.99	50.01	 
# Rotation:	[°]	0	 	 
# Scan Area (X, Y, Z):	[µm]	5.000	5.000	0.000
# Pixel Area (X, Y, Z):	[px]	100	100	1
# Averaging:	 	1	 	 
# Integration time:	[ms]	5	 	 
# Laser Source:	 	4.5-15 µm nano-FTIR laser
# Detector:	 	R
# Target Wavelength:	[µm]	7.502	 	 
# Demodulation Mode:	 	Fourier
# Tip Frequency:	[Hz]	241,340.500	 	 
# Tip Amplitude:	[mV]	45.700	 	 
# Tapping Amplitude:	[nm]	76.314	 	 
# Modulation Frequency:	[Hz]	0.000	 	 
# Modulation Amplitude:	[mV]	0.000	 	 
# Modulation Offset:	[mV]	0.000	 	 
# Setpoint:	[%]	79.75	 	 
# Regulator (P, I, D):	 	4.206850	8.625812	1.000000
# Tip Potential:	[mV]	0.000	 	 
# M1A Scaling:	[nm/V]	0.426	 	 
# M1A Cantilever Factor:	 	1,000	 	 
# Q-Factor:	 	487.4	 	 
# Version:	 	2.1.11536.0
76.50061       	76.45019       	76.09656       	76.37937       	76.56754       	76.50292       	76.329094      	76.46013       	76.44594       	67.990974      	72.848885      	75.54609       	76.75252       	76.72799       	76.491066      	76.43969       	76.334785      	76.6914        	76.24485       	76.481125      	76.444466      	76.34841       	76.45472       	76.4087        	76.68677       	76.44838       	76.286736      	76.52354       	76.33236       	76.34426       	76.42146       	76.5998        	76.40152       	76.455536      	76.355415      	76.618355      	76.25515       	76.44612       	76.40618       	76.4022        	76.42705       	76.443146      	76.60334       	77.91711       	75.05508       	76.15285       	76.81159       	75.87292       	76.66393       	75.9399        	76.41989       	76.39679       	76.22567       	76.02517       	75.94614       	78.212555      	78.49667       	78.74789       	77.482445      	75.51215       	76.5387        	76.368286      	76.37695       	76.3297        	76.29686       	76.40988       	76.36332       	76.45163       	76.45112       	76.56319       	76.44104       	76.30216       	76.360825      	76.188385      	76.156296      	76.554115      	76.38567       	76.443825      	76.47892       	76.21513       	76.59743       	76.47673       	76.485565      	76.20441       	76.458885      	76.549614      	76.418465      	76.43915       	76.05427       	76.7237        	76.49062       	76.403824      	76.346214      	76.18905       	76.93722       	76.4054        	76.33166       	76.05631       	76.52785       	76.720474      	
76.36922       	76.229294      	76.19172       	76.46317       	76.320305      	76.44711       	76.309296      	76.7366        	76.34767       	67.913956      	72.77294       	75.80972       	76.49965       	76.50169       	76.36462       	76.47646       	76.33988       	76.8092        	76.29425       	76.497284      	76.31741       	76.38151       	76.44229       	76.56513       	76.47788       	76.45616       	76.349815      	76.44718       	76.6674        	76.3983        	76.291306      	76.45545       	76.619286      	76.044334      	76.62822       	76.213806      	76.590416      	76.454475      	76.39891       	76.34836       	76.27898       	76.66042       	76.38876       	78.013504      	76.145515      	75.82742       	76.88972       	75.64153       	75.854744      	76.7522        	77.24158       	75.3163        	76.97135       	75.54022       	77.30932       	76.13412       	77.61175       	79.55925       	78.64745       	75.43177       	76.43155       	76.3679        	76.14789       	76.24844       	76.71301       	76.329506      	76.4865        	76.36782       	76.55084       	76.43163       	76.28686       	76.42111       	76.32391       	76.19871       	76.42047       	76.40134       	76.30441       	76.55791       	76.50521       	76.28078       	76.35789       	76.21755       	76.67701       	76.26102       	76.43013       	76.32005       	76.38498       	76.3939        	76.60357       	76.28723       	76.566826      	76.53839       	76.30499       	76.55956       	76.249756      	76.43249       	76.514915      	76.39152       	76.47182       	76.32735       	
76.64951       	76.50286       	76.09916       	76.30453       	76.374084      	76.27151       	76.50931       	76.67313       	76.20837       	67.66056       	72.20456       	75.72158       	76.621445      	76.52447       	76.55232       	76.328415      	76.461876      	76.32202       	76.466484      	76.46877       	76.42667       	76.562096      	76.59831       	76.42696       	76.30523       	76.52786       	76.453896      	76.37928       	76.36824       	76.4795        	76.61336       	76.200966      	76.35684       	76.48558       	76.39039       	76.64963       	76.29263       	76.455086      	76.55387       	76.37244       	76.34529       	76.40463       	76.48714       	76.709015      	76.41099       	76.46198       	76.09715       	76.85724       	75.68478       	75.83071       	77.45807       	77.1372        	76.25265       	75.993004      	77.82635       	77.27065       	76.91971       	78.6668        	77.94372       	75.39308       	76.38452       	76.32315       	76.224         	76.477165      	76.40013       	76.21928       	76.463524      	76.5977        	76.42929       	76.30257       	76.59968       	76.225655      	76.326935      	76.254234      	76.19893       	76.44516       	76.41485       	76.29611       	76.490875      	76.268005      	76.43624       	76.39294       	76.72161       	76.21287       	76.48437       	76.23941       	76.53498       	76.17505       	76.51104       	76.52281       	76.43613       	76.49795       	76.530525      	76.45593       	76.490585      	76.55883       	76.2412        	76.43073       	76.352196      	76.55577       	
76.342285      	76.637215      	76.42177       	76.344604      	76.44321       	76.378136      	76.463585      	76.24117       	76.58343       	74.125885      	70.173965      	75.07499       	76.161194      	76.541504      	76.42737       	76.70058       	76.37459       	76.48876       	76.37861       	76.41674       	76.40288       	76.44944       	76.5088        	76.12592       	76.58167       	76.44868       	76.248856      	76.463295      	76.41422       	76.55238       	76.50115       	76.347855      	76.494156      	76.434006      	76.38017       	76.31681       	76.37897       	76.62168       	76.40673       	76.25127       	76.31363       	76.72962       	76.27371       	76.42038       	77.660965      	75.93244       	76.89342       	75.58854       	77.86861       	75.41453       	76.3541        	77.43104       	77.60161       	76.05744       	76.860535      	78.064545      	76.33096       	78.19703       	75.84906       	75.99948       	76.46316       	76.23522       	76.45364       	76.26193       	76.56958       	76.47045       	76.38881       	76.38137       	76.29643       	76.35329       	76.29507       	76.59399       	76.46869       	76.27509       	76.15188       	76.44146       	76.71943       	76.06072       	76.563835      	76.48681       	76.32987       	76.3272        	76.681496      	76.22831       	76.547295      	76.04972       	76.71719       	76.57169       	76.39401       	76.389145      	76.539696      	76.289764      	76.45609       	76.415825      	76.41037       	76.4028        	76.421646      	76.41385       	76.401         	76.31432       	
76.38358       	76.53546       	76.68138       	76.52666       	76.2636        	76.465614      	76.48187       	76.33183       	76.328316      	76.54897       	68.285904      	73.11841       	76.29532       	76.76895       	76.26922       	76.36942       	76.43891       	76.42766       	76.41882       	76.62168       	76.364105      	76.33095       	76.68887       	76.42798       	76.32899       	76.56229       	76.365814      	76.48235       	76.352486      	76.37031       	76.346405      	76.46881       	76.500465      	76.39726       	76.37438       	76.50125       	76.45016       	76.48252       	76.3983        	76.066154      	76.58548       	76.29161       	77.08987       	76.39344       	76.77293       	76.0868        	77.50112       	76.61208       	76.33349       	76.33129       	77.042114      	76.77123       	77.64014       	75.05349       	77.30552       	78.42432       	75.39789       	76.30042       	76.50366       	76.53051       	76.328125      	76.17937       	76.68781       	76.45393       	76.34259       	76.14448       	76.394394      	76.604996      	76.41596       	76.27956       	76.72693       	76.27823       	76.44458       	76.33803       	76.13222       	76.579124      	76.228615      	76.546265      	76.46235       	76.30109       	76.21964       	76.39173       	76.28554       	76.70403       	76.45948       	76.33267       	76.25141       	76.38727       	76.52702       	76.5222        	76.49036       	76.311714      	76.64096       	76.47254       	76.29572       	76.3698        	76.43191       	76.59043       	76.27002       	76.40092       	
76.26964       	76.29954       	76.21729       	76.50232       	76.53172       	75.915276      	76.6264        	76.4635        	76.644485      	76.35147       	68.09401       	72.53971       	75.45333       	76.62092       	76.65536       	76.16388       	76.608894      	76.34447       	76.5472        	76.42917       	76.45344       	76.51935       	76.345215      	76.48992       	76.63497       	76.37956       	76.44005       	76.39069       	76.33879       	76.52174       	76.39043       	76.32739       	76.5639        	75.95458       	76.55991       	76.576935      	76.434494      	76.52214       	76.968765      	77.02183       	76.27675       	75.43234       	75.47312       	75.83715       	77.39013       	76.83283       	76.34531       	77.98581       	76.82649       	76.25611       	77.03689       	76.28335       	77.17312       	75.07924       	76.38766       	76.473656      	76.38191       	76.34805       	76.346855      	76.55004       	76.394295      	76.38078       	76.48695       	76.37367       	76.502396      	76.36908       	76.34745       	76.44044       	76.40357       	76.587776      	76.30468       	76.28151       	76.40675       	76.48202       	76.289444      	76.275475      	76.36428       	76.409546      	76.37254       	76.57015       	76.5166        	76.315926      	76.421616      	76.32296       	76.52531       	76.19957       	76.30721       	76.67354       	76.53591       	76.31706       	76.35951       	76.43589       	76.52249       	76.45307       	76.38726       	76.19356       	76.51013       	76.51925       	76.37582       	76.274414      	
76.44077       	76.41027       	76.457855      	76.3205        	76.372955      	76.34696       	76.1891        	76.57546       	76.444595      	76.65706       	72.77109       	70.33076       	74.160385      	76.5469        	76.458496      	76.48275       	76.543015      	76.51873       	76.590904      	76.42318       	76.48005       	76.50638       	76.38972       	76.422585      	76.41408       	76.51286       	76.451195      	76.30841       	76.643875      	76.33748       	76.35853       	76.335         	76.432785      	76.75977       	76.881935      	76.930595      	77.76731       	75.71161       	75.61091       	77.173645      	76.71112       	76.64237       	76.54827       	76.04751       	77.13529       	77.61559       	76.06134       	77.11565       	75.98822       	75.95328       	76.57117       	76.20494       	76.553246      	76.40734       	76.46225       	76.48709       	76.33105       	76.38503       	76.39335       	76.49745       	76.36809       	76.6214        	76.12783       	76.4973        	76.26687       	76.48451       	76.13732       	76.65044       	76.433266      	76.415436      	76.51718       	76.34211       	76.297455      	76.535446      	76.297386      	76.36689       	76.39923       	76.37341       	76.34028       	76.32196       	76.44244       	76.33913       	76.26046       	76.36276       	76.76167       	76.488045      	76.370285      	76.1722        	76.63254       	76.34487       	76.44726       	76.37648       	76.461426      	76.57077       	76.34444       	76.2071        	76.52411       	76.39028       	76.58017       	76.46698       	
76.286224      	76.261246      	76.42199       	76.608376      	76.44364       	76.47742       	75.910225      	76.53122       	76.5037        	76.52079       	76.55567       	69.24626       	73.2762        	76.01093       	76.36179       	76.7899        	76.51308       	76.55405       	76.5803        	76.1015        	76.6062        	76.39123       	76.54702       	76.552315      	76.40796       	76.32847       	76.3444        	76.44576       	76.6186        	76.69783       	76.5323        	77.567         	74.04991       	76.62204       	77.3444        	77.51208       	75.16717       	76.20001       	77.32521       	77.94098       	76.036064      	77.664894      	76.42426       	76.4107        	76.20995       	76.52759       	76.5894        	76.32137       	76.49143       	76.508865      	76.49607       	76.47873       	76.38342       	76.159294      	76.569435      	76.13958       	76.643715      	76.465         	76.37048       	76.36321       	76.61491       	76.17847       	76.40562       	76.40306       	76.4778        	76.402985      	76.34099       	76.58856       	76.39994       	76.51273       	76.31556       	76.31201       	76.447784      	76.410576      	76.18766       	76.2973        	76.331825      	76.57207       	76.44817       	76.22954       	76.17882       	76.871826      	76.235         	76.62917       	76.35438       	76.43384       	76.15743       	76.690605      	76.475845      	76.21113       	76.67922       	76.3832        	76.54792       	76.42168       	76.27438       	76.745804      	76.35031       	76.30004       	76.49386       	76.35378       	
76.49661       	76.42605       	76.186455      	76.304665      	76.62577       	76.30878       	76.365654      	76.3784        	76.59025       	76.34889       	76.23451       	69.04631       	72.54138       	76.27557       	76.62891       	76.44936       	76.48342       	76.40572       	76.58279       	76.43814       	76.14901       	76.45227       	76.64455       	76.41124       	76.59816       	76.79038       	77.38698       	76.19995       	76.48377       	76.17554       	76.631584      	78.36695       	76.558266      	76.38565       	76.67587       	78.23579       	75.14756       	77.58755       	77.26086       	75.961494      	76.22667       	76.18371       	76.76862       	76.41486       	76.32212       	76.689064      	76.516014      	76.575584      	76.32984       	76.38675       	76.46126       	76.43246       	76.54589       	76.327545      	76.32587       	76.45381       	76.644325      	76.19949       	76.48125       	76.37606       	76.5413        	76.32886       	76.5256        	76.24136       	76.51835       	76.221         	76.647865      	76.42824       	76.166405      	76.46991       	76.432945      	76.587845      	76.122826      	76.38585       	76.40549       	76.323105      	76.2193        	76.535255      	76.4497        	76.51248       	76.28992       	76.31133       	76.40852       	76.4434        	76.45266       	76.44927       	76.10165       	76.589134      	76.36881       	76.57177       	76.38307       	76.40644       	76.3995        	76.64125       	76.54179       	76.18499       	76.54708       	76.44787       	76.21939       	76.54604       	
76.48867       	76.460175      	76.397644      	76.41633       	76.37855       	76.340675      	76.55559       	76.293846      	76.34624       	76.3971        	76.54384       	67.711685      	72.54486       	76.12758       	76.31316       	76.70539       	76.1939        	76.40796       	76.580154      	76.36426       	76.21105       	76.665474      	77.87766       	76.51434       	70.3601        	76.37695       	76.89392       	76.77054       	76.80896       	77.18544       	78.05187       	76.13234       	77.6242        	76.02181       	76.70286       	77.86129       	76.486984      	75.63525       	76.318726      	76.088905      	76.08425       	76.45413       	76.25521       	76.45915       	76.178734      	76.29585       	76.413864      	76.20932       	76.36922       	76.51416       	76.39942       	76.438644      	76.50402       	76.06403       	76.74794       	76.577545      	76.100815      	76.50143       	76.680885      	76.40599       	76.39163       	76.69232       	76.06444       	76.42814       	76.43615       	76.24408       	76.43987       	76.335815      	76.37322       	76.34781       	76.59214       	76.48093       	76.24405       	76.38357       	76.53444       	76.354645      	76.25753       	76.31878       	76.51279       	76.25837       	76.15004       	76.58759       	76.325615      	76.359764      	76.279686      	76.83952       	76.05606       	76.31562       	76.58677       	76.256035      	75.896416      	77.01686       	76.02762       	76.22477       	76.64881       	76.26669       	76.407524      	76.26402       	76.34217       	76.360016      	
76.49427       	76.4259        	76.31982       	76.286674      	76.350044      	76.38412       	76.2437        	76.44111       	76.46794       	76.3853        	76.62826       	76.490295      	75.6417        	74.18351       	76.37939       	76.37525       	76.496216      	77.14185       	75.76733       	75.14096       	74.75045       	74.812         	75.63364       	76.43104       	76.55788       	76.57719       	75.943794      	77.4071        	76.8444        	76.54893       	78.166336      	76.58058       	76.07026       	76.03393       	76.28458       	76.13282       	76.417435      	75.78207       	77.07286       	77.02133       	76.34041       	75.95137       	76.36062       	76.24183       	76.34776       	76.21005       	76.66988       	76.239006      	76.52281       	76.4374        	76.42797       	76.2827        	76.51574       	76.24383       	76.57417       	76.38097       	76.33503       	76.67485       	76.72939       	76.21755       	76.49196       	76.43069       	76.26364       	76.588936      	76.33376       	76.16653       	76.427185      	76.57939       	76.39833       	76.33152       	76.36295       	76.470055      	76.55785       	76.422714      	76.19639       	76.49453       	76.48288       	76.31223       	76.23158       	76.65338       	76.32779       	76.255875      	76.48749       	76.508224      	76.34307       	76.12175       	76.20929       	76.65866       	76.364815      	76.1532        	76.69368       	76.41551       	76.28584       	76.27751       	76.61161       	76.3535        	76.49356       	76.267815      	76.0838        	76.595474      	
76.39582       	76.68392       	76.74695       	76.359955      	76.38643       	76.60002       	76.307655      	76.57265       	76.434685      	76.41554       	76.429474      	76.18646       	76.21289       	76.687675      	76.17264       	76.44599       	76.50113       	76.33795       	76.36665       	76.3965        	76.38324       	76.36738       	75.07117       	76.022804      	76.715485      	76.78012       	77.20443       	77.16729       	75.762115      	76.27383       	76.29896       	76.411514      	76.40052       	76.361565      	76.23434       	76.46808       	76.43264       	76.3265        	76.53317       	76.30626       	76.28252       	76.54201       	76.34512       	76.48043       	76.57417       	76.46175       	76.286896      	76.2849        	76.50646       	76.41571       	76.57759       	76.22354       	76.465935      	76.27154       	76.309555      	76.513145      	76.63172       	76.290215      	76.609184      	76.52845       	76.41938       	76.37498       	76.32666       	76.50985       	76.35786       	76.52749       	76.43881       	76.42396       	76.26189       	76.4738        	76.38411       	76.540184      	76.50098       	76.43984       	76.37384       	76.385345      	76.61597       	76.31135       	76.4179        	76.46427       	76.28965       	76.30947       	76.54179       	76.28095       	76.434         	76.14317       	76.359795      	76.67952       	76.08211       	76.41427       	76.49217       	76.440994      	76.32615       	76.33534       	76.42571       	76.71056       	76.31061       	76.68886       	75.905205      	76.28004       	
76.53086       	76.49776       	76.41731       	76.26608       	76.361         	76.44937       	76.733376      	76.24511       	76.53365       	76.55534       	75.84293       	76.48686       	76.40302       	76.46195       	76.23504       	76.44064       	76.46722       	76.69877       	76.499954      	75.9692        	76.84844       	76.068375      	76.49824       	76.20395       	76.40319       	75.76215       	76.56154       	76.40318       	76.45785       	76.7251        	76.34374       	76.5078        	76.083176      	76.6325        	76.26172       	76.47951       	76.36705       	76.58217       	76.46518       	76.18824       	76.49651       	76.51759       	76.25562       	76.49957       	76.41829       	76.261314      	76.491714      	76.41916       	76.40825       	76.51679       	76.131935      	76.84379       	76.41504       	76.12711       	76.6061        	76.27324       	76.114525      	76.781265      	76.28158       	76.59658       	76.537125      	76.320984      	76.73556       	76.29929       	76.10139       	76.55796       	76.47471       	75.93053       	76.656944      	76.273445      	76.271194      	76.55608       	76.09702       	76.520775      	76.37916       	76.2415        	76.43751       	76.39597       	76.30425       	76.58621       	76.26261       	76.18559       	76.51442       	76.18814       	76.39781       	76.32373       	76.48914       	76.30225       	76.17372       	76.10209       	76.47211       	76.31057       	76.00708       	76.54045       	76.31682       	76.399475      	76.00654       	76.79986       	76.5931        	76.116234      	
76.23806       	76.40713       	76.14704       	75.79023       	76.65201       	75.93703       	76.39361       	76.1609        	76.704384      	76.40998       	76.21714       	76.51274       	76.33477       	76.69147       	76.18816       	75.8943        	76.55198       	76.63777       	76.258224      	76.721596      	76.08049       	76.246376      	76.38444       	76.45553       	75.90716       	76.99747       	76.43163       	75.94862       	76.786545      	76.46468       	76.37565       	76.12587       	76.68514       	76.25814       	76.35766       	76.559425      	76.30013       	76.442406      	76.44556       	76.35851       	76.13731       	76.44096       	76.32526       	76.497116      	76.57095       	76.35735       	76.67742       	76.36447       	76.235825      	76.576996      	76.21038       	76.434135      	76.4952        	76.27218       	76.49018       	76.36579       	76.10749       	76.54076       	76.806145      	76.36639       	76.4272        	75.88986       	76.80411       	76.31562       	76.491         	76.09837       	76.45066       	76.46396       	76.49938       	76.30977       	76.37709       	76.741425      	76.34776       	76.19717       	76.45457       	76.59264       	76.3955        	76.21405       	76.46902       	76.12719       	76.41965       	76.419014      	76.18074       	76.457085      	76.29981       	76.9766        	76.15278       	76.26699       	76.284195      	76.20631       	76.75458       	76.37561       	76.37736       	76.36124       	76.432396      	76.54249       	76.01822       	76.04604       	76.323         	76.32694       	
76.470436      	76.59534       	76.326485      	76.19811       	76.37405       	76.8207        	76.19869       	76.19315       	76.3412        	76.50829       	76.32808       	76.355446      	76.7055        	76.49657       	76.196465      	76.29946       	76.25969       	76.089874      	76.613525      	76.4756        	76.71164       	75.77469       	76.28565       	76.6213        	76.21384       	75.90446       	76.3397        	76.39432       	76.35274       	76.66401       	76.31628       	76.74583       	76.16212       	76.51276       	76.59114       	76.21204       	76.161606      	76.426605      	76.43349       	76.1375        	76.60119       	77.085815      	75.704414      	76.501434      	76.218475      	76.56626       	76.51067       	76.44899       	76.258865      	76.51206       	76.33993       	76.09603       	76.7703        	76.14577       	76.53526       	75.77425       	76.670074      	76.615364      	76.28831       	76.54926       	76.9982        	75.464264      	76.5556        	75.67079       	76.643295      	76.136406      	76.849945      	75.68947       	76.45872       	76.55851       	76.07583       	75.76338       	76.952156      	76.24345       	76.13684       	76.32809       	76.36651       	76.61502       	76.52941       	76.270935      	75.98818       	76.53415       	75.883064      	76.66831       	76.29613       	76.37613       	75.900795      	76.47136       	76.93696       	75.93665       	75.95261       	76.25707       	76.05771       	76.64373       	76.8857        	76.16579       	76.14039       	76.99718       	75.92955       	76.22407       	
76.396126      	76.23747       	76.767166      	76.58372       	76.34252       	76.54366       	76.47964       	76.20647       	76.4971        	76.44182       	75.87078       	76.55384       	76.70516       	76.41075       	76.37497       	76.37589       	76.59346       	75.98666       	76.76226       	76.3366        	76.43444       	76.31633       	76.513054      	76.12191       	76.567215      	76.20545       	76.24046       	76.64846       	76.44132       	76.37757       	76.379715      	76.68209       	76.229485      	76.19325       	76.47158       	76.77871       	76.155075      	76.27936       	76.323044      	76.37747       	76.25153       	76.42457       	76.60296       	76.47253       	76.245575      	76.31375       	76.409966      	76.300934      	76.33971       	76.480804      	76.57708       	76.42276       	76.37373       	76.68657       	76.33547       	76.099464      	76.618805      	76.31196       	76.66368       	76.16247       	76.670944      	76.23112       	76.392426      	76.34937       	76.57345       	76.313644      	76.555435      	76.11817       	76.37104       	76.404785      	76.39134       	76.27875       	76.79898       	76.284225      	76.29367       	76.50674       	76.38124       	76.5169        	76.31391       	76.434845      	76.32366       	76.29658       	76.5963        	76.4           	76.41875       	76.4358        	76.34228       	76.2681        	76.49459       	76.31195       	76.1592        	76.27731       	76.34951       	76.45439       	76.51993       	76.67713       	76.24642       	76.57324       	76.52622       	76.212776      	
76.40913       	76.48263       	76.17667       	76.25965       	76.13882       	76.55785       	76.80989       	76.398384      	76.04272       	76.710594      	76.582565      	76.39727       	76.40901       	76.31095       	76.478645      	76.57381       	76.52749       	76.40557       	76.335846      	76.31451       	76.59737       	76.08509       	76.71519       	76.23488       	76.1656        	76.413216      	76.469604      	76.56531       	76.33246       	76.28465       	76.706314      	76.517914      	76.140945      	76.42404       	76.68358       	76.24067       	76.35899       	76.45295       	76.396         	76.349495      	76.60782       	76.19103       	76.160225      	76.579384      	76.2092        	76.657486      	76.50983       	76.68216       	76.38888       	76.27842       	76.58615       	75.868225      	76.55272       	76.57121       	76.16257       	76.343445      	76.54228       	76.45386       	76.56642       	76.22063       	76.8519        	76.33818       	76.448235      	76.26241       	76.40066       	76.37114       	76.3915        	76.33018       	76.6709        	76.14214       	76.701836      	76.23017       	76.24309       	76.55094       	76.51868       	76.31609       	76.09523       	76.5561        	76.17945       	76.376045      	76.660904      	75.85032       	76.74182       	76.18822       	75.96122       	77.01266       	76.29719       	76.27226       	76.51613       	76.347946      	76.397606      	76.29315       	76.42035       	76.252174      	76.43055       	76.651726      	76.01098       	76.52334       	76.09964       	76.510284      	
76.71678       	76.31858       	76.28988       	76.41434       	76.33121       	76.50858       	76.595024      	76.496666      	76.44929       	76.33142       	76.32121       	76.51889       	76.48383       	76.35768       	76.11877       	76.64941       	76.432556      	76.02464       	76.513954      	76.721725      	76.41499       	75.307945      	76.303856      	76.53557       	76.24758       	76.416336      	76.62386       	75.82195       	76.29585       	76.85843       	76.53729       	76.495186      	76.42601       	76.06916       	76.736824      	76.10106       	76.50319       	76.386795      	76.27402       	76.43537       	76.64502       	76.22089       	76.41447       	76.595345      	76.248245      	76.70476       	76.29512       	76.38347       	76.39082       	76.11348       	76.31214       	76.257904      	76.56345       	76.44377       	76.64175       	75.688736      	76.66753       	76.381035      	76.37169       	76.66368       	76.44526       	76.54768       	76.05635       	76.59216       	76.475784      	76.437775      	76.25281       	76.297104      	76.06403       	76.55642       	76.37786       	76.67033       	76.51887       	76.06231       	76.52251       	76.161545      	76.1407        	76.63347       	76.52452       	75.86656       	76.20488       	76.86879       	76.016304      	76.36576       	76.287994      	76.89239       	76.25543       	75.91195       	76.29401       	76.22692       	76.29079       	76.52858       	76.40107       	76.24637       	75.93895       	76.81216       	76.24339       	76.36925       	76.891685      	76.21799       	
76.35933       	76.42276       	76.42935       	76.39991       	76.278015      	76.45334       	76.435135      	76.60446       	76.21636       	76.54011       	76.27738       	76.46185       	76.57102       	76.02597       	76.38634       	76.43475       	77.10706       	75.95975       	76.17819       	76.49598       	76.342125      	76.162445      	76.365204      	76.54397       	76.468254      	75.9395        	76.10864       	76.629         	76.30383       	76.51492       	76.353455      	76.55361       	76.36889       	76.29843       	76.554855      	76.082146      	76.33035       	76.48138       	76.55263       	76.44404       	76.366905      	76.76537       	76.40909       	76.13104       	76.57276       	76.467766      	76.246826      	76.2182        	76.3664        	76.77362       	75.99226       	76.31269       	76.55884       	76.4067        	76.33747       	76.756714      	76.098785      	76.50255       	76.37167       	76.37308       	76.5209        	76.77273       	76.16325       	76.16319       	77.132454      	76.006676      	75.78641       	76.35465       	76.182434      	76.90021       	76.40695       	76.28845       	76.42654       	76.12762       	76.49123       	76.54904       	76.32305       	76.24519       	76.26115       	76.37049       	76.46792       	76.41503       	76.49903       	76.32056       	75.75316       	76.71986       	76.23848       	76.38873       	76.614685      	76.42254       	75.930954      	76.32853       	76.5608        	76.290016      	76.28586       	76.16798       	76.330444      	76.330055      	76.25602       	76.35785       	
76.414665      	76.709984      	76.48239       	76.476265      	76.61162       	76.25479       	76.25012       	76.523705      	76.61189       	76.40223       	76.28827       	76.527626      	76.459595      	76.38486       	76.234535      	76.3427        	76.2349        	76.6534        	76.435646      	76.525375      	76.01356       	76.2049        	76.939224      	75.981705      	76.48849       	76.45872       	75.745514      	76.77095       	76.80281       	76.02579       	76.924736      	76.14481       	76.28254       	76.45172       	75.988335      	76.741806      	76.464195      	76.546036      	76.00657       	76.40594       	76.21974       	76.11768       	76.344635      	76.798706      	76.34456       	76.68503       	76.48644       	76.3922        	76.24624       	76.39106       	76.46948       	76.713844      	76.25915       	76.4451        	76.31885       	76.39443       	76.45752       	76.49565       	76.60657       	76.266426      	76.55384       	76.49631       	76.30093       	76.36568       	76.495865      	76.41296       	76.21033       	76.42592       	76.45586       	76.54639       	76.54152       	76.37897       	76.13465       	76.551254      	76.32388       	76.51779       	76.19387       	76.14834       	76.16544       	76.69383       	76.243164      	76.23724       	76.36319       	76.48346       	76.28792       	76.13689       	76.68818       	76.411964      	76.1804        	76.312195      	76.52807       	76.27771       	76.334236      	76.60576       	76.16752       	73.797676      	73.553764      	74.418335      	75.706436      	76.04801       	
76.50488       	76.51137       	76.08512       	76.18314       	76.41079       	76.32487       	76.30832       	76.63267       	76.23395       	76.36529       	76.57182       	76.60949       	76.35791       	76.648735      	76.235306      	76.417305      	76.7123        	76.30101       	76.14472       	76.43594       	76.47826       	76.39659       	76.36456       	76.25304       	76.44575       	76.04004       	76.4167        	76.03215       	76.38157       	76.28957       	76.75883       	76.642586      	76.11876       	76.59465       	76.108315      	76.69023       	76.39394       	76.202934      	76.58247       	76.37907       	76.48299       	75.99761       	76.55687       	76.67838       	75.98052       	76.2406        	76.38295       	76.35369       	76.35778       	76.415665      	76.488045      	76.221466      	76.57589       	76.53443       	76.11248       	76.0964        	76.56441       	76.33479       	76.06842       	76.97617       	76.53205       	76.34191       	76.3362        	76.500114      	76.458115      	76.61132       	76.42257       	76.34171       	76.25626       	76.65217       	76.54492       	76.20395       	76.30075       	76.7867        	76.40448       	76.346405      	76.54377       	76.385994      	76.209854      	76.293846      	76.589615      	76.5737        	75.87607       	76.423256      	76.520134      	76.49412       	76.377594      	76.24308       	76.678406      	76.360985      	75.61283       	74.57914       	74.603165      	75.72279       	76.28178       	75.74604       	76.080444      	76.05118       	75.94955       	76.66487       	
76.48828       	76.39089       	76.08839       	76.861435      	76.56723       	76.456696      	76.06585       	76.506775      	76.49673       	76.40653       	76.212654      	76.59887       	76.31269       	76.695816      	75.979836      	76.549416      	76.23562       	76.71045       	75.99806       	76.709656      	76.31876       	76.188416      	76.51939       	76.664604      	76.19919       	76.1192        	76.661835      	76.41316       	76.141785      	76.104095      	76.66679       	76.32737       	75.87277       	76.24305       	76.9098        	76.24592       	76.292595      	76.30036       	76.586494      	76.39419       	76.09225       	76.90195       	76.157425      	76.51996       	76.23773       	76.44171       	76.228355      	76.1736        	76.96819       	75.8179        	76.527534      	76.58006       	76.28445       	76.78021       	76.037926      	76.36318       	76.18222       	76.35628       	76.35109       	76.687836      	76.183         	76.45981       	76.890495      	76.340965      	76.50979       	76.10962       	76.6323        	76.01536       	77.010994      	76.34289       	76.03456       	76.70008       	76.0042        	76.49787       	76.226295      	76.37903       	76.74576       	76.47932       	76.302536      	76.26657       	76.73181       	76.17308       	76.27733       	76.59802       	76.268         	75.99359       	76.84577       	75.977516      	73.18604       	73.557335      	76.027954      	76.128525      	75.863754      	76.277504      	76.3073        	75.64613       	76.72577       	76.34615       	76.4808        	76.560905      	
76.45325       	76.47137       	76.17397       	76.08206       	76.4431        	76.27368       	76.5109        	76.04127       	76.50371       	76.16228       	76.5371        	76.5963        	76.288025      	76.264114      	76.962074      	76.41943       	76.503174      	76.45845       	76.24644       	76.36709       	76.65358       	76.13943       	76.534706      	76.33          	76.346924      	76.12283       	76.59173       	76.56786       	76.068565      	76.58053       	76.42071       	76.46323       	76.66268       	76.57064       	76.14558       	76.188644      	76.07245       	76.81343       	76.23578       	76.513016      	76.14965       	76.58529       	76.43263       	76.41248       	76.38356       	76.59663       	76.1353        	76.57349       	76.77005       	75.92001       	76.135284      	76.66516       	76.24926       	76.37031       	76.45312       	76.40602       	76.53034       	75.83832       	76.608444      	76.35232       	76.04746       	76.68378       	76.62453       	76.491844      	76.24807       	76.34529       	76.26261       	76.62977       	76.209946      	76.631294      	75.53832       	76.64226       	76.389114      	76.7746        	75.96952       	76.770546      	76.11521       	75.97976       	77.481606      	75.509995      	76.56999       	76.29951       	77.44808       	74.77348       	77.06716       	75.436874      	77.30454       	72.77524       	74.73302       	75.27063       	75.82736       	76.453         	75.96685       	76.52674       	76.32631       	76.63908       	76.01495       	76.36961       	76.73494       	76.10225       	
76.31474       	76.4026        	76.178406      	76.42046       	76.46586       	76.48589       	76.40254       	76.45769       	76.27597       	76.33965       	76.820885      	76.34724       	76.31127       	76.4231        	76.38033       	76.36623       	76.52456       	76.40522       	76.26578       	76.42869       	76.65231       	76.04343       	76.43738       	76.60029       	76.36589       	76.30005       	76.40474       	76.51765       	75.99173       	76.35662       	77.00631       	75.38921       	76.94612       	75.985855      	76.39784       	76.66607       	76.342285      	76.69005       	76.17766       	76.12121       	76.41207       	76.421265      	76.36312       	76.404396      	76.61596       	76.23911       	76.009544      	76.50397       	76.50033       	76.009155      	76.39533       	76.16965       	76.712364      	76.09409       	76.485344      	76.51203       	76.21303       	76.49968       	76.246735      	76.65628       	76.28138       	76.538795      	76.46422       	76.30296       	76.64702       	76.35559       	76.54322       	76.41945       	76.14576       	76.60019       	76.49031       	75.910385      	76.819466      	76.25559       	76.595695      	76.270615      	75.96246       	76.81416       	76.23662       	76.58468       	76.42241       	76.50895       	76.49291       	76.296425      	76.654434      	76.41458       	73.89622       	73.8546        	75.64717       	76.0121        	75.575516      	76.37091       	76.41608       	76.45745       	76.50904       	76.32514       	76.013336      	76.35481       	76.798         	76.3413        	
76.37884       	76.07487       	76.41969       	77.00798       	76.40657       	76.25739       	76.28816       	76.592766      	76.39077       	76.08721       	76.48285       	76.2853        	76.7677        	76.44476       	76.15031       	76.24002       	76.255974      	76.31869       	76.43877       	76.28326       	76.846054      	76.25673       	76.421936      	76.51577       	76.46921       	76.23526       	76.500916      	76.22254       	76.44234       	76.5497        	76.37652       	76.481316      	76.319244      	76.397125      	76.46187       	76.34169       	76.10538       	76.43085       	76.565315      	76.33461       	76.46546       	76.059586      	76.282265      	76.80987       	76.470726      	76.29668       	76.581345      	76.00381       	76.822586      	76.41654       	76.38535       	76.31186       	76.19843       	76.04168       	76.8077        	76.3676        	76.12873       	76.40255       	76.369484      	76.5487        	76.621         	76.22018       	76.38519       	76.664536      	76.086         	76.7196        	76.05897       	75.72058       	76.700745      	76.19252       	76.56373       	76.86495       	76.52498       	76.10403       	76.12928       	76.12517       	76.612755      	76.16133       	76.390045      	76.3455        	76.54828       	76.12826       	76.555084      	76.57946       	76.378395      	76.04442       	73.09763       	74.38985       	75.86749       	76.05819       	75.62648       	76.04743       	76.32396       	76.568535      	76.39235       	76.36596       	76.386795      	76.51572       	75.87941       	76.5598        	
76.43316       	76.66484       	76.3692        	76.18146       	76.046234      	76.27701       	76.45852       	76.289635      	76.513145      	76.624855      	76.25411       	76.42015       	76.50741       	76.544174      	76.34648       	76.351776      	76.62988       	76.153824      	76.51381       	76.647545      	76.01449       	76.3774        	76.16583       	76.30856       	76.23901       	76.64177       	76.326645      	76.47139       	75.79739       	76.36494       	76.171974      	76.83702       	76.16926       	76.31767       	76.388596      	76.28154       	76.259605      	76.6823        	75.975204      	77.71712       	76.95355       	75.10129       	76.2291        	76.573395      	76.15154       	76.30141       	76.371414      	77.20339       	76.062675      	76.17602       	76.54874       	76.853645      	76.21745       	75.27453       	76.46957       	76.77061       	76.210594      	76.19266       	76.560455      	76.52605       	76.27225       	76.75784       	75.847565      	76.214935      	76.198906      	76.92324       	76.31981       	75.96471       	76.336365      	76.8757        	76.211945      	75.82607       	76.818436      	75.97247       	76.49728       	76.15954       	76.630936      	76.34183       	76.048355      	76.4498        	76.38465       	76.33583       	76.388275      	76.4974        	76.45389       	76.04866       	74.54409       	74.01346       	75.754         	76.32862       	76.03786       	75.60989       	76.0222        	76.37306       	76.257774      	76.694374      	76.26149       	76.34989       	76.38932       	76.39668       	
76.42071       	76.44659       	76.42932       	76.38992       	76.31251       	76.458405      	76.47186       	76.27902       	76.500496      	76.215065      	76.45146       	76.374466      	76.33148       	76.52534       	76.452515      	76.51363       	76.31733       	76.26836       	76.73434       	76.2246        	76.21738       	76.66455       	76.26771       	76.54374       	76.37827       	76.40791       	76.335464      	76.15834       	76.31201       	76.35504       	76.69255       	76.586365      	76.65483       	76.583435      	76.15068       	76.24644       	76.39675       	76.55286       	76.308235      	76.28535       	76.399086      	76.69555       	76.24281       	76.288055      	76.48693       	76.33188       	76.821884      	76.40459       	76.26064       	76.612816      	76.33196       	76.38725       	76.2995        	76.37884       	76.23933       	76.601814      	76.40647       	76.394104      	76.33137       	76.38754       	76.73851       	76.18441       	76.56742       	76.50626       	76.29019       	76.33861       	76.73235       	76.1062        	76.23974       	76.265785      	76.58791       	76.74596       	75.84857       	76.18559       	76.81657       	76.05938       	76.54083       	76.275444      	76.38234       	76.22222       	76.3981        	76.364784      	76.748886      	76.32725       	76.09461       	77.02197       	73.9133        	74.61886       	74.91709       	76.27792       	75.93481       	75.6734        	76.25398       	76.65638       	76.306526      	76.53698       	76.29708       	76.227905      	76.642586      	76.227776      	
76.3845        	76.61622       	76.387215      	76.742195      	76.97217       	76.51478       	76.33251       	76.016945      	76.53181       	76.500496      	76.5825        	76.26941       	76.077385      	76.649864      	76.44833       	76.17523       	76.80835       	76.092354      	75.91056       	76.52338       	76.698746      	76.5067        	75.90042       	76.54225       	76.5918        	76.4553        	76.20414       	76.33575       	76.296486      	76.407486      	76.00698       	76.36848       	76.6762        	76.27536       	76.60685       	76.13059       	76.388245      	74.94581       	76.207985      	76.79506       	75.862495      	76.92338       	76.61653       	76.29933       	75.92408       	76.261055      	77.02674       	76.24685       	76.18993       	76.454346      	76.37341       	76.127716      	76.58994       	76.06322       	76.8356        	75.54823       	76.23596       	76.9525        	76.30635       	77.10539       	75.053375      	76.74396       	77.79577       	75.67554       	74.94186       	78.445274      	74.4208        	76.48248       	76.54967       	76.146454      	76.11856       	76.81865       	75.49686       	76.064835      	77.60494       	75.36427       	77.27097       	75.74607       	76.106026      	76.63909       	75.78801       	76.215965      	76.17974       	76.29885       	77.15138       	76.44131       	76.085304      	72.816246      	75.05675       	75.700516      	76.02317       	75.57763       	76.2431        	76.408455      	75.83131       	76.44423       	76.172386      	76.205444      	76.30504       	76.66652       	
76.49111       	76.779526      	76.2608        	75.962395      	76.07159       	76.189156      	76.62113       	76.42528       	76.25488       	76.92648       	76.79519       	76.12256       	76.40011       	76.34743       	76.5396        	76.21174       	76.344955      	76.386604      	76.26816       	76.34995       	76.54782       	76.66674       	76.137024      	76.11659       	76.61593       	76.52937       	75.983604      	76.265076      	76.857315      	76.30507       	76.42777       	76.295555      	76.33216       	76.68719       	76.297264      	76.505486      	75.90164       	76.5685        	75.95077       	76.20928       	76.270546      	76.68126       	76.59081       	76.68956       	75.668594      	76.11223       	77.21896       	76.12326       	76.28055       	76.54323       	76.45829       	76.33051       	76.39987       	76.602905      	76.10958       	76.32745       	76.16072       	76.20774       	73.555115      	75.01047       	76.52841       	76.75051       	76.91285       	77.24835       	77.67148       	75.2632        	76.13431       	76.19039       	76.10882       	76.68279       	76.38296       	76.364174      	76.56886       	75.94756       	76.226944      	76.48246       	76.247375      	76.55452       	76.185974      	76.396324      	76.40658       	75.925735      	76.337524      	76.631195      	76.43137       	76.50251       	76.57117       	73.57945       	74.31852       	75.556625      	76.31054       	75.57145       	75.93973       	76.24547       	76.8651        	76.170975      	76.16415       	76.1884        	76.936844      	77.83531       	
76.589264      	76.344604      	76.07768       	76.40977       	76.265274      	76.956635      	76.333435      	76.16005       	76.56124       	76.41515       	76.26199       	76.280426      	76.493         	76.35696       	76.51629       	76.375015      	76.60849       	76.19905       	76.61733       	75.91684       	76.70703       	76.594124      	76.3385        	76.49175       	76.222015      	76.19573       	76.93978       	76.4928        	76.078476      	76.30143       	76.40167       	76.30398       	76.294365      	76.38741       	76.560005      	76.51979       	75.77432       	76.07396       	77.08546       	76.385544      	76.35139       	76.764626      	76.32248       	76.274376      	76.28139       	76.516525      	76.62668       	76.08088       	76.381035      	76.36231       	76.51211       	76.287636      	76.96222       	76.02564       	74.38135       	74.423836      	75.25421       	76.202065      	76.40695       	75.18609       	76.03435       	76.54152       	77.04956       	78.293365      	80.91332       	76.563736      	75.66925       	76.33311       	76.380974      	76.07117       	76.16045       	76.797         	76.221085      	76.25996       	76.81223       	76.31461       	76.24106       	76.42218       	76.39715       	76.69727       	76.07638       	76.40284       	76.757195      	75.93327       	76.38969       	76.66351       	75.99195       	74.40238       	74.132774      	75.486275      	76.20863       	75.639465      	76.07603       	76.35787       	76.0253        	76.57296       	76.567055      	76.166664      	77.08989       	75.61576       	
76.4415        	76.60399       	76.78598       	76.47032       	76.69937       	75.93856       	76.737236      	76.145775      	76.593575      	75.83561       	76.791214      	76.24754       	76.719734      	76.094795      	75.868164      	76.71498       	76.51879       	76.083336      	76.03944       	76.45761       	76.20796       	76.39899       	76.77247       	75.89084       	76.70051       	75.550026      	76.63055       	76.51655       	75.78781       	77.01114       	75.780914      	76.05008       	77.0984        	76.61594       	75.86875       	75.81071       	75.95629       	76.79165       	76.363396      	76.423004      	76.63048       	76.22498       	76.24395       	76.570015      	75.872444      	76.2231        	76.27146       	76.915985      	75.344734      	75.474174      	74.21269       	74.78814       	75.75546       	76.08919       	76.406395      	75.579636      	75.97478       	76.16292       	75.9739        	76.601395      	76.73659       	76.29032       	77.01785       	76.66966       	79.84681       	77.78701       	76.696205      	76.989494      	75.78619       	76.04355       	76.516075      	76.43505       	76.269066      	76.200226      	76.632416      	76.52574       	76.179634      	76.336685      	76.32886       	76.499504      	76.39178       	76.396904      	76.34838       	76.29817       	76.294525      	76.39341       	76.29898       	76.15307       	72.11385       	75.3147        	76.209595      	75.39652       	75.86821       	76.80184       	76.29102       	76.19158       	76.573395      	76.399345      	76.28078       	76.677414      	
76.43711       	76.52563       	76.414276      	76.36137       	76.25502       	76.477196      	76.81316       	76.28923       	76.34712       	76.24784       	76.912895      	76.08364       	75.86841       	76.73488       	76.20991       	76.66955       	76.35772       	76.66947       	76.35346       	75.95151       	76.35958       	76.57606       	76.290276      	76.06247       	76.67124       	76.4401        	76.12162       	76.4965        	76.5651        	76.40875       	75.75832       	76.4215        	76.58262       	76.3937        	76.37189       	76.91842       	76.366684      	76.02515       	76.4778        	76.521164      	76.30992       	75.90749       	77.05912       	76.01828       	75.40008       	75.08701       	74.7903        	75.5255        	75.77185       	76.087105      	75.69592       	76.44745       	75.88658       	76.75395       	76.25564       	76.53274       	76.17472       	76.61856       	76.512405      	76.31943       	76.64571       	76.28077       	77.35988       	77.3518        	78.808914      	76.9875        	75.29602       	76.03426       	76.421165      	76.17735       	76.39518       	76.32382       	76.26824       	76.134514      	76.75523       	76.21383       	75.96096       	76.29908       	76.54008       	76.61124       	76.191414      	76.402405      	77.01357       	75.96482       	76.25825       	76.60597       	76.50083       	75.86339       	72.53403       	75.1906        	76.246         	75.539024      	75.659546      	76.36553       	76.21525       	76.49575       	76.695244      	76.290825      	76.40404       	76.21816       	
76.25841       	76.45731       	76.016266      	77.000145      	77.51831       	75.1699        	76.41943       	76.574646      	76.325584      	76.47357       	76.19022       	76.345085      	76.403946      	76.70755       	76.314865      	76.29284       	76.64974       	76.191826      	76.440735      	75.752464      	76.62119       	76.717316      	76.209816      	76.26372       	76.23959       	76.46396       	76.47493       	76.39603       	76.63926       	76.26692       	76.24909       	76.09541       	76.706314      	76.3433        	76.155136      	76.68505       	75.86129       	76.25576       	76.32146       	76.7311        	73.79599       	74.83899       	74.32866       	75.28416       	75.86378       	76.23689       	76.0594        	75.780754      	76.61249       	76.12996       	76.72094       	76.31682       	76.4864        	76.58242       	76.2921        	76.520325      	76.2747        	76.40233       	76.72027       	76.08453       	76.07948       	76.66048       	76.98725       	77.88034       	78.62368       	77.60918       	78.846436      	75.40086       	76.01086       	76.22879       	76.404564      	76.69607       	76.4344        	76.556816      	75.866585      	76.52591       	76.19602       	76.43105       	76.563286      	76.0817        	76.2337        	76.22942       	76.37288       	76.72267       	76.39633       	76.13559       	76.505684      	76.56578       	73.39092       	74.556366      	75.791756      	75.94664       	75.2602        	76.293365      	76.731804      	75.94124       	76.52941       	76.31229       	76.767525      	76.55563       	
76.469734      	76.30377       	76.69803       	76.82647       	76.97087       	76.70117       	75.707565      	76.293625      	76.407745      	76.30534       	76.40659       	76.2455        	76.464836      	76.56948       	76.09435       	76.333115      	76.39797       	76.30755       	76.939804      	76.20541       	76.332405      	76.722984      	76.29778       	76.47271       	76.3037        	76.383194      	76.7138        	76.08278       	76.413864      	76.465324      	75.80525       	76.4083        	76.547165      	76.408066      	76.419106      	76.13174       	73.55601       	75.00934       	76.353775      	75.558624      	75.737495      	76.035934      	76.166534      	76.3968        	76.156334      	76.401596      	76.56397       	75.98546       	76.48429       	76.523056      	76.2258        	76.59298       	76.30562       	76.424904      	76.13061       	76.47278       	76.5572        	76.31268       	76.62566       	76.53654       	76.287094      	76.55882       	76.604614      	77.55029       	78.59768       	79.12674       	76.67194       	76.17142       	76.14497       	76.47687       	76.51906       	75.98889       	76.34912       	76.38915       	76.36149       	76.61461       	76.33617       	76.402916      	76.36835       	76.49492       	75.99294       	76.23561       	76.58412       	76.151306      	76.424484      	76.25475       	76.84204       	76.15456       	75.24638       	73.880615      	75.22808       	76.20222       	75.49825       	76.1434        	76.25469       	76.08261       	76.676216      	75.85564       	76.59335       	76.3922        	
76.51858       	76.96914       	77.16105       	75.705864      	76.06238       	76.47433       	76.06553       	76.40947       	76.30005       	76.306915      	76.599976      	75.67624       	76.49722       	76.58664       	76.21587       	76.20876       	76.28071       	76.18244       	76.88634       	76.17105       	76.43044       	76.10716       	76.13422       	76.83331       	76.618355      	77.165855      	75.39517       	76.048515      	76.56486       	76.62503       	76.1979        	77.02258       	75.11325       	73.85011       	74.635414      	75.993484      	75.61665       	76.082664      	76.14127       	76.329605      	76.346375      	76.28432       	76.54072       	76.56717       	76.468025      	76.30901       	76.45816       	76.61943       	76.46523       	76.291214      	76.28682       	76.55756       	76.590576      	76.40746       	76.28684       	76.22678       	76.46544       	76.291916      	76.6331        	76.22589       	76.04341       	76.3255        	76.634224      	77.11874       	77.43088       	80.49474       	76.693146      	75.60927       	75.667755      	76.257866      	76.221344      	76.39644       	76.7832        	76.1637        	76.18539       	76.66744       	76.49671       	76.3503        	76.47551       	76.2299        	76.10915       	76.840096      	76.54931       	76.410484      	76.3131        	76.71638       	76.36336       	75.75315       	76.01502       	73.30833       	74.94301       	75.83422       	75.50469       	75.773766      	76.21825       	76.48534       	76.4802        	76.60005       	76.30887       	76.43262       	
76.51694       	76.5778        	76.82084       	76.92348       	75.031586      	76.85832       	76.520805      	76.07819       	76.08719       	76.46846       	76.39261       	76.57088       	75.94456       	77.0905        	75.89646       	75.97732       	76.50419       	76.30658       	76.35369       	76.49974       	76.28467       	76.39359       	76.485405      	76.48146       	76.440636      	75.7886        	76.16281       	76.85676       	76.24065       	73.1099        	74.61631       	75.96849       	76.28305       	75.86112       	75.99599       	76.492294      	75.79653       	76.36904       	76.55218       	76.44655       	75.92423       	76.598305      	76.83778       	76.453995      	76.43897       	76.55462       	76.3519        	76.27378       	76.4093        	76.4656        	76.57697       	76.16089       	76.57427       	76.62509       	76.330055      	76.35628       	76.389175      	76.276886      	76.50003       	76.33545       	76.07663       	76.1305        	77.1608        	76.8182        	77.51804       	79.783195      	78.032295      	75.22694       	76.22921       	76.69084       	76.26146       	76.290695      	76.20104       	76.395935      	76.25255       	76.64971       	76.04364       	76.492096      	76.28272       	76.29084       	76.58165       	76.57514       	76.37053       	76.41478       	76.65948       	75.978485      	76.776184      	76.19295       	76.26351       	72.525444      	74.67697       	76.057625      	76.12053       	75.061844      	76.28227       	77.18855       	76.03524       	76.407814      	76.471725      	76.33468       	
76.24759       	76.95978       	77.16105       	76.65214       	76.37345       	76.64098       	76.308205      	76.454         	76.3814        	75.884094      	76.71173       	76.43443       	76.33878       	76.146545      	76.80594       	75.9716        	76.211334      	76.61591       	76.29609       	76.38287       	76.449356      	76.43647       	76.50186       	76.33018       	76.48853       	76.40921       	76.39286       	74.9152        	73.00961       	74.6043        	76.04844       	76.45216       	76.03185       	76.35134       	76.6607        	76.2343        	76.57908       	76.420044      	76.44559       	76.588554      	76.30085       	76.41771       	76.33224       	76.176414      	76.49724       	76.45843       	76.34545       	76.42234       	76.418564      	76.313255      	76.33378       	76.462524      	76.20808       	76.68185       	76.47882       	76.171646      	76.623886      	76.43767       	76.357895      	76.42324       	76.42931       	76.75243       	75.88165       	76.81565       	77.47968       	78.571         	79.04132       	77.48415       	75.75835       	76.04731       	76.17011       	76.26336       	76.59586       	76.2408        	76.44596       	76.73186       	75.99506       	76.46473       	76.40464       	76.383545      	76.210625      	76.88924       	76.420074      	76.20861       	76.49968       	76.48141       	76.19169       	76.472946      	76.174706      	73.88548       	74.611595      	75.694244      	76.24946       	75.350716      	75.814766      	76.619255      	76.225876      	76.44413       	76.58363       	76.3225        	
76.4043        	76.69533       	77.102005      	76.7799        	76.39613       	75.90063       	76.47407       	76.509766      	76.32388       	76.47061       	76.47815       	76.26619       	76.36688       	76.58833       	76.11537       	76.40382       	76.14749       	76.746445      	76.10659       	76.73607       	76.41857       	76.11301       	76.36775       	76.54766       	76.21729       	76.35317       	75.5935        	72.813934      	74.98172       	75.37618       	76.00935       	76.55058       	76.43572       	76.283104      	76.308815      	76.328865      	76.750496      	76.51088       	76.41376       	76.18279       	76.501564      	76.55757       	76.43174       	76.283394      	76.414665      	76.20242       	76.64049       	76.30089       	76.46188       	76.41547       	76.483574      	76.24513       	76.51455       	76.47197       	76.2734        	76.43818       	76.467186      	76.617935      	76.26219       	75.89604       	76.38597       	76.58651       	75.441536      	76.82824       	77.49123       	78.24453       	79.331955      	78.6705        	75.00815       	75.94488       	76.529         	76.02834       	76.67675       	76.36626       	76.46892       	76.40166       	76.06584       	76.00978       	76.724594      	75.50804       	76.837494      	76.412025      	76.356865      	76.291885      	76.102715      	76.31488       	76.94102       	76.12294       	76.28506       	74.6955        	73.61354       	75.4852        	76.13158       	75.84529       	75.737686      	76.30436       	76.61451       	76.29587       	75.92533       	75.88161       	
76.56214       	76.50976       	76.92291       	76.82177       	76.39179       	76.31962       	76.19132       	76.57426       	76.11101       	76.68389       	76.15342       	76.4111        	76.59978       	76.44503       	76.39908       	76.310776      	76.275566      	76.572205      	76.45483       	76.50489       	76.15538       	76.37835       	76.69163       	76.37061       	75.98505       	76.6963        	73.46651       	74.19687       	75.86887       	75.748215      	75.6075        	76.121735      	76.438034      	76.48341       	76.641975      	76.47171       	76.34362       	76.500854      	76.76575       	76.20704       	76.363396      	76.255806      	76.49015       	76.46594       	76.19143       	76.5882        	76.65011       	76.27713       	76.40198       	76.18304       	76.34625       	76.555756      	76.459656      	76.48855       	76.21699       	76.34069       	76.5119        	76.47196       	76.26567       	76.46061       	76.23952       	76.54054       	76.40736       	76.100586      	77.1116        	78.28143       	79.22475       	78.82248       	75.298836      	76.04692       	76.34175       	76.273224      	76.067055      	76.47566       	76.34233       	76.49937       	76.23559       	76.308685      	76.48317       	76.59104       	76.410484      	76.320244      	76.329865      	76.40772       	76.49414       	76.09088       	76.76014       	76.10241       	76.51815       	76.1721        	72.81565       	75.13892       	75.988106      	75.97253       	76.28331       	75.756386      	76.093445      	76.852         	76.28664       	76.12867       	
76.52208       	76.71965       	77.4984        	76.1911        	75.588936      	76.34818       	76.66778       	76.479324      	76.50418       	76.34987       	76.50187       	75.86846       	76.64898       	76.63191       	76.38508       	76.289764      	76.540695      	76.29734       	76.447014      	76.2342        	76.28749       	76.54184       	76.431366      	76.49487       	76.41587       	76.324326      	73.25214       	74.558876      	75.67269       	76.11487       	75.5456        	76.190056      	76.82323       	76.14843       	76.365326      	76.092186      	76.22011       	76.67472       	76.37048       	76.79503       	76.479836      	76.107506      	76.35799       	76.31655       	76.589714      	76.289276      	76.455086      	76.33165       	76.62597       	76.67459       	76.34951       	76.10121       	76.626396      	76.43324       	76.500046      	76.24053       	76.17053       	76.5279        	76.200035      	76.68574       	76.282         	76.14853       	76.677124      	76.587425      	76.33767       	77.52287       	78.64873       	80.44886       	74.89502       	76.53154       	75.632416      	76.73092       	76.1709        	76.46114       	76.66616       	76.320206      	75.984825      	76.722336      	76.17126       	76.178696      	77.16107       	76.04872       	76.03264       	76.641945      	76.54888       	76.437996      	75.888435      	75.9655        	77.022934      	76.438255      	73.856         	74.085075      	75.70936       	75.62128       	76.023605      	75.90126       	76.40095       	76.56556       	76.25454       	76.386345      	
76.45535       	76.62279       	76.89304       	76.587494      	76.59496       	76.28875       	76.58561       	76.38534       	76.4082        	76.316696      	76.38005       	76.28984       	76.12598       	76.60024       	76.38761       	76.52635       	76.233246      	76.217155      	76.37018       	76.643394      	76.06125       	76.6033        	76.47244       	76.455765      	76.59005       	76.41891       	74.26327       	73.80792       	75.56155       	75.81178       	75.644066      	75.80953       	76.816284      	75.93416       	76.66875       	76.37086       	76.248116      	76.73503       	76.3342        	76.30116       	76.44052       	76.4074        	76.06977       	76.5172        	76.65878       	75.55374       	76.701904      	76.525444      	76.67156       	75.87959       	76.56148       	76.453445      	76.08095       	76.71339       	76.279076      	76.361824      	76.25486       	76.10123       	76.80461       	76.41329       	76.07173       	76.63579       	75.822815      	76.3516        	77.02541       	76.40934       	79.066376      	79.980545      	75.47543       	75.73338       	76.139885      	76.67685       	75.466064      	76.71543       	75.878456      	76.233246      	76.611916      	76.03883       	76.25118       	76.361435      	76.826866      	76.327995      	75.71927       	76.844505      	76.489555      	75.92598       	76.776436      	76.22162       	76.07856       	76.06054       	75.051674      	73.510185      	75.866455      	75.933525      	75.99796       	75.87828       	75.81341       	76.70447       	76.601204      	76.27992       	
76.36583       	76.59822       	76.76887       	77.05607       	76.62401       	76.482155      	76.254036      	76.355385      	76.590355      	76.3755        	76.48006       	76.52715       	76.23307       	76.22023       	76.51498       	76.11864       	76.45293       	76.57873       	76.41251       	76.304955      	76.60748       	75.927414      	76.27907       	76.45989       	76.48149       	76.51461       	75.84312       	72.620926      	75.186615      	75.902756      	75.62643       	75.86364       	76.352         	76.29092       	76.38035       	76.29249       	76.704056      	76.2799        	76.752655      	76.53921       	76.503         	76.33064       	76.75248       	76.357254      	76.33387       	76.42401       	76.06371       	76.34542       	76.51835       	76.46793       	76.180084      	76.66681       	76.63669       	76.134346      	76.236664      	76.69308       	76.23729       	76.06026       	76.65597       	76.37845       	75.98418       	76.71121       	76.909874      	75.756645      	76.37613       	76.37316       	78.855515      	78.415306      	79.65936       	75.092224      	75.891655      	76.22215       	76.21151       	76.37275       	76.562065      	76.69668       	76.53662       	75.92507       	76.294495      	76.588394      	76.34724       	76.28304       	76.6437        	76.85129       	75.59921       	76.6159        	76.482635      	76.27822       	75.88865       	76.53391       	73.82945       	74.33462       	75.28378       	75.657936      	75.82927       	75.804016      	76.35027       	77.20759       	76.167656      	76.57165       	
75.65653       	76.34531       	77.35807       	76.41384       	76.29573       	76.74039       	75.44988       	76.14643       	76.49865       	76.32803       	76.31297       	76.345474      	75.73668       	76.76269       	76.2618        	76.14325       	76.677826      	76.24334       	76.5194        	76.2175        	76.293205      	76.58006       	76.47329       	76.35112       	76.569374      	76.42549       	76.28769       	72.77724       	74.7657        	75.47981       	75.56212       	76.09782       	76.41563       	76.63941       	76.35515       	76.76825       	76.56525       	75.84007       	76.586876      	76.28072       	76.41868       	76.344955      	76.51832       	76.26552       	76.635796      	76.34837       	76.16772       	76.68805       	76.32147       	75.963615      	76.4908        	76.80565       	75.97159       	76.44818       	76.55102       	76.416046      	76.47342       	76.15486       	76.50268       	75.71993       	77.18258       	75.54382       	76.8829        	77.06064       	75.58495       	76.70198       	78.41489       	78.59224       	79.65823       	75.329544      	76.28821       	76.62573       	76.20979       	76.03899       	76.40339       	76.24854       	76.11708       	76.52143       	76.14524       	76.50694       	76.190125      	76.48861       	76.60002       	75.95646       	76.43569       	76.85107       	76.40118       	76.145546      	76.04222       	76.425255      	76.059586      	72.738495      	74.96523       	76.22778       	75.91462       	75.823586      	75.7396        	76.05212       	77.36386       	75.20635       	
76.35237       	77.3459        	78.698784      	79.20941       	81.14397       	76.02897       	75.89734       	76.27474       	76.2404        	76.827415      	76.314156      	76.20496       	76.22354       	76.19672       	76.20211       	76.54175       	76.59922       	75.88418       	76.31297       	76.51708       	76.49262       	76.601295      	76.076614      	76.206795      	76.69675       	76.138054      	76.512215      	73.99552       	73.61635       	75.55717       	75.492134      	75.624344      	76.22826       	76.81176       	76.29442       	76.04594       	76.69997       	76.80658       	77.411865      	75.06099       	76.1173        	76.18555       	76.92765       	76.50369       	76.27017       	76.52195       	76.53976       	76.650604      	76.21872       	76.42821       	76.083046      	76.48467       	76.57567       	76.32674       	76.51005       	76.44398       	76.229294      	76.23363       	75.90353       	76.545105      	76.31323       	76.64777       	75.76386       	77.37337       	76.178154      	76.617615      	78.02663       	78.94423       	78.94936       	75.379295      	76.15926       	76.65238       	76.21629       	75.967674      	76.5027        	76.12557       	75.83902       	76.4466        	76.78991       	75.65771       	76.301         	76.668365      	76.208534      	76.51491       	75.890854      	76.891945      	76.43828       	76.06577       	76.40463       	76.4997        	75.99455       	73.973465      	74.33691       	75.54874       	75.62075       	75.926315      	76.129456      	76.43721       	76.36276       	76.68177       	
76.33746       	77.138435      	77.87942       	78.74015       	82.051414      	77.38595       	76.02763       	76.114         	76.08672       	76.64229       	76.43999       	76.127464      	76.333         	76.65858       	76.18041       	76.30058       	76.70237       	76.32895       	75.39817       	76.400475      	76.20484       	76.81202       	76.250305      	76.75562       	76.32535       	76.32004       	75.925735      	75.32162       	73.491714      	75.076195      	75.95938       	76.00726       	75.953476      	75.96459       	76.63          	76.44231       	76.44647       	76.98016       	75.20391       	76.55865       	77.03595       	75.97735       	76.13016       	76.702194      	76.31558       	76.26221       	76.38997       	76.39904       	77.616104      	74.88658       	76.44185       	76.25725       	76.9379        	75.53585       	76.84916       	76.16593       	76.30102       	76.39481       	76.32148       	76.39976       	76.131386      	76.371796      	77.0555        	76.38465       	75.5286        	77.15466       	76.198425      	77.46888       	81.378555      	76.22635       	75.93476       	76.27111       	76.228966      	76.74403       	76.05756       	76.739365      	76.56405       	76.09502       	75.97871       	76.814865      	76.29842       	76.21635       	76.30258       	76.3795        	76.931335      	75.33903       	77.04538       	76.03084       	76.101395      	76.14012       	76.47537       	74.04652       	74.040855      	75.3186        	75.97623       	75.781715      	75.88771       	76.52316       	76.2923        	76.47187       	
76.48517       	76.2475        	76.72766       	78.3177        	80.965355      	80.12527       	74.93496       	76.19966       	76.11851       	77.08282       	75.58042       	76.00437       	75.55195       	77.05322       	75.68528       	77.624146      	75.28036       	76.62319       	76.20334       	76.65837       	76.10891       	76.619995      	75.19781       	76.397285      	76.49624       	76.59479       	75.84916       	76.734436      	72.497665      	74.98508       	75.46146       	75.75324       	75.83793       	76.06163       	76.4741        	76.33667       	76.75964       	76.45926       	76.611885      	75.429474      	76.523125      	76.7964        	75.95482       	76.36079       	76.63002       	76.6047        	76.336266      	76.28127       	76.34659       	76.95662       	75.90553       	76.2892        	76.37942       	76.113045      	76.54148       	76.48984       	75.99119       	76.38298       	75.992935      	75.94223       	76.5815        	76.32007       	76.49251       	76.536766      	76.46094       	76.0045        	76.9754        	78.84543       	79.649796      	77.39441       	75.12792       	77.11677       	74.533195      	76.745804      	76.31859       	76.64829       	75.45834       	76.492516      	76.88402       	76.08805       	75.8091        	77.32626       	75.809555      	76.3219        	75.866875      	76.884964      	75.977394      	77.47219       	75.38451       	75.96019       	77.062325      	74.32358       	73.75926       	75.66794       	76.13195       	75.61075       	76.137474      	75.928474      	76.18481       	76.62212       	
76.064224      	76.97512       	77.6509        	78.62091       	78.852104      	79.7682        	76.99766       	76.60844       	75.98911       	76.28882       	76.10145       	76.38847       	76.41014       	76.57303       	77.01051       	75.78573       	76.53352       	75.45674       	76.89623       	76.1406        	76.63055       	75.94092       	76.15975       	76.4137        	77.14045       	76.159164      	76.09124       	76.31769       	74.35798       	73.93245       	75.10564       	75.630035      	75.72317       	76.55999       	76.5488        	75.98474       	76.32937       	77.26605       	75.60153       	75.61436       	76.73157       	76.30557       	76.59806       	76.28509       	76.24735       	76.54638       	76.29768       	76.3894        	76.21305       	77.22513       	75.20398       	76.99304       	76.58249       	74.55966       	77.07589       	76.54015       	76.82022       	75.51173       	76.23176       	77.27437       	75.31036       	76.63574       	76.60593       	76.079         	76.11698       	76.97992       	75.65301       	77.80756       	80.67785       	80.04771       	75.36002       	75.982475      	76.110344      	76.374275      	76.237274      	76.33179       	76.654785      	75.91657       	76.13397       	76.89801       	76.193275      	76.179146      	76.6743        	76.00592       	76.25512       	76.27753       	76.66311       	76.18919       	76.36845       	76.39905       	76.32113       	75.53853       	73.3257        	75.03666       	75.32994       	75.62245       	76.06274       	76.46932       	76.63052       	76.77865       	
76.524475      	76.92645       	77.69925       	77.98209       	80.17382       	78.0314        	78.35505       	75.18081       	75.115875      	77.239136      	76.29214       	76.93623       	75.58625       	75.38708       	77.097015      	75.330315      	77.12368       	77.59491       	75.105995      	76.15527       	75.96244       	76.50105       	77.328995      	75.23895       	75.557         	76.80468       	76.36206       	77.67267       	74.00832       	72.91446       	75.22899       	75.67004       	75.81226       	76.21283       	76.306114      	76.84033       	76.47593       	76.58428       	76.42675       	75.834694      	76.70841       	76.64371       	75.984344      	76.20925       	77.04004       	76.44309       	76.3049        	76.34006       	76.41882       	76.36603       	76.54958       	76.465645      	76.0982        	76.13575       	75.53667       	77.195625      	75.452705      	76.74877       	76.88804       	75.96667       	76.898735      	75.60598       	76.622406      	76.62873       	75.797615      	77.16896       	75.8482        	77.84501       	79.08257       	78.71478       	75.588036      	76.19547       	75.593445      	76.16284       	76.13842       	76.532776      	76.4774        	76.839554      	76.10576       	75.948555      	76.84454       	76.383026      	75.95118       	76.02286       	76.39629       	76.94389       	75.47175       	76.00593       	76.6568        	75.79493       	76.98837       	75.47989       	73.92781       	74.597084      	75.32351       	76.131714      	76.00363       	76.4515        	76.21091       	75.85703       	
76.428925      	76.798904      	77.66861       	78.39639       	78.52297       	79.11399       	75.26306       	75.96525       	76.24453       	76.11577       	76.29925       	76.75193       	76.57034       	75.963844      	77.010574      	76.15857       	75.25228       	76.897194      	76.94386       	75.92362       	76.26972       	76.90828       	76.47484       	75.208084      	76.77897       	75.896416      	76.23165       	76.87258       	75.92629       	72.889755      	75.0469        	75.44617       	75.56682       	75.86919       	76.427826      	76.764         	76.45059       	77.46135       	75.581924      	76.23091       	76.109245      	76.38115       	76.52999       	76.25551       	76.4657        	76.3405        	76.54279       	76.414505      	76.479576      	76.76374       	76.352104      	76.44343       	76.55837       	75.88473       	77.20997       	75.90397       	75.937675      	76.03492       	76.951706      	76.1387        	76.04223       	76.4226        	76.41102       	75.87514       	77.09778       	76.04137       	76.701195      	77.25519       	79.76731       	77.53709       	78.27065       	75.697914      	75.71149       	75.94513       	76.41581       	76.00356       	76.74825       	76.21432       	75.86867       	77.67802       	75.26884       	76.053185      	76.5092        	76.31603       	76.43389       	75.827614      	76.77929       	76.840256      	75.78298       	76.42048       	76.22338       	76.227165      	73.698944      	74.65112       	75.62882       	75.00629       	76.01625       	76.27231       	76.38894       	76.24504       	
76.37204       	76.484566      	76.690674      	76.81233       	78.54518       	80.218864      	79.22733       	75.08667       	75.961075      	76.1251        	76.52451       	76.67595       	76.224846      	75.99364       	76.130714      	76.49842       	75.77661       	77.14214       	75.09213       	77.30742       	76.84286       	75.836494      	75.90035       	76.443436      	76.470535      	76.71146       	76.38185       	76.17155       	76.32589       	74.26779       	73.445465      	75.117004      	75.81951       	76.33628       	76.88501       	76.07829       	76.23223       	76.784386      	75.82131       	76.56636       	77.4046        	75.95584       	76.04965       	76.469086      	75.88804       	77.55488       	76.12158       	76.06121       	76.68903       	76.09064       	76.26551       	76.603         	76.40694       	76.621956      	75.88342       	76.29839       	76.68663       	76.49835       	76.261795      	76.537544      	76.041435      	75.92159       	76.697784      	76.48674       	76.176315      	76.57523       	76.910095      	77.20184       	78.44473       	78.81583       	78.38474       	75.481636      	76.22252       	76.223656      	76.39572       	76.05314       	76.37307       	76.19145       	76.32273       	76.527084      	76.398994      	76.47053       	76.62097       	76.74666       	76.079056      	75.719475      	77.561005      	75.47911       	75.96572       	76.685844      	75.895775      	76.345245      	75.25313       	73.23435       	75.57549       	75.03456       	75.938896      	76.01932       	76.68295       	76.195206      	
76.23559       	76.66352       	77.216576      	77.36717       	77.47657       	80.40331       	79.64945       	75.78084       	76.08964       	76.32019       	76.08511       	76.906624      	76.5189        	76.37408       	75.91424       	76.28674       	76.708466      	76.16684       	76.04985       	76.58855       	76.000824      	76.244225      	76.61404       	76.45228       	76.85834       	76.36209       	75.9574        	76.37858       	76.1598        	72.7433        	75.03727       	75.51686       	75.32775       	75.58026       	76.54152       	76.98874       	76.34006       	76.29554       	76.75647       	75.6985        	76.76026       	77.22243       	75.78056       	76.296455      	76.911026      	75.06959       	77.07087       	76.6076        	75.85333       	76.572624      	76.81492       	75.73803       	76.921326      	75.786         	76.386536      	76.27132       	76.32559       	76.75348       	76.22259       	76.33969       	75.840096      	75.93234       	76.72668       	76.51285       	74.9002        	77.03762       	75.85094       	77.197914      	78.04421       	80.11273       	78.81307       	74.57374       	76.03395       	75.82006       	76.91802       	76.25517       	76.37388       	76.263176      	75.87036       	76.68087       	76.18569       	76.54855       	75.760506      	75.791756      	75.99422       	76.189255      	75.649414      	76.518715      	76.75125       	76.6117        	76.24107       	76.10434       	76.43498       	73.02531       	74.60347       	75.36308       	76.09752       	76.080124      	76.26859       	76.42425       	
76.3241        	76.80057       	76.70247       	77.30266       	77.917145      	79.705376      	78.749535      	75.80566       	75.61033       	76.64946       	76.149345      	76.60903       	76.05729       	76.34506       	76.07154       	76.54775       	75.75831       	76.60064       	76.70723       	75.38027       	76.136986      	76.74229       	75.84666       	76.55094       	76.36926       	76.611275      	75.95327       	75.88806       	76.815254      	74.882706      	73.39488       	75.13189       	75.91152       	76.094765      	75.960915      	76.27656       	76.845146      	76.655426      	77.08955       	75.42843       	76.127884      	76.754036      	75.647766      	75.98153       	77.339584      	75.51666       	76.635605      	76.613045      	75.819214      	76.78307       	75.79171       	77.012344      	76.37502       	76.28957       	76.865036      	75.800674      	76.51534       	76.30157       	76.02506       	76.91368       	76.14469       	76.50509       	76.25148       	76.38161       	76.42778       	76.5231        	76.18248       	76.000824      	77.96314       	80.19418       	78.7908        	76.66633       	75.6954        	76.56238       	76.35322       	75.710976      	76.15982       	76.63824       	76.33815       	76.09068       	76.582054      	76.40294       	76.079         	76.36166       	76.82719       	75.52074       	76.19941       	76.07133       	76.4937        	75.311325      	75.9809        	76.466354      	76.6176        	72.774826      	74.83887       	76.23937       	76.13669       	75.993965      	75.58228       	76.45019       	
76.399086      	76.629295      	76.96905       	77.39489       	77.298325      	78.68239       	78.578735      	78.40949       	75.33922       	76.960205      	76.10166       	76.25387       	76.04343       	76.88573       	75.46102       	76.490715      	76.29372       	76.25531       	76.60414       	76.4163        	76.16935       	76.35078       	76.39575       	76.59686       	77.660194      	75.13776       	76.45835       	76.11161       	76.6879        	75.1325        	73.370316      	75.50044       	75.491486      	75.69385       	76.10294       	76.77167       	76.47087       	76.22221       	76.745735      	77.19445       	75.51979       	76.37307       	76.23829       	76.48863       	76.69316       	76.310936      	76.27136       	76.364204      	76.37785       	76.02574       	76.37219       	76.60601       	75.9702        	77.21535       	75.418144      	76.92466       	76.02576       	76.280754      	76.307045      	76.61351       	76.372856      	76.61717       	76.24683       	76.252396      	76.65185       	76.22753       	76.33353       	76.06186       	77.34411       	79.40682       	79.89214       	75.17664       	76.38718       	76.034225      	76.750336      	76.282585      	76.33945       	76.09405       	76.1876        	76.591156      	76.03712       	76.68489       	76.686844      	76.17099       	76.43885       	76.31032       	76.23323       	75.83985       	76.30456       	76.520226      	76.817566      	76.14949       	76.038345      	75.66637       	75.30799       	76.17626       	75.723854      	75.84291       	75.99201       	76.291374      	
76.421394      	76.70256       	77.08315       	77.12196       	77.18761       	78.526985      	79.03559       	77.92787       	75.794754      	76.07473       	75.878876      	76.21548       	76.654495      	76.169846      	76.179         	76.56733       	76.29007       	76.92334       	75.2556        	76.95549       	76.090164      	77.10797       	75.207         	76.17996       	76.35125       	76.366684      	76.072975      	76.62381       	76.85336       	75.9847        	73.75005       	74.44396       	75.54505       	75.757805      	76.012886      	76.29062       	76.311485      	76.4319        	76.22818       	76.65554       	76.95547       	75.807014      	76.68787       	76.1285        	75.713         	76.53595       	76.15789       	76.36468       	76.499725      	76.26904       	76.41891       	76.260544      	76.27098       	76.735725      	75.78469       	76.45163       	76.57335       	76.11059       	76.278         	76.68447       	75.359024      	77.12043       	76.13238       	76.24365       	77.15032       	75.3242        	76.57357       	76.76448       	76.79987       	78.34745       	78.88964       	78.2089        	75.44864       	76.1581        	76.22119       	76.934265      	75.90906       	75.87101       	76.62481       	76.169106      	76.1218        	75.37072       	76.91162       	76.17547       	76.376236      	76.43004       	76.86084       	75.53945       	76.787155      	76.162735      	76.91881       	75.578224      	76.21132       	76.72038       	76.64141       	74.97136       	74.95443       	76.40415       	75.70005       	76.13815       	
76.39743       	76.761086      	76.66519       	76.670105      	77.80288       	77.96763       	79.91653       	79.31946       	75.47113       	75.803314      	76.76175       	76.35567       	76.46198       	76.51624       	76.482346      	76.270424      	76.07254       	76.21462       	76.68689       	75.70207       	77.0528        	75.77984       	76.44217       	76.315         	76.72863       	76.15703       	76.72145       	75.83056       	76.453514      	76.7625        	74.48385       	73.58453       	75.473526      	75.455635      	75.76902       	76.47053       	76.397644      	76.10998       	76.783646      	76.07001       	76.24777       	76.824615      	76.29601       	76.35571       	75.83369       	76.521416      	76.250046      	76.675446      	76.19142       	76.392334      	76.635         	76.41576       	75.410645      	76.88277       	76.34951       	76.68385       	76.299164      	76.197044      	76.24459       	76.514175      	76.30054       	76.4742        	76.77814       	76.02444       	76.48251       	76.26416       	76.4108        	76.370705      	76.753525      	78.92931       	79.080795      	80.0852        	75.05805       	76.002266      	76.302734      	76.513794      	76.23419       	76.05023       	76.279205      	76.309235      	76.535736      	76.642586      	76.02334       	76.18612       	76.636444      	76.54712       	76.31794       	76.15981       	76.706604      	75.88999       	77.03902       	76.201935      	75.914024      	76.624596      	76.06812       	76.62866       	75.20479       	76.02783       	75.62926       	77.0653        	
76.30665       	76.80597       	76.84699       	76.47103       	77.15619       	76.92196       	79.01956       	79.85082       	76.355095      	76.13464       	76.65723       	76.3203        	76.19676       	76.47737       	76.35074       	75.965805      	76.68693       	76.669365      	76.18025       	76.56035       	76.249176      	75.83155       	76.25969       	76.443436      	75.98212       	76.56722       	76.34195       	76.1562        	76.71676       	75.799355      	76.11363       	73.2334        	74.99135       	75.642105      	75.57374       	75.87273       	76.544235      	76.66045       	76.68719       	76.07787       	76.90888       	75.76169       	75.68818       	76.78035       	76.55553       	76.14727       	75.95405       	76.44813       	77.48806       	75.27583       	76.53318       	76.47377       	76.33303       	76.75692       	76.05631       	76.001526      	76.80194       	75.637         	76.696686      	76.03286       	76.41842       	76.279205      	76.91705       	75.810555      	76.05953       	76.50137       	76.382164      	76.3955        	75.91492       	77.781395      	80.011024      	77.71754       	75.51133       	76.28922       	76.008675      	76.13396       	76.481636      	76.37496       	76.27429       	76.58166       	76.41705       	76.04819       	76.57608       	75.84208       	76.980194      	75.61772       	76.99937       	75.73305       	76.144264      	76.87466       	76.05986       	77.078766      	75.37455       	76.799126      	75.867165      	76.58625       	76.24319       	76.44667       	75.98092       	76.32051       	
76.32302       	76.427795      	76.94719       	76.44234       	76.94618       	77.26895       	78.625885      	79.773094      	75.31067       	75.4439        	76.462         	76.19805       	76.16678       	76.17528       	76.28655       	76.57659       	76.162926      	76.66074       	76.13312       	76.03377       	76.68746       	76.18467       	76.51857       	76.302414      	76.204         	76.21291       	76.97832       	76.44238       	76.17593       	76.49191       	76.104996      	73.23724       	74.61994       	75.52624       	75.65853       	75.832085      	76.37802       	76.20863       	76.38858       	76.354126      	76.52827       	76.73481       	76.006195      	76.554375      	76.424995      	76.21775       	76.41199       	76.651215      	76.15433       	77.88          	75.14885       	76.19183       	76.24786       	76.53409       	76.11508       	76.46953       	76.17764       	76.247635      	76.48646       	76.84365       	76.25818       	76.48932       	76.500244      	76.47885       	76.22855       	76.37769       	76.993225      	75.91779       	75.77912       	77.050064      	77.421         	79.09711       	79.35676       	75.18194       	76.166016      	75.79099       	76.40143       	76.73243       	76.04309       	76.60684       	75.99121       	76.487724      	76.375916      	77.04904       	75.55861       	76.17684       	76.955864      	76.01055       	75.96457       	76.5016        	76.179825      	76.59867       	76.04223       	76.55818       	76.56527       	76.03478       	76.36909       	75.9337        	76.620926      	76.770226      	
76.415825      	76.51407       	76.86708       	76.45912       	76.23341       	76.8589        	78.035416      	78.595474      	80.63234       	75.01214       	76.094475      	76.53721       	75.71162       	76.26293       	76.74187       	76.3587        	76.69494       	75.894615      	76.47406       	76.45428       	76.15032       	76.73022       	76.30439       	76.006516      	76.195244      	76.55056       	76.1173        	76.42245       	76.12817       	76.50246       	76.645874      	74.30079       	73.878845      	75.37653       	75.690895      	75.94468       	76.28856       	76.28659       	76.02858       	76.64098       	76.972786      	76.29427       	76.193436      	76.139275      	76.54831       	76.72427       	76.265816      	76.15581       	76.32851       	76.309235      	76.54378       	76.36613       	76.55761       	76.39992       	76.49385       	76.55949       	76.33835       	76.06182       	76.75982       	76.0918        	76.93242       	76.22453       	76.01045       	76.51693       	76.084         	76.37164       	76.79714       	76.253265      	76.57919       	76.335205      	78.08625       	78.788025      	78.675766      	76.503044      	75.55356       	76.183754      	76.092155      	76.35024       	78.231415      	74.20789       	76.2574        	76.45879       	76.84589       	75.54963       	76.174484      	76.952126      	76.412704      	75.68981       	75.98811       	76.277214      	76.85653       	75.10271       	76.23877       	76.736984      	75.98766       	76.591576      	76.53336       	75.63476       	76.01133       	76.41689       	
76.389565      	76.626595      	77.52913       	76.820114      	76.270355      	76.41337       	77.5229        	79.59174       	78.25201       	77.727196      	75.895935      	76.14728       	76.661026      	77.08855       	75.186485      	76.26878       	76.04984       	76.57993       	76.239365      	76.090065      	76.29539       	76.55575       	77.67039       	75.10534       	75.603645      	76.98299       	76.57445       	76.38198       	76.04227       	77.2504        	75.54621       	74.34289       	73.69137       	75.508446      	75.76527       	75.849075      	76.208496      	76.30534       	76.11197       	76.38448       	77.03596       	75.811386      	75.95372       	76.560234      	76.21113       	76.68693       	76.0114        	76.65053       	76.58374       	76.66189       	76.15626       	76.77829       	75.7201        	75.51012       	77.047714      	75.691185      	76.71442       	75.94644       	76.940125      	76.18128       	75.80245       	76.80019       	76.74924       	76.13132       	76.289894      	76.11968       	77.175224      	75.258995      	76.63295       	76.09036       	76.19102       	79.22295       	77.72437       	78.21894       	75.9656        	76.02452       	76.63255       	76.09371       	76.39832       	76.23233       	77.01103       	75.76999       	77.05603       	75.61474       	75.787704      	76.7355        	76.73446       	76.77846       	75.47868       	76.834404      	76.56707       	74.75916       	76.19231       	76.66322       	75.73418       	77.471855      	75.54866       	76.500694      	76.49538       	76.31239       	
76.542915      	76.771126      	77.42407       	76.94832       	76.55608       	76.508194      	77.300804      	78.77098       	78.517         	78.99695       	75.33402       	75.965         	76.4825        	76.23611       	76.273735      	76.83627       	76.02653       	76.48343       	76.35718       	76.06095       	76.497604      	75.78082       	76.95424       	76.25762       	75.994545      	76.73862       	76.104416      	77.00864       	75.956         	76.00655       	76.44396       	75.45535       	73.58329       	75.00975       	75.434166      	76.07926       	76.42061       	76.26266       	76.0515        	76.27505       	76.851906      	75.968315      	76.325554      	76.19674       	76.76261       	76.336395      	76.7232        	76.101265      	76.41561       	76.46597       	76.412415      	76.13085       	76.457664      	76.34092       	75.82996       	76.62494       	75.90996       	76.82336       	76.36451       	76.55514       	76.12311       	76.72216       	77.566086      	75.5904        	74.9003        	77.38866       	75.81806       	76.901054      	75.877075      	78.00183       	76.13391       	76.9227        	78.93265       	78.88762       	75.47327       	75.92519       	76.23458       	76.19075       	76.15499       	76.64436       	76.16745       	76.2268        	76.78667       	75.71326       	76.3677        	76.74305       	75.788826      	76.5737        	76.459435      	76.51815       	76.39814       	76.63789       	76.11957       	76.49129       	75.36767       	77.649605      	75.3399        	76.48689       	76.399796      	75.958565      	
76.24265       	76.6704        	77.460754      	76.79864       	76.41012       	76.314476      	76.832         	78.177505      	78.72952       	79.61865       	75.271805      	75.429306      	76.270454      	76.1042        	77.00075       	77.489685      	74.946205      	76.05036       	76.732834      	76.19511       	76.346954      	76.20532       	76.196976      	76.57939       	75.90856       	76.38358       	76.887924      	76.21933       	76.50419       	76.25072       	76.301895      	76.068375      	73.104126      	75.49934       	74.936584      	75.60074       	76.01991       	76.718445      	76.856415      	75.61724       	76.555954      	76.52919       	76.13346       	76.456406      	76.80191       	76.03168       	76.64712       	76.675934      	75.81441       	76.32751       	76.79279       	76.32616       	75.770996      	76.578964      	76.23207       	76.8573        	75.70302       	76.549706      	76.52292       	75.61919       	76.569756      	77.11191       	76.871704      	75.96961       	78.35876       	75.25404       	75.6274        	77.596016      	76.92517       	76.98896       	76.624374      	76.71947       	78.99036       	77.54474       	75.86437       	76.09648       	76.53385       	76.083145      	76.478935      	76.05115       	76.70794       	76.3704        	76.25403       	76.17959       	76.71572       	76.02272       	76.242744      	76.48291       	77.06129       	75.112114      	76.1887        	76.3246        	76.70116       	76.09516       	76.26463       	76.70031       	76.03601       	76.40231       	76.51412       	76.220535      	
76.41146       	77.01298       	77.425125      	76.83928       	76.705444      	76.3192        	76.63881       	77.27926       	80.38998       	77.53521       	75.68709       	76.40071       	76.04151       	76.7241        	76.00796       	76.403946      	76.231674      	76.56559       	76.52275       	76.20096       	76.45976       	76.33186       	76.49661       	76.31071       	76.298515      	76.70739       	76.19533       	76.219124      	76.39548       	76.52645       	77.28683       	74.835495      	73.79127       	74.15506       	75.906204      	75.71979       	75.8662        	76.35426       	76.568         	76.104546      	76.31225       	76.633804      	76.75208       	75.99379       	75.79988       	76.5267        	76.51389       	76.429924      	76.207146      	76.51125       	76.959915      	75.71271       	76.429695      	76.260185      	76.49942       	76.18427       	76.73849       	75.78133       	77.28391       	76.03747       	76.54366       	77.66556       	76.64172       	76.21724       	77.22168       	76.77646       	77.28735       	76.09604       	77.48832       	76.484795      	76.121895      	77.4772        	79.24924       	75.57955       	76.02881       	76.221054      	76.428894      	76.16655       	76.34867       	76.19189       	76.51784       	76.56066       	76.15298       	76.35857       	76.44247       	76.669624      	76.30554       	76.36196       	76.35972       	76.44406       	76.62179       	76.16084       	76.31342       	76.39263       	76.496         	76.29423       	76.48241       	76.13325       	76.44109       	76.283356      	
76.28842       	76.58692       	76.80209       	76.45547       	76.557495      	76.17923       	77.301056      	77.85509       	79.428055      	77.67409       	76.852684      	75.77539       	76.65693       	76.05276       	76.27257       	75.468094      	76.79211       	76.466805      	76.12054       	76.60789       	76.32647       	76.26386       	76.69228       	76.503075      	76.24361       	75.9957        	76.59089       	76.34285       	76.525345      	76.21507       	76.52321       	76.10794       	74.92045       	73.811356      	75.43399       	75.56497       	75.7963        	76.21432       	76.38404       	76.047485      	76.625374      	76.220566      	76.585655      	76.01814       	76.36782       	76.198975      	76.250824      	76.40866       	77.34621       	75.235634      	76.944176      	75.87821       	76.881134      	76.46795       	76.24702       	77.726036      	76.77866       	75.31801       	76.18974       	76.88275       	77.528564      	76.6469        	76.46113       	76.72827       	77.36384       	76.495514      	76.80352       	76.89993       	77.49485       	77.46316       	76.2609        	75.930534      	76.3341        	76.54394       	76.04353       	76.600204      	76.19985       	76.471664      	76.39863       	76.27976       	76.38522       	76.20432       	76.50278       	76.5838        	76.19186       	76.344215      	76.62276       	76.22755       	76.22622       	76.60449       	76.232376      	76.57652       	76.541145      	76.27047       	76.41067       	76.411545      	76.22516       	76.23357       	76.77298       	76.0975        	
76.30565       	76.598434      	76.61525       	76.73245       	76.653885      	75.81682       	76.52295       	77.234024      	79.47358       	78.698845      	78.34608       	75.391014      	75.55681       	76.60256       	76.48953       	76.08249       	76.41295       	76.40044       	76.20798       	76.499245      	76.212616      	76.38765       	76.5711        	76.450134      	76.05015       	76.627304      	76.77218       	76.58585       	76.15983       	76.56198       	76.43504       	76.43983       	75.22775       	72.82962       	75.330284      	75.51754       	75.75167       	76.34141       	76.79686       	76.02606       	76.39562       	76.94971       	76.15414       	76.47551       	76.6869        	75.64048       	76.62297       	76.83181       	75.62125       	77.75213       	77.1635        	76.680855      	75.562996      	76.48019       	77.111404      	76.35293       	76.36708       	76.76182       	76.20024       	77.1592        	77.597         	76.78044       	76.35628       	76.52937       	77.19621       	77.75641       	75.848946      	75.86357       	76.33682       	76.38746       	76.280914      	76.71416       	76.55652       	76.543785      	76.25293       	76.220314      	76.852615      	76.21976       	76.11208       	76.43685       	76.32152       	76.54253       	76.07163       	76.36167       	76.71663       	76.26434       	76.2597        	76.367645      	76.645775      	76.261826      	76.32909       	76.60827       	76.13382       	76.43203       	76.29592       	76.58991       	76.369125      	76.39584       	76.82733       	76.20525       	
76.28226       	76.3253        	76.35124       	77.14458       	76.31146       	76.56606       	76.46785       	77.06149       	78.6058        	78.575584      	78.290375      	75.15939       	76.15688       	76.37082       	76.14091       	76.765884      	75.96612       	76.33918       	76.13425       	76.621605      	76.418816      	76.1338        	76.54406       	76.26776       	76.08772       	76.196434      	76.482124      	76.39007       	76.111275      	76.09629       	76.754364      	76.30758       	75.82344       	72.93619       	75.06877       	75.57903       	75.89607       	76.02056       	76.513115      	76.144554      	76.11426       	76.672005      	76.60801       	76.54817       	76.79693       	76.99839       	77.21451       	75.556915      	76.15381       	76.24302       	77.18389       	76.25679       	77.12793       	76.531586      	76.1128        	76.79594       	76.99474       	77.19477       	76.70277       	76.57367       	78.00036       	76.06345       	76.63758       	75.61548       	76.09947       	76.02466       	76.492645      	76.397995      	76.23911       	76.46086       	75.989815      	76.6112        	76.9095        	76.01242       	76.253235      	76.43813       	76.23823       	76.622025      	76.57431       	76.183495      	75.96874       	76.078926      	76.26395       	76.895256      	76.26949       	76.2748        	76.29867       	76.60427       	76.03007       	76.465126      	76.59199       	76.48151       	75.63934       	75.90301       	76.75127       	75.67905       	76.262146      	76.92456       	75.81478       	75.74721       	
76.581505      	76.946976      	76.7697        	76.26147       	76.547905      	75.834206      	76.78883       	77.44332       	78.52829       	78.79929       	78.21538       	75.302055      	75.945175      	75.98226       	76.30813       	76.52527       	76.08573       	76.33606       	76.59888       	75.726616      	76.74128       	76.616974      	76.47937       	76.03657       	76.748825      	75.9818        	76.61014       	76.26601       	76.46228       	76.30137       	76.328354      	76.88552       	76.160194      	73.58475       	74.53277       	75.54346       	76.01176       	76.135445      	76.341896      	75.19498       	76.30563       	76.282         	76.68764       	77.79734       	75.26609       	76.45397       	77.087265      	76.4428        	76.44844       	76.75661       	77.097435      	77.4539        	75.39224       	77.670204      	78.06044       	75.89898       	76.33018       	77.72116       	75.40873       	76.16975       	76.3264        	75.76767       	76.61714       	76.14226       	76.38889       	76.163956      	76.90823       	76.35147       	76.40293       	75.96065       	76.564186      	75.942444      	76.911705      	75.58622       	76.30626       	76.76027       	76.42645       	75.92411       	75.96326       	76.66679       	76.5334        	76.29285       	76.92229       	75.86829       	76.61612       	76.042984      	76.10305       	76.718         	76.78508       	76.177605      	76.46617       	75.81977       	76.60037       	75.7552        	76.655975      	76.33932       	76.114586      	76.38852       	76.7963        	76.54427       	
76.38055       	76.56845       	77.455086      	77.28425       	76.76057       	76.599625      	75.37313       	76.883934      	77.74586       	80.05574       	78.53694       	75.3613        	76.002716      	76.54283       	76.2034        	77.0844        	75.87683       	76.15719       	76.11314       	76.464066      	76.31614       	76.43235       	76.263306      	76.076904      	76.2063        	76.80211       	76.25437       	76.92861       	76.15457       	76.09616       	76.37141       	76.427055      	76.553856      	74.13831       	74.958855      	76.47962       	75.155266      	75.86292       	76.370834      	76.45001       	75.27113       	76.14881       	77.02595       	76.47923       	76.86592       	75.7516        	77.377686      	76.83477       	76.79512       	77.38554       	76.41964       	77.03496       	77.155975      	76.59742       	76.73612       	74.7619        	76.13939       	76.1942        	76.32544       	75.89525       	77.235725      	76.04389       	75.938         	76.33317       	76.84297       	75.75446       	76.64992       	76.46657       	76.12626       	76.73902       	76.09625       	76.42395       	77.1222        	76.326836      	76.6446        	75.7439        	77.32609       	75.5498        	76.43655       	75.745384      	76.76521       	76.11396       	76.23608       	76.3355        	76.422165      	76.669365      	75.88722       	76.50293       	76.74946       	75.88587       	76.0905        	76.429344      	76.33697       	75.96688       	76.50998       	76.517365      	76.03714       	77.18833       	75.053185      	77.091805      	
76.321846      	76.5107        	77.533936      	77.30595       	76.46523       	76.57024       	76.7315        	76.26516       	76.98424       	79.08694       	79.98097       	76.64311       	75.60087       	76.071335      	76.55663       	75.90328       	76.46336       	76.06337       	76.20735       	76.66058       	76.41052       	76.28019       	76.01767       	76.393005      	76.80958       	76.223495      	76.156624      	77.08162       	75.5752        	76.13151       	76.26673       	76.68711       	76.259895      	76.386154      	76.37924       	74.87913       	74.38602       	75.89622       	75.950584      	75.76652       	76.66817       	75.48547       	77.82172       	76.7252        	76.73987       	76.83324       	76.152214      	76.75347       	77.58987       	76.44042       	76.229996      	75.966965      	76.30734       	76.54229       	76.40588       	76.21296       	76.68455       	76.39515       	76.17304       	76.34841       	77.08926       	76.260796      	75.87813       	76.57232       	76.33862       	75.99071       	76.22952       	76.52102       	76.615654      	76.07468       	76.64836       	76.47133       	76.072845      	76.42214       	76.50192       	75.94211       	76.51905       	76.56062       	76.36223       	76.100334      	76.465096      	76.2851        	76.819214      	75.74052       	76.21849       	76.69063       	76.28445       	76.313225      	76.27531       	76.99421       	75.95161       	76.12028       	76.46287       	76.59386       	76.09065       	76.39861       	76.5005        	76.65299       	76.49745       	75.37965       	
76.40806       	76.559586      	77.329094      	76.92551       	76.44315       	76.12526       	76.55608       	76.57566       	77.02359       	77.93709       	79.91305       	78.40061       	75.31902       	76.30478       	76.0976        	76.22385       	76.249245      	76.40722       	76.58927       	76.08789       	76.70309       	76.14996       	76.21624       	76.380615      	76.493454      	76.3651        	76.186386      	76.305084      	76.56948       	76.607         	75.82481       	76.99445       	76.33753       	76.30722       	76.32592       	76.606865      	74.14876       	76.586716      	76.52562       	76.04297       	77.145706      	76.11049       	77.083725      	77.739334      	75.70291       	77.37709       	76.21922       	75.6703        	76.17949       	76.24593       	76.33121       	76.34282       	76.30015       	76.49098       	76.31619       	76.42845       	76.29375       	76.220474      	76.851814      	76.08567       	76.70659       	76.09073       	76.592186      	76.207016      	76.25624       	76.63471       	76.14651       	76.44465       	76.39743       	76.89162       	77.17194       	75.97445       	76.02617       	76.6388        	76.35383       	76.80381       	75.8743        	76.41374       	76.286285      	76.90356       	76.17815       	76.19409       	76.59636       	76.29988       	76.488144      	76.4491        	76.1057        	76.523766      	76.31793       	76.09215       	76.95472       	76.05644       	75.509155      	77.08583       	76.18813       	76.95265       	77.07182       	75.093765      	76.68528       	76.052986      	
76.22433       	76.58361       	76.53532       	76.675835      	76.240715      	76.51444       	76.38236       	76.508286      	77.15101       	77.198265      	78.469826      	79.761055      	75.832016      	76.527824      	76.188736      	76.32144       	76.22485       	76.53138       	76.487434      	76.17221       	76.48794       	76.00654       	76.42968       	76.67269       	76.19729       	76.553734      	76.58681       	76.064384      	75.685104      	76.62609       	76.418045      	76.33702       	76.52794       	76.52682       	76.72248       	76.13119       	76.32864       	76.18745       	76.12064       	76.03204       	76.30164       	76.47533       	76.29794       	76.34367       	76.29951       	76.640854      	76.251305      	76.408745      	75.859146      	76.85196       	76.66564       	76.03628       	76.26355       	76.552345      	76.26053       	76.64811       	76.35488       	75.861664      	76.71015       	76.15216       	76.423004      	76.148895      	76.66203       	76.38206       	76.48373       	76.3384        	76.393265      	76.20719       	76.426636      	76.354416      	76.26694       	76.231285      	76.37004       	76.58459       	76.12788       	76.36732       	76.85392       	75.77741       	76.48581       	75.84365       	76.5733        	76.62215       	75.71601       	76.652405      	75.96088       	76.4063        	76.983635      	75.15354       	76.33938       	76.6959        	75.89153       	76.43336       	76.463135      	77.56353       	75.16846       	76.18795       	75.96865       	76.855965      	77.5711        	75.00316       	
76.39542       	76.76406       	76.66939       	76.42596       	76.200806      	76.619736      	77.03228       	75.984146      	77.10298       	76.93331       	79.28183       	78.51922       	78.3666        	75.486755      	75.94657       	76.24619       	76.443756      	76.271126      	76.565186      	76.11233       	76.44917       	76.405266      	76.21003       	76.51708       	76.045944      	77.08814       	76.42199       	76.256996      	75.93545       	76.17869       	76.67696       	76.7003        	76.136925      	76.615776      	76.35038       	76.36166       	76.3944        	76.18663       	76.597305      	76.231674      	76.06211       	76.666504      	76.13638       	76.217094      	76.775536      	75.9948        	76.50414       	76.18542       	76.52291       	76.565796      	75.89681       	76.286224      	77.20896       	75.34607       	76.795586      	75.90622       	76.83927       	76.1081        	76.54944       	76.50628       	75.984436      	76.288994      	76.677864      	75.795364      	76.53168       	76.26288       	76.53435       	76.99729       	75.33554       	75.841774      	76.77132       	76.27863       	76.66282       	76.46274       	76.97292       	75.44422       	76.618164      	75.65469       	77.02887       	76.651184      	75.879944      	76.66407       	76.264946      	75.66859       	76.7667        	76.34042       	76.05507       	77.39462       	75.23666       	76.40634       	76.605354      	75.77051       	76.58278       	76.05815       	76.73905       	76.08639       	76.16611       	76.399445      	76.41602       	76.45879       	
76.35925       	76.57331       	76.78401       	76.64922       	76.53182       	76.610085      	76.05092       	76.48149       	77.44267       	76.97471       	78.396935      	78.22521       	79.17784       	75.35557       	76.109955      	76.2698        	76.38494       	76.56778       	76.2464        	76.38455       	76.17293       	76.52412       	76.30222       	76.47492       	76.25127       	76.31581       	76.8214        	75.96389       	76.43783       	76.401276      	76.32959       	76.47738       	76.51674       	76.282616      	76.18364       	76.56386       	76.25399       	76.350685      	76.096725      	76.506966      	76.63686       	76.34206       	76.55668       	76.23408       	76.561424      	76.41054       	76.25454       	76.557495      	76.337166      	76.35814       	76.63961       	76.26928       	76.18965       	76.4327        	76.3947        	77.286896      	75.995384      	76.3359        	76.50734       	76.26155       	76.51617       	76.39825       	76.43738       	76.37091       	76.18481       	76.96085       	76.397964      	76.18962       	76.41843       	76.207726      	76.021935      	76.559364      	76.56185       	76.48882       	75.99602       	76.92363       	76.30056       	76.241104      	76.35708       	76.07173       	76.5206        	76.033646      	76.45849       	76.49445       	75.49026       	76.821075      	76.3071        	76.23807       	76.369545      	76.565         	76.28622       	76.04796       	76.515594      	76.50904       	77.06088       	75.8698        	76.0345        	76.141975      	75.83705       	76.32868       	
76.49465       	76.85306       	76.75562       	77.0257        	76.57075       	76.17191       	75.72648       	77.03931       	77.411026      	75.16746       	78.37374       	79.65511       	79.4544        	75.765495      	75.74777       	76.56213       	76.55171       	75.82325       	76.32389       	76.57296       	76.310776      	76.27816       	76.37317       	76.079605      	76.72121       	76.0217        	75.98679       	76.90967       	76.31221       	76.406075      	76.424644      	76.16566       	76.580986      	76.42628       	76.52981       	76.428925      	76.36985       	76.316765      	76.53236       	76.3065        	76.382935      	76.3099        	75.93735       	76.21502       	76.411095      	76.22977       	76.617775      	76.45488       	76.36997       	76.62868       	76.268005      	76.35792       	76.39408       	76.40907       	76.46623       	76.20519       	76.54315       	76.33174       	76.455894      	76.12762       	76.53513       	76.54973       	76.18153       	76.249794      	76.31511       	76.142204      	76.514435      	76.31529       	76.75592       	76.40638       	76.307106      	76.30147       	76.44123       	76.208725      	76.88076       	76.940125      	75.910835      	75.6939        	76.594475      	76.50228       	75.98391       	76.697235      	76.227585      	76.35844       	76.384865      	76.50398       	76.4597        	76.62389       	76.03608       	76.70586       	76.1765        	76.36381       	76.425446      	76.05038       	76.4886        	76.6781        	76.41322       	76.62604       	75.745125      	76.11908       	
76.5777        	77.01513       	76.94822       	76.93204       	76.55927       	76.002625      	76.66953       	76.84899       	76.80924       	75.57598       	77.16398       	78.03393       	79.49605       	77.574036      	75.91581       	76.16952       	76.14597       	76.321625      	76.67522       	76.213806      	76.32675       	76.4997        	76.363335      	76.48875       	76.16471       	76.62008       	75.945816      	76.62341       	76.275116      	76.340645      	76.42177       	75.72856       	76.66748       	76.26147       	76.053085      	76.84003       	75.58431       	75.95837       	76.60917       	76.22187       	76.213005      	76.6914        	76.19936       	76.272896      	76.42413       	76.533455      	76.84819       	76.05999       	76.398384      	76.408134      	76.34574       	76.44651       	76.31295       	76.845535      	75.62325       	76.866516      	76.20315       	76.06703       	76.63307       	76.20779       	76.65585       	76.39454       	76.67531       	76.42739       	75.92661       	76.56966       	76.84788       	76.38129       	76.23826       	76.530655      	76.38368       	76.33671       	76.322266      	76.57794       	76.44661       	76.20979       	76.40992       	76.944756      	76.248116      	76.34001       	76.38071       	76.60944       	76.12235       	76.44066       	76.70812       	75.52916       	76.54585       	76.3407        	76.41129       	76.22293       	76.34584       	76.32974       	76.76869       	75.88767       	75.96297       	77.000244      	76.12882       	76.43349       	76.602776      	76.12728       	
76.66624       	76.653435      	76.48046       	76.23612       	76.45277       	77.89722       	75.339294      	77.6235        	76.9115        	75.79288       	77.63097       	77.11301       	80.758125      	75.95549       	76.01412       	76.60124       	76.201454      	76.35597       	76.18542       	76.2071        	76.57842       	76.49556       	76.61352       	76.17707       	76.39973       	76.350494      	76.61092       	76.3178        	76.13551       	76.71426       	76.453865      	76.36042       	76.32827       	76.41547       	76.27459       	76.008224      	76.2153        	76.779816      	76.478935      	75.95413       	76.29506       	76.58457       	75.94108       	76.82301       	76.41933       	76.050804      	76.37087       	76.47467       	76.825195      	76.150925      	76.304665      	76.51307       	76.469734      	76.276665      	76.406494      	76.487175      	76.374954      	76.32832       	76.443504      	76.43172       	76.23332       	76.48353       	76.42913       	76.47101       	76.199356      	76.46539       	76.30216       	76.55895       	76.44014       	76.10187       	76.40031       	76.42177       	76.43297       	76.6932        	76.50776       	76.4816        	76.42842       	76.215294      	76.48285       	76.60703       	76.22446       	76.328255      	76.33227       	76.388435      	76.64822       	76.204796      	76.83419       	76.12132       	76.09542       	76.67013       	76.42444       	76.03243       	76.47721       	76.61064       	76.136665      	76.63344       	76.22066       	76.60827       	76.23199       	76.02969       	
76.66499       	76.65621       	75.963326      	76.624         	76.33165       	75.93475       	76.4626        	78.72108       	76.32348       	76.593636      	76.92381       	76.801674      	78.90275       	75.30765       	76.229706      	76.57799       	76.25969       	75.9855        	76.156746      	76.547775      	76.19053       	76.721054      	76.37382       	76.46087       	76.520096      	76.13336       	76.41102       	76.489296      	76.35808       	76.58419       	76.2771        	76.13956       	76.61594       	76.58115       	76.00287       	76.21878       	76.51203       	76.34571       	76.348274      	76.25125       	76.15619       	76.543755      	76.23926       	76.420044      	76.67232       	76.35733       	76.320015      	76.117386      	76.40612       	76.94472       	76.20898       	76.43323       	76.15952       	76.65895       	76.40109       	76.121895      	76.51286       	76.30084       	76.57499       	76.462654      	76.14462       	76.652626      	76.06923       	76.23948       	76.78378       	76.41992       	76.27588       	76.34036       	76.48211       	76.54379       	75.91046       	76.54952       	76.646675      	75.75132       	76.97201       	76.425354      	76.65926       	76.14036       	76.685974      	76.6776        	76.15233       	76.4673        	75.89389       	76.55652       	76.673744      	76.03189       	76.30418       	76.49508       	76.626915      	76.396996      	76.20341       	76.38347       	76.49289       	76.20937       	76.73985       	76.299416      	76.467964      	76.553635      	76.18252       	76.32017       	
76.28634       	76.52753       	76.87549       	77.112114      	76.824265      	77.06275       	76.87551       	77.79239       	77.47359       	77.29099       	77.33486       	75.34787       	76.17959       	76.09354       	76.093124      	76.902664      	76.0201        	76.53899       	76.17939       	76.44378       	76.67531       	76.19944       	76.54908       	76.31113       	76.46692       	76.46464       	76.38141       	76.25734       	76.71425       	76.42936       	76.05411       	76.653244      	76.27419       	76.26621       	76.7845        	75.970184      	76.66997       	76.200356      	75.9683        	76.80306       	75.96608       	76.03325       	76.524895      	76.60015       	76.38108       	76.84059       	76.44398       	76.33565       	76.18806       	76.71859       	76.39417       	76.02565       	76.63395       	76.50641       	76.36642       	76.3847        	76.357574      	76.32323       	76.37164       	76.49957       	76.45899       	76.372826      	76.37792       	76.24262       	76.50938       	76.11974       	76.49848       	76.55599       	76.13255       	76.461685      	76.65146       	76.460175      	76.274864      	76.3836        	76.45231       	76.47842       	76.69116       	76.3776        	76.43324       	76.200035      	76.25463       	76.48825       	76.314575      	76.36817       	76.186134      	76.91175       	76.18353       	76.31104       	76.55614       	76.489975      	76.24444       	76.43997       	76.47276       	76.39851       	76.65126       	76.2645        	76.35131       	76.149         	76.51118       	76.297935      	
76.6281        	76.38076       	77.55448       	78.16481       	77.0118        	76.27159       	77.58211       	76.55817       	76.245346      	76.47258       	76.092865      	76.89742       	76.23346       	76.27793       	76.45443       	76.37555       	76.24103       	76.68147       	76.26613       	76.29435       	76.19392       	76.36821       	76.680984      	76.15478       	76.402         	76.23594       	76.498665      	76.633896      	76.06293       	76.41722       	76.59824       	76.532036      	76.256454      	76.18221       	76.37648       	76.33662       	76.07276       	76.24033       	76.64032       	76.52732       	76.110306      	76.35126       	76.67554       	76.262825      	76.63079       	76.09064       	76.669075      	76.20485       	76.63925       	76.811714      	75.83514       	76.235214      	76.39205       	76.58332       	76.28361       	76.120865      	76.50366       	76.254486      	76.88779       	76.36884       	76.24433       	76.599785      	76.49432       	75.99651       	76.33875       	76.229385      	76.55499       	76.49841       	75.75741       	76.21153       	76.50877       	76.34853       	76.22551       	76.31235       	76.613464      	76.36862       	76.39853       	76.91712       	75.84965       	75.922554      	76.67077       	76.38849       	76.39084       	76.34212       	76.70084       	76.4912        	76.38537       	76.452705      	76.2807        	76.744865      	76.1334        	76.495346      	76.14555       	76.65802       	76.20574       	76.22415       	76.939735      	76.23996       	76.21001       	76.351654      	
76.7122        	77.30463       	77.15605       	77.57145       	76.0704        	75.85164       	76.34469       	76.47666       	76.25666       	76.550156      	76.35139       	76.527664      	76.49374       	76.24603       	76.63468       	76.31767       	76.3191        	76.2838        	76.68424       	76.324425      	76.38512       	76.51955       	76.27349       	76.41105       	76.2997        	76.68186       	76.6211        	76.09219       	76.45829       	76.43209       	76.49789       	76.45316       	76.51787       	76.09631       	76.42885       	76.38446       	76.08232       	76.457794      	76.36499       	76.52567       	76.21624       	76.116104      	76.56221       	76.71008       	76.381744      	76.67698       	76.19142       	76.2783        	76.31788       	76.70456       	76.35168       	76.44473       	76.394485      	76.29851       	76.38484       	76.69082       	76.25957       	76.660675      	76.00998       	76.64029       	76.40258       	76.52365       	76.1905        	76.3287        	76.492714      	76.04832       	76.42308       	76.30315       	76.49468       	76.16429       	77.11642       	76.21373       	76.528824      	75.97199       	76.50487       	76.85426       	76.37457       	76.30858       	76.78319       	76.12871       	76.457924      	76.244644      	76.5634        	76.37027       	75.76779       	76.66272       	76.49203       	76.003494      	76.51523       	76.55612       	76.50375       	76.15901       	76.552086      	76.13071       	76.31086       	76.21607       	76.58472       	76.7544        	76.092255      	76.72715       	
76.13832       	76.12654       	76.67357       	76.923         	76.53593       	76.90331       	76.637955      	76.404465      	76.37714       	75.870125      	77.35546       	76.0481        	76.08892       	76.99174       	76.08184       	76.55612       	76.349335      	76.44031       	76.41291       	75.98815       	76.74715       	76.37517       	76.37701       	76.25214       	76.52036       	76.35322       	76.34331       	76.69869       	76.143936      	76.21686       	76.68537       	76.6751        	75.75131       	76.30727       	76.189865      	76.59024       	76.23786       	76.20101       	76.73525       	76.267006      	76.103         	76.45598       	76.22376       	76.53566       	76.41178       	76.28632       	76.37779       	76.34621       	76.30712       	76.30767       	76.270805      	76.411476      	76.74425       	76.48621       	76.39891       	76.45219       	76.37048       	76.477936      	76.48599       	76.08986       	76.62187       	76.43986       	76.30823       	76.40953       	76.47604       	76.33995       	76.428406      	76.32752       	76.880325      	76.077446      	76.29177       	76.59251       	76.25641       	76.45354       	76.80536       	76.08976       	76.726944      	76.08055       	76.81986       	76.68663       	76.1318        	76.24396       	76.52063       	76.53591       	76.52547       	76.42081       	76.42449       	76.18629       	76.84564       	76.36432       	75.90119       	76.6223        	76.078445      	76.32622       	76.56895       	76.20724       	76.32373       	76.57668       	76.34609       	76.30183       	
76.61973       	76.29157       	76.058395      	76.83863       	77.10736       	75.92388       	76.43576       	75.537735      	77.02789       	76.374245      	76.38926       	76.56647       	76.49555       	76.42652       	76.423615      	76.263855      	76.551         	76.366104      	76.06858       	76.66662       	76.28668       	76.14126       	76.74442       	76.39786       	76.45368       	76.51209       	76.401665      	76.31094       	76.34394       	76.38078       	76.42053       	76.13564       	76.35176       	76.21638       	76.896286      	75.964294      	76.41523       	76.363884      	76.60096       	76.57622       	76.09184       	76.45416       	76.756805      	75.964386      	76.27289       	76.86826       	75.52683       	76.425415      	77.19803       	77.817566      	75.49896       	75.727135      	76.82568       	76.16148       	76.02116       	76.24344       	76.567116      	76.215294      	76.441185      	76.82849       	76.425446      	76.221535      	76.166794      	76.24685       	76.58979       	76.63362       	76.2465        	76.38852       	76.582184      	76.25409       	76.39261       	76.65421       	76.61013       	76.075584      	76.28855       	76.73368       	76.322395      	76.36188       	76.25936       	76.39772       	76.68968       	76.11883       	76.70418       	76.19219       	76.39693       	76.52198       	76.246124      	76.507515      	76.48406       	75.948975      	76.80035       	76.27102       	76.0848        	77.01423       	76.13573       	76.62828       	76.28917       	76.451126      	76.329735      	76.18816       	
76.27038       	76.727715      	77.143936      	76.41235       	76.87902       	76.47549       	76.003624      	76.69918       	76.34998       	76.50987       	76.484215      	76.577225      	76.65588       	76.40318       	76.37813       	76.4015        	76.45729       	76.34177       	76.37503       	76.09557       	76.18193       	76.236786      	76.863495      	76.170685      	76.468094      	76.45793       	76.53833       	76.48803       	76.287834      	76.6776        	76.57195       	75.93175       	76.48394       	76.41418       	76.17034       	76.636696      	76.236465      	75.98891       	76.75295       	75.97669       	76.442406      	76.52863       	76.202385      	76.51097       	76.35951       	76.18568       	77.07569       	75.25754       	76.138306      	77.66509       	76.23444       	76.54134       	76.53545       	75.97158       	76.68807       	76.46994       	76.31749       	76.536446      	76.255424      	76.272835      	76.59925       	76.67723       	76.31211       	76.14651       	76.532135      	76.31329       	76.40598       	76.44687       	76.47796       	76.54041       	76.188805      	76.1132        	76.62831       	76.372795      	76.25875       	76.5233        	76.493805      	76.69298       	76.14574       	76.361626      	76.56808       	76.3059        	76.3442        	76.49195       	76.4852        	76.29069       	76.45844       	76.68341       	76.24528       	76.410355      	76.4735        	76.16322       	76.637985      	76.25686       	76.36431       	76.63183       	76.4126        	76.09202       	76.6815        	76.32344       	
76.52431       	76.27439       	75.74246       	76.86889       	76.77357       	76.597786      	76.81928       	75.699135      	76.778244      	76.23652       	75.847374      	76.9439        	76.644356      	75.94459       	76.42545       	76.77236       	76.57562       	75.96975       	76.63695       	76.435616      	76.30483       	76.43593       	76.17163       	76.5961        	76.16961       	76.17217       	76.5684        	76.45316       	76.801315      	76.216545      	76.412025      	76.3144        	76.13068       	76.41678       	76.338554      	76.461975      	76.43539       	76.37407       	76.4656        	76.55366       	76.1772        	76.08315       	76.25177       	76.78821       	76.466606      	76.23105       	76.413086      	76.2268        	76.21926       	76.52866       	75.9589        	76.942856      	76.326195      	76.05905       	76.44279       	76.61978       	76.11078       	76.385574      	76.67902       	76.199326      	76.67746       	76.260254      	76.141106      	76.9354        	76.27689       	76.287125      	76.46456       	76.35877       	76.65244       	76.14269       	76.34819       	76.851845      	76.4274        	76.08246       	76.661415      	76.29372       	76.80699       	76.43295       	76.075264      	76.527954      	76.396126      	76.45523       	76.180695      	76.630974      	76.67159       	76.16396       	76.623436      	76.23683       	76.23784       	76.68077       	76.584366      	75.77972       	76.66386       	75.922264      	76.51481       	76.61644       	75.97844       	76.36894       	76.65848       	76.42361       	
76.320435      	76.52123       	76.63824       	76.496056      	76.623245      	76.14673       	76.35151       	76.878105      	76.184326      	76.16299       	76.424995      	76.50293       	76.44232       	76.47209       	76.5796        	76.366806      	76.49575       	76.38658       	76.68991       	76.21161       	75.8721        	76.66278       	76.1954        	76.52431       	76.5219        	76.53788       	75.9773        	76.25931       	76.498024      	76.41921       	76.49863       	76.365776      	76.293205      	76.47602       	76.46909       	76.25428       	76.28872       	76.69105       	76.02671       	76.48251       	76.40218       	76.220245      	76.19702       	76.480446      	76.438385      	76.63961       	76.17178       	76.65209       	76.4165        	76.08501       	76.690765      	76.316284      	76.47396       	76.321884      	76.84504       	76.082466      	76.55388       	76.39491       	76.18781       	76.71894       	75.98992       	76.40877       	76.5629        	76.432144      	76.606155      	76.07574       	76.28725       	76.57601       	76.17618       	76.44317       	76.553505      	76.41739       	76.17441       	76.51558       	76.57445       	76.25587       	76.21177       	76.71803       	76.48371       	76.39185       	76.23172       	77.16055       	75.787346      	76.18616       	76.39478       	76.53197       	76.267044      	76.245964      	76.59121       	76.12471       	76.20609       	76.372375      	76.48194       	76.04976       	76.541824      	76.27159       	76.64743       	76.15698       	76.31521       	76.57973       	
76.44096       	76.91848       	77.17991       	76.20588       	76.772446      	76.25091       	76.24326       	76.34465       	76.21926       	76.37994       	76.757454      	76.22765       	76.4943        	76.667175      	76.34404       	75.922585      	76.25568       	76.87928       	76.17055       	76.39687       	76.399086      	76.1848        	77.33527       	75.92868       	76.26763       	76.43655       	76.62741       	76.10985       	76.3073        	76.44473       	76.49028       	76.418236      	76.08928       	76.49124       	76.65373       	76.15354       	76.65382       	75.93391       	76.9013        	75.9335        	76.74422       	76.36509       	75.94843       	76.354256      	76.535995      	76.4574        	76.3829        	76.32637       	76.69131       	76.14755       	76.368256      	76.40637       	76.73481       	76.150734      	76.37341       	77.04986       	76.80547       	75.8502        	75.958595      	76.57112       	75.952934      	76.128456      	76.99507       	76.37728       	76.377205      	76.41236       	76.48451       	76.387276      	76.68398       	76.024826      	76.40952       	76.3141        	76.42042       	76.68198       	76.18008       	76.705795      	76.74672       	76.121826      	76.31352       	76.65355       	76.61401       	75.72564       	76.67863       	76.224144      	76.31304       	76.28512       	76.52452       	77.19014       	75.349655      	76.545395      	76.602165      	76.34015       	76.317955      	76.524666      	76.03265       	76.22647       	76.61321       	76.34466       	76.90505       	75.93671       	
76.41779       	76.688156      	76.87775       	76.51737       	76.718506      	76.892845      	76.30983       	75.81859       	76.245865      	76.619995      	76.48511       	76.20505       	76.33822       	76.827576      	76.527306      	76.46658       	76.23617       	76.57302       	75.97022       	76.51514       	76.361305      	76.30042       	76.4714        	76.49381       	76.465706      	76.24772       	76.30104       	76.93481       	76.23143       	76.69477       	76.064705      	76.280594      	76.68823       	76.04009       	76.47879       	76.441765      	76.10894       	76.859344      	76.59705       	75.86047       	76.34233       	76.29008       	76.44186       	76.5257        	76.03408       	77.07456       	76.12493       	76.1818        	76.47101       	76.26853       	76.288994      	76.24493       	76.849785      	76.275566      	76.478775      	76.54098       	76.61943       	76.45785       	76.354485      	76.41959       	76.40181       	76.49035       	76.064125      	76.248634      	76.25389       	76.35802       	76.8259        	76.08901       	76.38314       	76.53795       	76.17471       	76.22306       	77.11888       	76.18841       	76.00497       	76.75768       	76.361145      	76.8111        	77.16739       	75.16329       	76.01738       	76.50359       	76.38376       	76.4098        	76.15972       	76.734825      	76.28172       	76.27057       	76.72606       	76.01622       	76.66652       	76.34862       	76.17133       	76.59078       	76.22809       	76.58717       	76.501656      	76.2204        	76.18153       	76.5619        	
76.54782       	76.64662       	76.562225      	76.18064       	76.24338       	76.193504      	76.341484      	76.48308       	76.32727       	76.38738       	76.27801       	76.29644       	76.62895       	76.29149       	76.54834       	76.31759       	76.36532       	76.4599        	76.41041       	76.61548       	76.09616       	76.62042       	76.57951       	75.9648        	76.67094       	76.506226      	76.05382       	76.132515      	76.60234       	75.79856       	76.58749       	76.141365      	76.792496      	76.41941       	75.72038       	76.59764       	76.68981       	76.6031        	75.996376      	76.47693       	76.77428       	76.03225       	75.666016      	76.403305      	76.02716       	76.634636      	76.13767       	76.56038       	76.1697        	76.357956      	76.61408       	76.320076      	76.418465      	76.34871       	76.31604       	76.75829       	75.93117       	76.68222       	76.312325      	75.94985       	76.352104      	76.52902       	76.36401       	75.58544       	76.40129       	76.700714      	75.97669       	76.822395      	76.26289       	76.67683       	76.438576      	75.943184      	73.14629       	74.66064       	74.77576       	76.85824       	76.988396      	76.588585      	78.1013        	76.35567       	75.91413       	76.2921        	76.04957       	76.45035       	76.2631        	76.46951       	76.334015      	76.22251       	76.30533       	76.14869       	76.70776       	76.359856      	76.26747       	76.15371       	76.70989       	76.400314      	76.41108       	76.6458        	76.40109       	76.1652        	
76.46981       	76.56752       	76.662834      	76.3937        	76.65783       	76.89159       	76.01145       	76.265465      	76.30403       	76.79364       	76.037544      	76.4923        	76.44712       	76.59488       	76.18396       	76.63845       	76.2503        	76.683945      	75.676704      	77.55677       	75.74102       	76.21165       	76.448845      	76.2956        	76.603615      	76.81095       	76.07979       	76.170204      	76.90363       	76.0379        	76.09047       	76.78805       	76.23967       	76.19761       	76.48773       	76.419365      	76.503944      	76.545334      	76.27986       	76.67923       	76.24515       	76.21283       	76.42322       	76.09999       	76.42705       	76.41724       	76.69258       	75.98798       	76.46645       	76.62315       	76.59952       	76.27259       	76.52248       	76.28704       	76.4664        	75.97729       	76.50305       	76.42537       	76.591415      	76.13945       	76.52201       	76.053154      	76.48969       	76.6135        	76.63025       	76.458725      	76.01486       	74.828354      	75.032875      	75.94902       	75.07668       	75.54894       	76.44852       	75.44343       	75.83679       	76.12967       	76.7091        	77.418045      	79.31288       	79.229744      	76.01915       	75.931274      	76.223114      	76.15068       	76.463776      	76.299576      	76.792885      	76.45649       	76.009224      	77.08579       	75.72549       	76.675446      	76.26601       	76.06169       	76.17686       	77.22291       	76.71846       	75.69746       	76.244255      	76.52404       	
76.36464       	76.44631       	76.36882       	76.7921        	76.97463       	75.595985      	76.48334       	76.20906       	76.28251       	76.4707        	76.68178       	76.02394       	76.48728       	76.75814       	76.20741       	76.34125       	76.31779       	76.59915       	76.24359       	76.1509        	76.19178       	76.70209       	76.24958       	76.14626       	76.89201       	76.10309       	76.22106       	76.54694       	76.56072       	76.45363       	76.34434       	76.41443       	76.3389        	76.502914      	76.43686       	76.33739       	76.110504      	76.37934       	76.73736       	76.44047       	75.97014       	76.39208       	76.1585        	76.3758        	76.56635       	75.91829       	76.86726       	76.03117       	76.86025       	75.508224      	75.932755      	76.94096       	75.80173       	77.12616       	75.99755       	76.61044       	75.635735      	76.65012       	76.824905      	77.76833       	74.71305       	75.84714       	76.7941        	76.1464        	73.62997       	74.19009       	74.932594      	75.379036      	75.68928       	76.353836      	75.90333       	75.91318       	76.15657       	77.03222       	75.796364      	76.26093       	76.87091       	77.49507       	78.23229       	81.42805       	75.60252       	76.051025      	76.15095       	76.06612       	76.55174       	76.670715      	76.078445      	76.91908       	75.18653       	76.138115      	76.63489       	76.37675       	76.06698       	76.37995       	75.9015        	76.699715      	76.50823       	76.328125      	76.6206        	76.552414      	
76.51553       	77.117546      	76.037865      	75.37864       	76.8697        	76.63317       	76.40059       	76.70755       	76.311646      	76.64425       	75.922676      	76.37105       	76.588264      	76.15805       	76.04368       	75.577644      	76.31152       	76.71335       	76.54445       	76.29538       	76.46025       	76.837074      	76.08962       	76.28739       	76.85867       	76.14314       	76.14915       	76.674805      	76.24174       	76.21562       	76.6384        	75.843605      	76.21528       	76.20732       	77.26706       	75.898476      	76.01224       	76.318726      	76.72615       	76.314896      	75.23824       	76.45059       	75.992424      	76.348755      	76.07072       	76.683105      	76.47308       	76.4713        	76.16258       	76.39822       	76.71494       	75.759766      	76.27492       	76.646866      	76.368164      	75.910225      	76.43468       	77.04413       	75.26761       	76.54672       	74.41964       	75.08457       	76.47244       	75.33092       	75.566666      	75.714134      	76.340744      	76.19839       	76.34343       	76.36415       	75.9579        	76.162544      	77.1012        	75.920654      	76.151146      	76.81002       	76.333435      	78.43183       	77.46259       	79.4382        	77.40081       	75.011604      	76.0459        	75.96293       	76.22718       	76.544624      	76.0592        	76.5762        	76.04144       	76.567474      	75.85017       	76.53696       	76.33842       	76.04914       	75.44643       	76.72445       	76.80595       	76.11629       	76.410675      	76.43603       	
76.500336      	76.79287       	77.43734       	77.49792       	76.35595       	76.45382       	76.79291       	75.71473       	76.607605      	76.54713       	75.963104      	76.91897       	75.86228       	76.398964      	76.72724       	76.91478       	76.551094      	76.52867       	75.81549       	75.36395       	76.688866      	76.53434       	75.75514       	76.59054       	76.28773       	76.96398       	76.074295      	76.82635       	75.65462       	77.02766       	76.08948       	76.59405       	76.67624       	76.75609       	75.578835      	76.62382       	77.07583       	75.18903       	76.169044      	77.69975       	74.98155       	76.107376      	76.66123       	75.847145      	76.40457       	75.60326       	76.16695       	76.89807       	76.61978       	76.45299       	75.33967       	77.35261       	76.3932        	75.674286      	76.70192       	74.72454       	75.50934       	74.50297       	75.49819       	76.68315       	75.51948       	75.99051       	77.09829       	75.47994       	75.72897       	76.95005       	75.85194       	76.43014       	76.35335       	76.4408        	76.82662       	76.27743       	76.524956      	76.72026       	75.827034      	76.43082       	76.41729       	77.2926        	77.024155      	79.62205       	77.79555       	75.30857       	76.74181       	75.947624      	76.517006      	75.65983       	76.964745      	76.15015       	76.20069       	75.83388       	76.50575       	76.21243       	76.55445       	76.586784      	75.693756      	77.069176      	76.21927       	76.57588       	76.33915       	76.81917       	
76.29482       	76.44348       	76.83608       	76.41271       	76.39779       	76.50507       	76.19636       	76.388214      	76.33052       	76.34542       	76.38965       	76.37131       	77.2279        	75.699326      	76.75677       	76.39073       	76.35357       	76.33015       	76.62587       	75.84888       	76.44643       	76.36116       	76.26736       	76.33448       	75.416756      	76.769104      	76.12201       	76.13249       	76.135284      	76.70416       	76.58151       	76.34299       	76.612         	76.04223       	76.329475      	76.006294      	76.14703       	77.30742       	75.28267       	75.477516      	77.450325      	74.94861       	77.056786      	76.367874      	76.59649       	75.55195       	76.188614      	76.62914       	76.33797       	75.811         	76.52159       	76.37508       	73.52132       	74.49446       	75.58417       	76.18767       	76.04964       	75.89663       	76.13997       	76.1202        	76.57321       	76.216156      	76.63004       	76.166046      	76.38662       	76.09173       	76.28879       	76.61845       	76.54965       	76.30936       	76.14371       	76.34401       	76.16408       	76.76035       	76.05351       	76.059784      	76.75466       	76.03535       	78.0824        	77.492584      	79.953735      	75.894966      	76.5312        	76.996284      	75.24017       	75.81311       	76.620316      	76.17076       	76.54768       	76.61303       	76.00335       	76.30587       	76.22142       	76.942314      	76.31592       	76.55986       	77.87379       	74.44829       	75.61246       	76.780266      	
76.640274      	76.372284      	76.64971       	76.99548       	76.57434       	76.383705      	76.40425       	76.44728       	76.65253       	76.47361       	76.356804      	76.11352       	76.15003       	76.4151        	75.85856       	76.24259       	76.798225      	76.58615       	75.975266      	76.42464       	76.74196       	75.878334      	76.65493       	76.46161       	77.11524       	77.35068       	74.90602       	75.90182       	76.24322       	76.44109       	76.19512       	76.68787       	75.791985      	76.985886      	75.89123       	76.25946       	76.72672       	76.54654       	75.66695       	76.37538       	76.05971       	76.56037       	76.181595      	76.291725      	76.92204       	75.23061       	74.10322       	73.92174       	75.32956       	76.66165       	75.656296      	76.33627       	75.51544       	76.27016       	76.02649       	76.02083       	77.69573       	75.408745      	76.21891       	76.42064       	76.35345       	76.79105       	75.98224       	76.31273       	76.02778       	76.87264       	76.25202       	76.08526       	76.97064       	76.02806       	76.26939       	75.97281       	76.876335      	76.57711       	75.89639       	75.2492        	77.49918       	77.15226       	74.96018       	79.471375      	77.66167       	80.32192       	74.65603       	76.02153       	76.34105       	76.67556       	76.093956      	76.29844       	76.80408       	76.38465       	75.39185       	76.580864      	76.33579       	76.84431       	75.81967       	78.489296      	74.71063       	76.710884      	75.748245      	76.39378       	
76.41338       	76.566734      	76.84425       	76.68255       	76.97353       	75.579765      	76.2987        	76.4573        	76.650665      	76.25252       	76.46329       	76.173744      	76.39484       	76.6145        	76.59653       	76.45584       	76.09889       	76.55254       	76.771194      	76.53672       	75.981636      	76.61471       	76.12869       	76.48455       	76.499825      	76.504326      	76.09664       	76.3138        	76.454895      	76.45369       	76.6768        	76.57953       	76.34596       	76.39324       	75.7323        	76.575806      	76.88167       	75.56654       	76.62905       	76.76209       	76.154625      	76.220436      	75.63161       	74.22274       	74.67953       	75.01095       	75.714005      	75.35811       	76.30516       	76.296906      	76.02982       	76.59527       	76.08635       	75.57949       	76.56334       	76.496414      	75.81722       	76.57259       	76.72939       	76.44861       	76.9824        	75.9675        	76.11234       	76.152245      	76.41026       	76.406685      	76.43401       	76.16431       	76.72702       	76.000015      	76.49064       	76.34026       	76.554115      	76.360794      	76.60372       	75.68897       	77.15866       	75.368965      	78.659         	75.810936      	80.33245       	78.17326       	75.196655      	76.05164       	76.25176       	75.952484      	76.85876       	75.37458       	75.89354       	76.90674       	76.14279       	76.78293       	76.98333       	76.02003       	75.08293       	76.18123       	76.45363       	76.22915       	76.31404       	77.41703       	
76.5925        	76.73491       	76.99398       	76.48578       	76.08397       	75.93704       	76.302315      	76.56539       	76.3064        	76.33747       	76.34722       	76.2865        	76.66951       	76.61044       	76.67146       	76.32419       	76.36769       	75.93839       	76.322586      	76.55761       	76.27616       	76.614235      	76.25305       	75.91903       	76.607864      	76.11024       	76.44213       	76.23118       	76.0348        	76.56326       	76.025185      	76.11847       	77.49555       	75.21272       	76.543465      	75.71955       	76.591194      	76.26376       	76.365326      	76.55867       	76.38869       	76.252785      	72.821724      	74.33713       	75.32132       	76.14249       	76.51333       	76.69465       	75.76812       	77.03523       	75.45679       	76.7938        	76.18966       	76.28999       	76.60914       	76.20982       	76.71811       	76.16394       	76.73612       	76.139534      	75.79511       	76.80556       	76.6423        	75.87045       	76.90781       	75.49443       	76.986916      	75.977974      	76.58058       	76.85718       	75.06024       	76.704094      	76.88954       	76.0668        	76.689514      	75.97142       	75.94188       	76.39542       	76.96343       	77.56019       	80.62013       	76.7489        	75.17846       	76.20973       	75.968475      	76.53748       	76.26189       	76.09484       	76.14366       	77.00864       	75.77726       	76.408325      	76.13388       	76.13635       	75.976295      	76.46918       	77.356705      	75.19274       	77.17861       	75.71647       	
76.59429       	76.69455       	76.73875       	76.50883       	76.21261       	76.06577       	76.55198       	76.280235      	76.381836      	76.24373       	76.74319       	76.07193       	76.95024       	76.80153       	76.52234       	76.32053       	75.98697       	76.64208       	76.57165       	77.168304      	75.439606      	76.71262       	76.886696      	76.46055       	75.54525       	76.1717        	76.49596       	76.44075       	76.0399        	76.24574       	77.074234      	76.203125      	76.383575      	75.782         	76.34941       	76.20987       	76.57479       	76.61241       	76.07345       	76.49073       	76.000084      	73.515656      	74.40255       	75.02034       	75.72246       	75.8123        	76.33238       	76.805374      	76.57759       	76.53929       	76.084404      	75.83251       	76.5439        	76.83933       	75.52341       	77.05964       	76.05991       	76.70881       	75.083084      	77.266396      	77.04824       	75.41628       	76.43684       	76.23641       	76.14004       	76.62229       	76.53566       	75.74315       	76.63299       	75.01853       	77.19774       	75.89157       	77.15765       	77.53104       	75.01054       	76.499374      	76.67567       	75.73808       	77.22673       	77.34623       	79.42367       	78.56601       	75.959854      	75.95321       	76.172485      	76.19317       	76.645515      	76.970894      	76.12002       	75.78844       	76.5607        	76.08502       	76.26142       	76.33071       	76.77274       	75.80697       	76.589355      	75.9293        	76.23945       	76.34208       	
76.37368       	76.78763       	76.808075      	77.24678       	76.08509       	76.58463       	76.34893       	76.34798       	76.88215       	75.86438       	76.30145       	76.4933        	76.056946      	76.63088       	77.69811       	75.33185       	77.14253       	75.59557       	76.29721       	76.37239       	76.61136       	75.505775      	77.59288       	75.878456      	76.40533       	76.40914       	76.96105       	75.2754        	76.22144       	76.76127       	75.63168       	77.14858       	75.91854       	76.51176       	75.943115      	76.61784       	77.00722       	75.56213       	75.98418       	76.61488       	76.24063       	73.20866       	74.67095       	75.509026      	75.67934       	75.88353       	75.73391       	76.69409       	77.313576      	75.31558       	76.17999       	76.42304       	76.834175      	76.46415       	75.85587       	76.129715      	76.520996      	76.54463       	77.99195       	74.88084       	76.22639       	76.2301        	76.91923       	75.674576      	76.54856       	77.31559       	75.63751       	76.04906       	75.5514        	76.97          	76.5968        	75.68039       	76.07183       	76.59875       	76.41786       	75.92463       	77.30832       	75.62621       	76.52696       	77.159805      	78.21147       	80.88988       	73.72281       	75.47908       	76.81434       	75.92181       	76.72733       	76.0814        	75.77302       	76.81787       	76.383385      	75.66747       	76.94126       	75.74432       	76.61187       	76.3015        	76.620125      	76.20249       	76.77748       	75.866005      	
76.41634       	76.70189       	76.92106       	76.69804       	76.22714       	76.00121       	76.71273       	75.98326       	75.83771       	76.48824       	76.26919       	76.01339       	76.102165      	76.68534       	76.67557       	77.21786       	76.02508       	76.58822       	75.875656      	76.236534      	76.74355       	76.296104      	75.06026       	77.24734       	76.46571       	76.345695      	76.361275      	76.08194       	76.51054       	76.25792       	76.08001       	76.69507       	76.31782       	76.08308       	76.46045       	76.173485      	76.3406        	76.47843       	75.858765      	76.60462       	76.786514      	74.33999       	74.238625      	75.29727       	75.476326      	75.6456        	76.19824       	77.03462       	75.742004      	76.43237       	77.01327       	75.58871       	76.40059       	75.92245       	76.666275      	76.424355      	76.16126       	75.73123       	76.51457       	77.38404       	77.51007       	74.73028       	76.57865       	76.36121       	76.71055       	76.07265       	76.66904       	76.40571       	75.97553       	75.86118       	76.685555      	76.85547       	75.21998       	76.81716       	77.64224       	74.90848       	76.49745       	75.64882       	76.51448       	76.81893       	79.10812       	79.685905      	78.19855       	74.736         	76.507805      	77.4921        	74.132095      	76.3365        	76.5406        	76.82164       	75.9686        	77.40848       	75.13054       	76.58363       	76.072395      	76.87628       	76.066315      	76.11823       	75.72987       	76.803215      	
76.264404      	76.39152       	77.45113       	76.34029       	75.98771       	76.82654       	76.37478       	76.00284       	76.4389        	76.56624       	76.44302       	76.10567       	76.493965      	76.497635      	76.69153       	76.137764      	76.727295      	76.14891       	77.02889       	75.710045      	76.63736       	76.488266      	76.154594      	76.644264      	76.29681       	76.51026       	76.34434       	76.43122       	76.24924       	76.36651       	75.9757        	76.66772       	77.04255       	76.957565      	75.49138       	76.6436        	75.85751       	75.899345      	77.10246       	75.79038       	76.58261       	75.87518       	73.43724       	74.96823       	75.24822       	75.81606       	76.207695      	76.60485       	76.38054       	75.79989       	76.41928       	76.62497       	76.00016       	76.470436      	76.73803       	75.84041       	76.44303       	77.565544      	75.93853       	75.54671       	76.760605      	77.0484        	75.65727       	75.91725       	76.082596      	76.66167       	76.28699       	75.64188       	76.69135       	76.98132       	76.40859       	75.87676       	75.930244      	76.211296      	76.449         	76.72602       	76.23456       	76.267715      	76.44956       	76.86698       	77.4445        	79.761055      	78.50219       	77.04627       	75.6529        	76.09866       	76.569405      	76.05532       	76.40639       	76.74819       	75.704796      	76.927444      	75.8578        	76.33415       	76.563194      	76.77939       	76.14938       	76.14295       	76.15374       	76.444954      	
76.4374        	76.636444      	76.57781       	76.435265      	76.1916        	76.428894      	76.57603       	76.23654       	76.46191       	76.55047       	76.10174       	76.49546       	76.287766      	76.63002       	76.41863       	76.259155      	76.67141       	76.65901       	75.88238       	76.62221       	76.5778        	76.040306      	75.70501       	76.77137       	76.29265       	76.207275      	76.98379       	76.17347       	76.278854      	76.54381       	76.536095      	76.62364       	76.03091       	76.24807       	76.86248       	76.20295       	75.7397        	76.38181       	76.289474      	76.68527       	76.120964      	76.27849       	73.5592        	75.25991       	75.23112       	75.827194      	75.709854      	76.77542       	76.06221       	76.403656      	76.02919       	76.44289       	76.43083       	76.24256       	76.44601       	76.48037       	76.40729       	76.30702       	77.31984       	76.015976      	76.73103       	75.63624       	77.227875      	76.47712       	75.919846      	76.073364      	76.54585       	76.29857       	76.65891       	75.810646      	78.63299       	74.766655      	75.88518       	76.92572       	77.25972       	75.62594       	75.638245      	76.30382       	76.63966       	76.7401        	77.4117        	78.29739       	79.71334       	74.21891       	75.96969       	76.76927       	77.711464      	74.30943       	76.910614      	76.11438       	76.77592       	75.10547       	76.094765      	76.170975      	76.29588       	75.796104      	76.15638       	76.06597       	76.81458       	76.43301       	
