# www.neaspec.com
# Scan:	 	Whitelight Imaging
# Project:	 	20251007_PS
# Description:	 	
# Date:	 	10/07/2025 11:32:10
# Scanner Center Position (X, Y):	[µm]	49.99	50.01	 
# Rotation:	[°]	0	 	 
# Scan Area (X, Y, Z):	[µm]	5.000	5.000	0.000
# Pixel Area (X, Y, Z):	[px]	100	100	1
# Interferometer Center/Distance:	[µm]	0.000	0.000	 
# Averaging:	 	1	 	 
# Integration time:	[ms]	5	 	 
# Wavenumber Scaling:	 	1.000000	 	 
# Laser Source:	 	4.5-15 µm nano-FTIR laser
# Detector:	 	R
# Target Wavelength:	[µm]	7.502	 	 
# Demodulation Mode:	 	Fourier
# Tip Frequency:	[Hz]	241,340.500	 	 
# Tip Amplitude:	[mV]	45.700	 	 
# Tapping Amplitude:	[nm]	70.684	 	 
# Modulation Frequency:	[Hz]	0.000	 	 
# Modulation Amplitude:	[mV]	0.000	 	 
# Modulation Offset:	[mV]	0.000	 	 
# Setpoint:	[%]	79.75	 	 
# Regulator (P, I, D):	 	4.206850	8.625812	1.000000
# Tip Potential:	[mV]	0.000	 	 
# M1A Scaling:	[nm/V]	0.426	 	 
# M1A Cantilever Factor:	 	1,000	 	 
# Q-Factor:	 	487.4	 	 
# Version:	 	2.1.11536.0
844.0234       	844.2797       	843.85315      	843.8261       	844.165        	844.026        	844.2702       	844.3017       	844.3555       	844.1606       	844.4404       	844.37476      	843.5855       	843.55133      	844.0469       	843.6614       	843.6393       	843.5671       	843.58984      	843.5729       	843.52936      	843.7452       	843.17505      	843.28845      	843.36523      	843.76117      	842.99744      	843.1019       	843.2972       	843.72986      	842.79         	842.8601       	843.12366      	843.879        	842.6927       	842.69635      	842.8561       	843.0859       	843.45593      	842.7455       	842.74316      	842.7745       	843.0843       	842.89844      	842.7868       	842.824        	843.04565      	843.28314      	842.92346      	842.9026       	843.29395      	842.96356      	842.9855       	843.5385       	843.1055       	843.1275       	843.7442       	843.10925      	843.6758       	844.421        	844.4612       	844.79755      	844.697        	844.6921       	844.2348       	843.4853       	844.0364       	843.4069       	844.89777      	844.47614      	843.43555      	844.2529       	844.97595      	844.62976      	844.5466       	844.80493      	844.69135      	844.994        	844.5548       	843.4407       	843.4562       	843.5551       	843.69836      	843.45807      	843.68396      	843.4349       	843.453        	844.1864       	843.3073       	843.4396       	843.9558       	843.2214       	843.2992       	843.91766      	843.24713      	843.34174      	846.5374       	843.34125      	844.30164      	844.97485      	
844.3318       	844.6263       	844.77765      	844.8411       	844.34216      	844.54816      	844.4466       	844.7138       	844.54236      	844.62146      	845.0039       	843.69635      	843.5865       	843.9623       	843.72455      	843.67084      	844.32104      	843.52545      	843.60834      	843.6158       	844.32983      	843.4073       	843.4981       	843.57886      	843.547        	843.21765      	843.389        	843.5162       	843.3642       	842.8945       	843.0138       	843.19666      	843.72235      	842.7737       	842.7634       	842.8785       	843.18665      	842.97546      	842.7377       	842.72424      	842.83014      	843.0225       	842.9369       	842.7805       	842.803        	842.8889       	843.1683       	842.8463       	842.8834       	842.95636      	843.22845      	842.851        	842.8725       	843.4237       	842.93756      	842.907        	843.5228       	842.9117       	843.09906      	844.22485      	844.3139       	844.46906      	844.0964       	844.21515      	843.0061       	843.82513      	843.1081       	843.31635      	843.1052       	843.7758       	843.0957       	843.85156      	843.16394      	844.4401       	844.41437      	844.3737       	844.4537       	844.36145      	843.12695      	843.8316       	842.9893       	843.1146       	843.7685       	843.02496      	843.09875      	843.6059       	842.91156      	843.0134       	843.718        	842.7608       	842.8639       	843.3552       	842.62805      	842.7231       	843.0306       	842.7405       	842.7543       	843.21246      	842.7179       	843.31555      	
843.02454      	843.2273       	843.6244       	843.52875      	843.3717       	843.3149       	843.3604       	843.4135       	843.4354       	843.422        	843.426        	843.9526       	842.4983       	842.42053      	842.61774      	842.4032       	842.4117       	842.90344      	842.2913       	842.3109       	842.37317      	842.808        	842.1021       	842.20306      	842.3365       	841.7871       	841.8757       	841.999        	842.54504      	841.58386      	841.5602       	841.6504       	841.8314       	841.6699       	841.38837      	841.41437      	841.6144       	842.3825       	841.5237       	841.4564       	841.4336       	841.6228       	841.8407       	841.49         	841.5265       	841.5932       	842.8931       	841.5689       	841.54456      	841.6061       	841.7604       	841.57776      	841.60004      	842.37335      	841.6532       	841.64124      	842.33496      	841.66077      	841.6676       	841.96814      	841.79126      	842.6966       	842.96124      	844.62274      	841.79297      	842.26495      	841.7491       	842.4109       	841.84314      	842.5146       	843.162        	843.0831       	842.7304       	843.0153       	843.1771       	843.17316      	841.8405       	843.4952       	843.2683       	841.68463      	841.7471       	842.30176      	841.66394      	841.77985      	843.38776      	841.6289       	841.80115      	841.6986       	841.6105       	841.7395       	841.4641       	841.4615       	841.5528       	841.65137      	841.4164       	841.51105      	841.61707      	841.5151       	842.6628       	842.971        	
842.6516       	842.7898       	842.89233      	842.78845      	842.85767      	842.87885      	842.7063       	842.74713      	842.9716       	843.0216       	842.9495       	842.9994       	842.9597       	843.1794       	841.9049       	841.8598       	842.09875      	841.865        	841.85144      	841.82574      	841.7604       	841.8573       	842.50525      	841.6136       	841.7444       	842.5632       	841.392        	841.5854       	841.7468       	841.28         	841.10254      	841.25964      	841.543        	841.31305      	841.0808       	841.07855      	841.26984      	842.11255      	841.0925       	841.07007      	841.1715       	841.79974      	841.31         	841.1901       	841.2087       	842.1052       	841.4372       	841.35046      	841.385        	841.71454      	841.3965       	841.42426      	841.98785      	841.5392       	841.49915      	841.86383      	841.57806      	841.5087       	842.17395      	841.5694       	842.05273      	841.67114      	841.9742       	841.81213      	842.05066      	841.77094      	841.7171       	842.2272       	841.7738       	842.2344       	841.7944       	843.0166       	842.97485      	843.04156      	843.1634       	843.11145      	842.9517       	843.1259       	841.8478       	843.0484       	842.34406      	841.68274      	841.87994      	842.08954      	841.7083       	841.8913       	841.6528       	841.7015       	842.1931       	841.5791       	841.6917       	842.4706       	841.6144       	841.70074      	843.24066      	841.64246      	842.24695      	841.62317      	842.6612       	842.92584      	
843.3291       	843.5382       	843.63385      	843.6313       	843.6566       	843.4379       	843.4864       	843.5876       	843.60156      	843.72955      	843.5876       	843.689        	843.9968       	842.56946      	842.59265      	843.9079       	844.0147       	842.63666      	843.0149       	842.54205      	842.5614       	842.7284       	842.3799       	842.45734      	842.276        	842.05145      	842.2878       	842.8778       	841.8403       	842.00616      	842.2258       	842.7258       	841.71875      	841.74554      	841.9183       	842.8173       	841.77045      	841.7136       	841.786        	842.3134       	841.9109       	841.76263      	841.7617       	842.1038       	842.05347      	841.91223      	841.9067       	842.4893       	842.02313      	841.9808       	841.97906      	842.5611       	842.041        	841.98737      	842.27673      	842.05133      	842.56836      	842.148        	842.0636       	842.70966      	842.11536      	842.083        	842.2733       	842.141        	842.7313       	842.2027       	842.2156       	842.30554      	842.20746      	842.7429       	842.23566      	842.8067       	842.2239       	843.4418       	843.315        	843.6197       	843.5148       	843.57043      	843.32965      	843.50195      	843.5241       	843.76495      	842.3431       	842.0497       	842.1826       	842.0557       	841.9635       	842.1117       	841.96375      	841.9202       	842.6925       	841.80493      	841.8639       	842.6751       	841.80316      	841.85754      	842.48035      	841.85         	843.1384       	843.2129       	
843.0237       	843.20465      	843.30066      	843.2974       	843.35876      	843.2645       	843.20044      	843.27356      	843.2675       	843.3334       	843.29034      	843.3469       	843.3861       	843.4287       	843.5021       	843.5939       	843.7239       	843.5491       	843.4855       	842.122        	842.1859       	842.04         	842.1112       	842.8128       	841.98376      	842.55853      	841.6726       	841.83264      	842.62866      	841.3848       	841.51624      	841.7135       	842.583        	841.3034       	841.3163       	841.41547      	841.8786       	841.3515       	841.2857       	841.3437       	842.9597       	841.4662       	841.37555      	841.4059       	842.22797      	841.53485      	841.4743       	841.88446      	841.5765       	841.5217       	841.50195      	841.6744       	841.54         	841.55884      	841.8601       	841.60126      	841.629        	841.96356      	841.63354      	841.7273       	841.7757       	841.68665      	842.3365       	841.8333       	841.8243       	842.21655      	841.8046       	841.8124       	842.0398       	841.803        	842.12335      	841.80084      	842.55865      	843.05927      	843.0563       	843.0964       	843.2877       	843.2893       	842.9908       	843.0276       	843.11176      	843.17645      	843.40826      	841.5964       	841.7169       	842.0052       	841.5316       	841.66986      	841.95825      	841.5078       	841.6419       	841.6363       	841.461        	841.7247       	841.37054      	841.4376       	841.80304      	841.5178       	842.7751       	842.9731       	
843.11725      	843.30786      	843.32965      	843.099        	843.48663      	843.3733       	843.34576      	843.3948       	843.3365       	843.44037      	843.39606      	843.40356      	843.4931       	843.5053       	843.5846       	843.5839       	843.7087       	843.7691       	843.4883       	843.8434       	842.0917       	842.6406       	845.04913      	842.07043      	843.08734      	841.7839       	841.9242       	842.5937       	841.54785      	841.7156       	842.3766       	841.3681       	841.42         	841.5657       	842.4173       	841.34247      	841.3311       	841.4496       	842.1017       	841.4167       	841.38684      	841.4483       	841.725        	841.47253      	841.4476       	841.93854      	841.6494       	841.54816      	841.55707      	841.816        	841.6696       	841.6108       	841.9023       	841.7321       	841.6742       	841.88666      	841.8646       	841.73804      	841.7224       	841.9086       	841.7913       	842.1642       	841.85547      	841.7855       	842.37964      	841.8018       	841.79645      	842.15735      	841.7387       	841.7761       	842.2246       	841.7686       	843.10406      	842.796        	842.7556       	842.96185      	843.04877      	843.1481       	843.1249       	843.17993      	843.04364      	843.19885      	843.36676      	843.0473       	841.7116       	841.58594      	841.7484       	841.69336      	841.5113       	841.59436      	841.5724       	841.4505       	841.5806       	841.51495      	841.4945       	842.00397      	841.5029       	842.2445       	842.9427       	842.9086       	
842.82916      	842.93494      	843.01666      	843.0388       	843.11334      	843.0294       	843.01044      	843.1057       	843.15875      	843.05884      	843.0253       	843.19684      	843.1615       	843.208        	843.19366      	843.2376       	843.32715      	843.3059       	843.3699       	841.70764      	841.77893      	841.9399       	841.677        	842.43396      	841.66675      	842.0829       	841.4974       	842.01556      	841.14087      	841.3903       	842.0188       	841.02856      	841.14575      	841.7515       	840.97815      	840.9509       	841.05286      	841.6804       	841.0459       	840.9769       	840.98566      	841.31         	841.1433       	841.06085      	841.5846       	841.30414      	841.198        	841.1221       	841.6927       	841.3788       	841.2509       	841.99945      	841.3175       	841.2701       	841.2154       	841.47943      	841.25806      	841.22406      	843.01917      	841.2853       	841.31305      	842.71295      	841.3711       	841.38116      	841.82684      	841.3932       	841.3798       	842.6544       	841.3128       	841.3939       	841.4608       	841.3152       	842.7648       	841.6075       	842.5486       	842.5974       	842.8692       	842.706        	842.782        	842.6031       	842.691        	842.7991       	842.513        	842.5565       	842.8415       	842.65625      	841.0767       	841.1552       	841.4713       	841.0077       	841.76434      	840.9216       	840.98425      	842.0595       	840.96375      	842.1925       	842.4193       	842.3134       	842.32025      	842.4736       	
842.50446      	842.61096      	842.6677       	842.6609       	842.7392       	842.65924      	842.71735      	842.6693       	842.7434       	842.5966       	842.61536      	842.95056      	842.8227       	842.7991       	842.8001       	842.8556       	842.86743      	842.9734       	842.7944       	843.16077      	843.10706      	842.9478       	842.75964      	842.5267       	842.51843      	842.9218       	840.86334      	840.9961       	841.50757      	840.76184      	840.9189       	841.30164      	840.64514      	840.8251       	840.9293       	840.61273      	840.61975      	841.23956      	840.8259       	840.6957       	840.68805      	841.0145       	840.872        	840.7959       	840.75         	841.1721       	840.90594      	840.91364      	841.8852       	841.05817      	841.0189       	841.57043      	841.4427       	841.3473       	841.2548       	841.4909       	841.41113      	841.33856      	841.27905      	841.57556      	841.73645      	841.67316      	841.57056      	841.94604      	841.2369       	841.2698       	841.61365      	841.21295      	841.2948       	841.77496      	841.17224      	841.7245       	841.3069       	841.4233       	842.62036      	842.46967      	842.55817      	842.63696      	842.5843       	842.60535      	842.7494       	842.6581       	842.7458       	842.7097       	842.41864      	842.6921       	842.66156      	842.57544      	841.5444       	841.08246      	842.4955       	842.56793      	842.31085      	842.25433      	842.3927       	842.3132       	842.2792       	842.28864      	842.2804       	842.4329       	
842.957        	843.04596      	843.2412       	843.1663       	843.16797      	843.2211       	843.2214       	843.2352       	843.3301       	843.25653      	843.30524      	843.3383       	843.2965       	843.3217       	843.3025       	843.5311       	843.53845      	843.44855      	843.3634       	843.4313       	843.43756      	843.20905      	843.2862       	843.1257       	843.26886      	842.2379       	841.61786      	841.4103       	841.3936       	842.1261       	841.0896       	841.2406       	841.9311       	841.12964      	841.195        	841.9821       	841.23364      	841.1666       	841.1947       	841.53064      	841.2878       	841.21497      	842.705        	841.4646       	841.3389       	842.02356      	841.6439       	841.541        	841.4874       	842.7396       	841.6244       	841.5709       	842.34314      	841.6855       	841.59564      	841.57886      	841.709        	841.6211       	841.64514      	842.23413      	841.6928       	841.6914       	842.00854      	841.68256      	841.7348       	842.43677      	841.65015      	841.7002       	841.7501       	841.64514      	841.6865       	841.7184       	841.6775       	843.046        	842.6737       	843.15906      	843.1503       	842.9958       	843.0674       	843.1074       	843.02954      	843.0339       	843.1694       	843.04553      	843.1087       	843.02625      	842.9142       	843.0351       	842.8729       	843.15295      	842.822        	842.7822       	842.755        	842.6241       	842.75574      	842.7515       	842.63794      	842.91864      	842.9073       	842.73914      	
843.1462       	843.2745       	843.1547       	843.1437       	843.345        	843.2154       	843.23645      	843.2744       	843.375        	843.20026      	843.3497       	843.3753       	843.379        	843.35736      	843.3932       	843.5309       	843.3906       	843.3956       	843.4838       	843.54694      	843.43195      	843.2539       	843.3881       	843.4122       	843.1764       	841.91254      	841.6217       	841.45026      	841.439        	842.2022       	841.238        	841.92847      	841.2184       	841.2246       	841.67175      	841.2353       	841.218        	841.9267       	841.37683      	841.31433      	841.9629       	841.6435       	841.4622       	841.4141       	842.1137       	841.68976      	841.5806       	841.5064       	841.8411       	841.7017       	841.6478       	842.23364      	841.75226      	841.71545      	842.0039       	841.7392       	841.7383       	842.41156      	841.7655       	841.789        	841.8023       	841.75946      	841.763        	842.0833       	841.7408       	841.7656       	842.27496      	841.7113       	842.4632       	843.1991       	842.9848       	842.97034      	843.0628       	842.99426      	842.956        	843.0601       	843.2383       	842.99084      	843.00977      	843.06085      	843.15924      	843.23566      	843.1588       	843.2467       	843.05634      	843.13776      	843.16284      	843.1558       	843.1433       	842.9428       	843.017        	842.95905      	842.91675      	842.9094       	842.8948       	842.99646      	842.8445       	842.95044      	843.0185       	842.7819       	
843.2345       	843.3357       	843.4353       	843.5053       	843.2698       	843.40497      	843.403        	843.34467      	843.4591       	843.45044      	843.3832       	843.407        	843.51276      	843.52527      	843.54254      	843.4887       	843.5456       	843.4887       	843.47003      	843.4298       	843.45435      	843.4082       	843.39996      	843.5139       	843.2561       	843.2181       	841.6267       	842.0209       	841.4283       	842.0025       	843.1146       	842.9489       	841.3099       	841.7545       	841.33887      	841.3036       	841.8978       	842.97003      	842.9101       	842.88055      	842.96313      	841.667        	841.5308       	841.47363      	842.04675      	841.73627      	841.66174      	841.8587       	841.81866      	841.7426       	841.9814       	841.8562       	841.751        	842.19476      	841.7864       	841.76355      	841.78064      	841.9931       	841.7533       	841.7817       	844.36163      	841.7206       	841.7471       	842.5238       	841.70886      	841.7829       	841.6903       	841.7493       	842.198        	841.6415       	841.6972       	842.2719       	841.7177       	842.6815       	843.038        	842.97235      	842.7025       	843.16907      	842.9644       	843.07745      	843.1697       	843.1351       	843.0435       	843.1298       	843.0725       	843.03625      	842.9821       	842.82465      	842.835        	842.81555      	842.7567       	842.7868       	842.9117       	842.7265       	842.81726      	842.79425      	842.65405      	842.75934      	842.64746      	842.874        	
842.79236      	842.9091       	842.91754      	842.9538       	842.907        	842.9519       	842.89185      	842.9125       	842.8228       	843.0462       	842.92395      	842.9456       	843.018        	842.9757       	842.9542       	843.1009       	842.98895      	842.9763       	842.99445      	842.9251       	842.84796      	842.82574      	842.73376      	842.91644      	842.8666       	842.8277       	842.9226       	842.40247      	842.36664      	842.5225       	840.80664      	841.1767       	840.7769       	841.3402       	840.88965      	840.76184      	841.28156      	841.0781       	840.8809       	840.7865       	841.1685       	841.1122       	840.9473       	841.6598       	841.3225       	841.18353      	841.1045       	841.5797       	841.24963      	841.2122       	841.15173      	841.3454       	841.2436       	841.1569       	841.6256       	841.1054       	841.1736       	841.7034       	841.0879       	841.1149       	841.4353       	841.0222       	841.0437       	841.4034       	841.01135      	841.03815      	841.8086       	840.96985      	840.9877       	841.57806      	840.92505      	840.97         	842.19604      	842.3473       	842.25854      	842.406        	842.3496       	842.1511       	842.1347       	842.14905      	842.18335      	842.1757       	842.04034      	842.3471       	842.1872       	842.35876      	842.0945       	842.15845      	842.0266       	842.1759       	841.86554      	842.1495       	841.7852       	841.912        	841.9707       	841.9252       	841.95465      	841.8876       	841.9717       	842.0148       	
842.4529       	842.5948       	842.5686       	842.5293       	842.64215      	842.5352       	842.44         	842.53         	842.54364      	842.5039       	842.51733      	842.6684       	842.6162       	842.64874      	842.738        	842.6934       	842.50037      	842.41675      	842.5151       	842.56024      	842.54114      	842.37494      	842.3913       	842.3453       	842.49207      	842.505        	842.3448       	842.4693       	842.1658       	842.22894      	842.24475      	840.58594      	840.5162       	840.7832       	840.50964      	840.5491       	840.8737       	840.6776       	840.5473       	840.9452       	840.8744       	840.74524      	840.7428       	841.14056      	840.9722       	840.828        	841.58093      	841.0819       	841.0397       	841.2686       	841.0562       	841.0281       	841.04926      	841.3057       	841.0593       	841.06824      	841.9088       	841.0268       	841.0254       	841.63         	840.97144      	841.02625      	841.3978       	841.00616      	841.07983      	841.8253       	840.98926      	841.05884      	842.0017       	841.03265      	841.7089       	841.0459       	841.0101       	841.2527       	841.10895      	841.019        	841.34235      	840.9675       	841.26764      	842.28674      	842.1345       	840.8274       	840.90814      	841.2885       	840.8188       	841.3419       	840.7708       	840.8317       	841.48035      	840.8076       	840.7848       	841.6765       	842.1715       	842.1139       	842.0429       	842.31415      	842.40826      	842.2044       	841.9808       	842.38025      	
842.6946       	842.8544       	842.96814      	842.8887       	842.7952       	842.67944      	842.718        	842.68097      	842.7011       	842.6924       	842.80725      	842.83887      	842.8461       	842.9551       	843.0221       	842.88837      	842.69666      	842.6194       	842.52234      	842.64087      	842.6353       	842.5614       	842.9873       	842.2522       	842.51575      	842.1762       	842.2751       	842.319        	842.18195      	842.3161       	842.0911       	840.61035      	841.05286      	840.7425       	840.62177      	840.9789       	840.8382       	840.73663      	841.096        	841.0562       	840.9125       	840.81165      	841.75366      	841.1018       	841.0056       	841.60297      	841.2229       	841.1648       	841.1352       	841.6869       	841.12415      	841.14417      	841.45074      	841.21606      	841.1631       	841.13196      	841.1575       	841.0374       	841.0531       	841.68396      	840.9552       	841.06433      	841.6482       	841.00836      	841.05023      	841.5606       	840.96515      	841.0448       	841.5748       	840.9061       	841.0133       	841.4022       	841.0224       	841.50433      	840.9679       	841.69586      	840.9436       	841.01685      	841.10785      	840.9036       	845.517        	840.7597       	840.8263       	841.3779       	840.7136       	840.7815       	841.01465      	840.73883      	840.6874       	841.01135      	840.6742       	841.75385      	841.92456      	841.89514      	842.0385       	841.98566      	842.1597       	842.019        	842.13477      	842.0183       	
841.7158       	841.9014       	841.9686       	841.77637      	841.6254       	841.6957       	841.7639       	841.7649       	841.82916      	841.7083       	841.7868       	841.94684      	841.8925       	841.8815       	841.96185      	841.71106      	841.72076      	841.47925      	841.60187      	841.4388       	841.8518       	841.60974      	841.81287      	841.48816      	841.3554       	841.7857       	841.32227      	841.37317      	841.3053       	841.4043       	841.1468       	840.9973       	839.86646      	839.8079       	841.0983       	840.0032       	839.913        	840.23047      	840.2233       	840.102        	840.8637       	840.39557      	840.2966       	840.3171       	840.64343      	840.4939       	840.44714      	841.1576       	840.4984       	840.51746      	840.4925       	840.54144      	840.4606       	841.2561       	840.43854      	840.44604      	840.9937       	840.3692       	840.38245      	840.43976      	841.4737       	840.37067      	840.40753      	842.2764       	840.3613       	840.4108       	840.9132       	840.31616      	840.3985       	841.99615      	840.39185      	840.98267      	840.39954      	840.94794      	841.98895      	841.78503      	840.26685      	840.37134      	840.22034      	840.205        	840.5562       	840.1658       	840.17615      	840.9694       	840.18024      	840.14526      	840.62115      	840.2068       	840.1439       	840.7222       	840.22644      	840.1634       	841.2147       	841.4933       	841.4775       	841.486        	841.3847       	841.5807       	841.69476      	841.5937       	
841.6472       	841.6318       	841.663        	841.8492       	841.67566      	841.524        	841.798        	841.49054      	841.6445       	841.7169       	841.62915      	841.59766      	841.8891       	841.56244      	841.9057       	841.6905       	841.5202       	841.41223      	841.5652       	841.43915      	841.56824      	841.5222       	841.44946      	841.37024      	841.3059       	841.39075      	841.46484      	841.37756      	841.66565      	841.34235      	841.4722       	841.38696      	840.7477       	840.1452       	840.58984      	840.6653       	840.4925       	840.3684       	841.09375      	840.80414      	840.6249       	841.2217       	840.9689       	840.9066       	841.4188       	841.2325       	841.17816      	841.486        	841.3468       	841.40955      	841.4711       	841.9216       	841.5294       	841.6139       	841.7428       	841.62933      	841.74194      	843.32196      	841.64886      	841.76086      	842.4017       	841.77136      	841.84625      	841.9538       	842.27594      	841.96027      	842.0652       	842.18567      	842.11         	843.2811       	843.51294      	843.2397       	843.4288       	843.5136       	842.2538       	842.80347      	842.24603      	842.3163       	842.67194      	842.21356      	842.2982       	843.29114      	842.2581       	842.26495      	843.49194      	842.2562       	842.2377       	846.1526       	842.32806      	842.30804      	842.7504       	842.33075      	842.8896       	842.4107       	842.3792       	843.7653       	843.5906       	843.83746      	843.75354      	843.79156      	
847.58215      	847.6881       	847.7836       	847.72125      	847.82074      	847.614        	847.7836       	847.5326       	847.8507       	847.6716       	847.84906      	847.9532       	847.8982       	847.88617      	847.7865       	847.7908       	847.65784      	847.77356      	847.6896       	847.6214       	847.66797      	847.725        	847.53784      	847.3821       	847.2555       	847.40295      	847.3528       	847.29254      	847.4776       	847.44855      	847.28613      	846.8232       	846.0936       	845.99817      	846.5815       	846.27545      	846.13434      	847.49194      	846.5088       	846.348        	847.52057      	846.5435       	846.37445      	847.0077       	846.6117       	846.5515       	847.16364      	846.5224       	846.5384       	846.54913      	847.2705       	846.4446       	846.5186       	847.2772       	846.3824       	846.4236       	846.4435       	846.2099       	846.2351       	846.3231       	846.33594      	846.149        	846.2445       	847.1748       	846.1285       	846.156        	846.47534      	846.14514      	847.1179       	847.51794      	847.6068       	847.1774       	847.1368       	847.4988       	845.87006      	845.9576       	845.81         	845.74585      	845.8028       	845.7708       	845.63043      	845.6826       	845.8995       	845.60834      	845.5654       	846.1661       	845.5436       	845.455        	846.11304      	845.5224       	845.4286       	846.0074       	845.44275      	845.3811       	847.0482       	845.3837       	846.3532       	846.56976      	846.81433      	846.7464       	
845.2686       	845.48047      	845.2779       	845.11383      	845.2768       	845.3561       	845.0982       	845.12933      	845.01605      	844.8306       	845.05237      	845.41864      	845.20575      	845.1839       	844.9733       	844.9623       	844.77563      	844.96484      	844.73254      	844.7067       	844.417        	843.2729       	844.1676       	844.6442       	844.56635      	844.24554      	844.45374      	844.15356      	844.49646      	844.5183       	844.3284       	844.20013      	844.35126      	844.4784       	843.7995       	843.3023       	843.2189       	843.88794      	843.4402       	843.3229       	844.4237       	843.48676      	843.40076      	845.1634       	843.55634      	843.5654       	843.5328       	843.5468       	843.5374       	843.5575       	844.08344      	843.4437       	843.502        	843.54364      	843.3397       	843.32416      	843.36365      	844.0567       	843.184        	843.2523       	843.9825       	843.1173       	843.16565      	843.6764       	843.07513      	843.15424      	844.25104      	843.1153       	844.08997      	844.625        	844.5512       	844.6259       	844.4552       	844.46765      	843.5023       	842.9145       	843.19995      	842.7966       	842.7904       	842.8038       	843.0356       	842.7126       	842.66406      	844.05304      	842.67554      	842.6069       	843.35187      	842.6592       	842.5842       	843.06964      	842.6455       	842.56744      	843.15533      	842.54224      	842.49524      	843.0635       	842.54297      	842.8699       	842.52576      	843.69135      	
842.6104       	842.547        	842.5841       	842.36224      	842.37463      	841.12396      	843.8238       	841.04785      	841.5658       	841.0338       	842.324        	842.69086      	842.3712       	842.2781       	842.2369       	842.1087       	841.9642       	842.1723       	841.7952       	841.9518       	841.9247       	842.47565      	841.00934      	840.4541       	841.8121       	842.47876      	840.75433      	841.3575       	841.57605      	841.71716      	841.7444       	841.47845      	841.76556      	841.71063      	840.8099       	840.5899       	841.10046      	840.86035      	840.6709       	841.1989       	840.91077      	840.8343       	841.08075      	840.936        	840.9337       	840.87537      	840.8822       	840.92645      	840.9573       	841.2883       	840.8261       	840.93915      	841            	840.9237       	840.80676      	840.9421       	840.7387       	840.75256      	841.1316       	840.5973       	840.68396      	841.3391       	840.6569       	840.6628       	841.12964      	840.665        	841.20355      	840.6466       	840.983        	841.80396      	841.94696      	842.14166      	841.8805       	840.59595      	840.59467      	841.0563       	840.5331       	840.53906      	840.57153      	841.2122       	840.5625       	840.5302       	840.8923       	840.6705       	840.5499       	840.5006       	841.22687      	840.6699       	840.5313       	840.5459       	840.86383      	840.6452       	840.5937       	841.1387       	840.65045      	840.89703      	840.7243       	840.6627       	840.8121       	841.0195       	
842.8373       	842.9517       	843.0052       	842.8851       	842.80347      	842.8122       	842.82556      	841.4414       	842.3176       	842.88184      	842.82086      	842.85364      	842.68555      	842.7696       	842.8474       	842.56256      	842.4261       	842.6926       	842.64465      	842.4426       	842.4433       	842.3873       	842.4101       	842.30426      	842.25287      	842.054        	842.1888       	842.23956      	842.2665       	842.36414      	842.50653      	842.46716      	842.4219       	842.37756      	841.48004      	841.9375       	841.8602       	841.6416       	842.08295      	841.82544      	841.72174      	841.9683       	841.80475      	841.7854       	842.3376       	841.7657       	841.81213      	841.8595       	842.4163       	841.7546       	841.8689       	842.1907       	841.7868       	841.8154       	842.2032       	841.6809       	841.78754      	842.13464      	841.62946      	841.67535      	842.07916      	841.7089       	842.18805      	842.69696      	842.78357      	841.6358       	841.69226      	841.5992       	842.9421       	841.5966       	843.0681       	842.65015      	842.97424      	842.8759       	843.29926      	841.46844      	841.46936      	841.5328       	841.8022       	841.4912       	841.469        	842.5639       	841.5527       	841.51117      	841.45905      	841.6963       	841.55316      	841.4727       	841.93726      	841.6547       	841.50446      	842.2044       	841.6513       	841.5586       	841.8874       	841.54004      	841.5264       	842.15094      	841.6127       	842.1475       	
843.0676       	843.23706      	842.89716      	843.9784       	841.69183      	843.8669       	841.7455       	841.63995      	841.6936       	842.8925       	843.0448       	842.8551       	843.07355      	842.8937       	842.61633      	842.7712       	842.77124      	842.7423       	842.62476      	843.4093       	841.8562       	842.4324       	842.4974       	842.5893       	842.2141       	842.2118       	842.1146       	842.42505      	842.3735       	842.45013      	842.6223       	842.66595      	842.51953      	842.67584      	842.58624      	842.3437       	841.7953       	841.6598       	842.5554       	841.88385      	841.818        	842.2838       	841.88464      	841.87476      	842.56586      	841.80273      	841.8549       	841.83984      	841.7183       	841.72144      	841.8073       	842.4473       	841.71295      	841.78094      	842.5494       	841.6561       	841.7298       	841.748        	841.58374      	842.10785      	841.6044       	842.04675      	842.88873      	842.5475       	842.7865       	842.955        	842.5526       	842.942        	842.5463       	842.871        	842.8795       	842.9417       	843.39905      	841.40906      	841.452        	841.66046      	841.36786      	841.41864      	841.84576      	841.4254       	841.3819       	841.3601       	841.6439       	841.4859       	841.3893       	841.7416       	841.5964       	841.48663      	841.3649       	842.5574       	841.52277      	841.3897       	842.9449       	841.51587      	841.43665      	842.8331       	841.5092       	841.426        	845.1093       	841.50085      	
842.7665       	842.7386       	842.7735       	842.61584      	841.3609       	841.89056      	841.39526      	841.82874      	841.2304       	842.2807       	842.41144      	842.62994      	842.5546       	842.4031       	842.43427      	842.3418       	842.5218       	842.36884      	842.48145      	842.41864      	842.21844      	842.1523       	842.1404       	842.1484       	841.919        	842.0322       	842.0891       	842.2252       	842.2011       	842.42957      	842.3295       	842.359        	842.401        	842.5113       	842.412        	841.6364       	841.5107       	842.11774      	841.71814      	841.67633      	841.9775       	841.69824      	841.7093       	842.27496      	841.65375      	841.7162       	842.30505      	841.59985      	841.644        	841.7645       	842.1373       	841.67114      	842.11096      	841.648        	841.74457      	842.1547       	841.60266      	842.07385      	841.5106       	842.0564       	841.64636      	842.1885       	842.6244       	842.79156      	842.7408       	842.5071       	842.6234       	842.3086       	842.82465      	842.6344       	842.72424      	841.41174      	841.48047      	841.7299       	841.3627       	841.3967       	842.0573       	841.4443       	841.41797      	841.3647       	841.7252       	841.444        	841.3997       	841.8268       	841.65656      	841.54755      	841.4449       	841.9304       	841.6603       	841.54895      	841.9753       	841.6748       	841.5983       	841.707        	841.8043       	841.623        	841.85144      	841.72723      	841.6134       	842.08563      	
842.8069       	843.28156      	845.6306       	842.7848       	842.9909       	843.2894       	843.096        	842.7527       	842.93585      	844.2058       	844.3318       	844.1286       	843.8473       	843.99866      	843.962        	844.1168       	843.89325      	843.9942       	843.9596       	843.9664       	843.81415      	843.6134       	843.6136       	843.5772       	843.69653      	843.4472       	843.72723      	843.4046       	843.7324       	843.7318       	844.1959       	844.06775      	844.1152       	844.2611       	844.14685      	843.40076      	843.199        	843.67053      	843.37683      	843.3252       	843.84076      	843.31775      	843.39856      	843.3707       	843.3171       	843.2942       	843.3913       	843.2808       	843.2789       	843.3773       	843.84576      	843.29193      	843.3929       	843.54645      	843.3347       	844.807        	843.23254      	843.8623       	843.1464       	843.4499       	844.1692       	844.51166      	844.60254      	843.1112       	843.52405      	843.0439       	843.4065       	843.07556      	843.68         	843.0156       	843.49634      	843.07886      	843.0637       	843.3779       	843.0661       	843.0146       	843.004        	844.30945      	843.0499       	842.9901       	843.54114      	843.20874      	843.11774      	842.9812       	843.4245       	843.2379       	843.17126      	843.0107       	844.10535      	843.2273       	843.1684       	843.0713       	843.29016      	843.11847      	843.05676      	847.88904      	843.0977       	843.1083       	844.7065       	843.0888       	
844.31226      	842.6391       	842.734        	845.5776       	842.6059       	842.92035      	842.5465       	843.21063      	842.4808       	842.832        	843.88617      	843.9584       	843.7751       	843.4735       	843.8066       	843.7483       	843.56055      	843.44196      	843.41125      	843.4339       	843.3389       	843.4343       	843.09204      	843.0378       	843.2566       	843.444        	843.3438       	843.32574      	843.41595      	843.5051       	843.15295      	845.6205       	842.44604      	842.7006       	843.4853       	842.7051       	842.67426      	844.10266      	843.50726      	842.7437       	843.16376      	842.7123       	842.7179       	843.0265       	842.5787       	842.66003      	847.2617       	842.49945      	842.7506       	842.48804      	842.5528       	843.0922       	842.3876       	842.4901       	842.8887       	842.3495       	842.9635       	842.2693       	842.76746      	843.74054      	843.6018       	842.09985      	842.80383      	842.1618       	842.52826      	842.0802       	842.0546       	842.38434      	842.02106      	842.5812       	841.9656       	842.0287       	842.27875      	841.93195      	841.93097      	842.1573       	841.90393      	841.84894      	842.26306      	841.98834      	841.9159       	841.8411       	842.45044      	842.03455      	841.92847      	841.85895      	842.9413       	842.0466       	841.9307       	841.81616      	842.0509       	841.9137       	841.85126      	842.1592       	841.8559       	841.8369       	842.45795      	841.77185      	841.7572       	842.268        	
841.1726       	843.44727      	841.0973       	841.13324      	841.678        	841.0227       	841.44666      	840.9843       	841.3298       	842.15485      	842.52673      	842.27844      	842.21423      	842.255        	842.24927      	842.1864       	842.0051       	841.87604      	842.0268       	842.0078       	842.1631       	842.01825      	841.8689       	841.9459       	841.94147      	841.99384      	841.9937       	841.8756       	842.02234      	841.9423       	840.9315       	841.7347       	841.169        	841.68066      	841.39984      	841.25006      	841.8082       	841.4054       	841.7679       	841.3837       	841.8163       	841.3766       	841.34607      	841.94824      	841.3311       	841.4027       	842.44         	841.16284      	841.2747       	841.3225       	841.20154      	841.932        	841.0847       	841.23773      	841.4371       	841.0729       	841.4514       	840.9782       	841.48254      	840.905        	840.9254       	841.5466       	840.9238       	841.28656      	840.88763      	841.2735       	840.8906       	840.8476       	841.471        	840.86945      	840.87946      	841.2654       	840.861        	840.90924      	841.0897       	840.9179       	840.88043      	841.48145      	840.96185      	840.9267       	840.83484      	842.0271       	841.0569       	840.9757       	840.88824      	841.36066      	841.06305      	841.0095       	841.3978       	841.07715      	841.05676      	841.0007       	841.6921       	841.04987      	841.0065       	841.49554      	840.99023      	841.0266       	841.6072       	841.0079       	
842.1345       	841.72125      	841.76074      	842.3518       	841.74457      	841.7406       	842.5063       	841.65735      	842.37976      	842.953        	843.0025       	842.95154      	842.96106      	843.0319       	842.9758       	842.8917       	842.97986      	842.8474       	842.9374       	842.7995       	842.87506      	842.9157       	843.08453      	842.72784      	842.92114      	842.92426      	842.9892       	843.22473      	842.31714      	842.0003       	842.2849       	842.62146      	842.45776      	842.29126      	842.92914      	842.62866      	842.9909       	842.6848       	842.66626      	843.1104       	842.69763      	843.02344      	842.6504       	842.71967      	842.7998       	842.5981       	843.18384      	842.545        	842.61176      	843.47095      	842.6038       	843.1296       	842.5724       	842.6682       	843.7285       	842.5566       	843.26746      	842.42444      	842.5091       	843.12683      	842.45734      	842.73413      	842.4895       	842.46967      	843.12103      	842.5514       	843.143        	842.52875      	842.55835      	843.0399       	842.59045      	842.60815      	843.2568       	842.679        	842.636        	842.99         	842.7405       	842.6985       	843.47394      	842.88434      	842.7997       	842.70276      	843.3267       	842.962        	842.86804      	842.7998       	843.17444      	843.0375       	842.9784       	843.4508       	843.01733      	842.95575      	842.90027      	843.69275      	842.9298       	842.9262       	843.68396      	842.9655       	842.9683       	843.41895      	
843.8337       	843.41504      	843.7909       	843.4961       	843.3134       	843.66766      	844.22437      	844.62787      	844.5459       	844.4542       	844.5012       	844.46747      	844.37555      	844.3438       	844.449        	844.3209       	844.3531       	844.3552       	844.27747      	844.24927      	844.21265      	844.2805       	844.1075       	844.3786       	844.22565      	844.2353       	844.52875      	844.401        	843.6582       	843.845        	843.6845       	844.0233       	843.77216      	843.6366       	844.0735       	843.7857       	844.29236      	843.7367       	843.73724      	844.07025      	843.6769       	844.1186       	843.57056      	843.64233      	843.7689       	843.4687       	844.27875      	843.33075      	843.43835      	844.1667       	843.29236      	843.45465      	843.26746      	843.30304      	843.7422       	843.193        	843.4926       	843.2755       	843.21106      	843.6269       	843.0551       	843.51404      	843.0241       	843.0183       	843.7393       	843.047        	843.0638       	843.19037      	843.006        	843.5612       	843.0564       	843.0049       	843.3062       	843.10974      	843.0314       	843.7474       	843.0993       	843.04254      	842.9916       	843.47766      	843.1226       	842.99475      	843.2398       	843.1597       	843.07904      	842.9386       	843.50757      	843.11414      	843.0107       	843.48254      	843.0267       	842.97504      	842.9044       	843.90454      	842.8876       	842.89355      	846.88055      	842.8567       	842.9483       	843.46313      	
841.97144      	842.48535      	842.21375      	841.8806       	841.86816      	842.81323      	843.02545      	843.0015       	843.22925      	843.0846       	843.1474       	843.00824      	843.0595       	842.8464       	842.8445       	842.92896      	842.79156      	842.80786      	842.89545      	842.8518       	842.75415      	842.99445      	842.99536      	842.73816      	842.7451       	842.7933       	843.11914      	843.47925      	841.96643      	842.3544       	842.06226      	842.91235      	842.1854       	843.44         	842.2715       	842.24164      	842.3246       	842.2224       	842.8481       	842.0964       	842.163        	842.7158       	841.9866       	842.453        	841.8944       	841.9763       	842.8316       	841.81586      	842.2431       	841.74347      	841.89124      	841.95447      	841.7765       	842.2485       	841.65375      	841.78546      	841.66046      	841.6532       	842.05536      	841.51404      	841.5784       	841.6015       	841.4747       	842.0137       	841.55896      	841.53485      	843.10925      	841.5276       	841.48285      	842.42584      	841.56726      	841.5569       	842.50354      	841.6023       	841.56537      	842.01654      	841.66656      	841.60516      	842.0699       	841.6915       	841.6575       	841.9101       	841.7647       	841.6806       	841.63336      	841.8839       	841.66504      	841.65         	842.3108       	841.6111       	841.5978       	841.797        	841.574        	841.5136       	842.2094       	841.52045      	841.50775      	841.85486      	841.4968       	841.4688       	
844.6996       	841.5606       	841.5141       	841.9648       	842.5752       	842.7511       	842.6757       	842.7677       	842.6615       	842.6517       	842.6046       	842.59955      	842.6642       	842.6227       	842.5922       	842.65796      	842.3863       	842.48596      	842.4004       	842.62976      	842.42426      	842.7252       	842.8192       	842.59076      	842.7584       	842.91895      	842.8472       	842.75073      	841.7891       	842.707        	841.89966      	842.3344       	842.10516      	842.4682       	842.083        	842.4493       	841.9961       	842.0417       	842.7288       	841.88715      	842.0181       	842.2787       	841.91766      	842.3121       	841.7667       	842.1944       	841.67523      	841.8026       	841.8599       	841.702        	842.39233      	841.594        	841.71875      	841.7221       	841.63086      	842.2644       	841.5279       	842.0684       	841.52094      	841.5649       	842.30164      	841.48785      	842.12396      	841.6319       	841.51605      	841.8164       	841.63684      	841.57715      	842.02484      	841.67004      	841.68396      	842.88745      	841.69714      	842.2089       	841.8241       	841.7504       	841.7108       	842.17145      	841.8193       	841.7372       	843.2112       	841.917        	841.85864      	842.49445      	841.89886      	841.8476       	841.85474      	842.33         	841.80536      	841.81866      	841.9782       	841.8012       	841.7559       	841.8844       	841.79565      	841.68744      	841.71545      	841.9502       	841.66705      	841.74         	
842.8451       	842.8884       	841.7796       	841.6513       	842.1579       	842.7521       	842.74774      	842.7899       	842.7822       	842.91187      	842.8077       	842.6583       	842.44763      	842.8568       	842.78815      	842.6553       	842.73395      	842.6393       	842.62164      	842.7294       	842.6051       	842.669        	842.94794      	842.778        	843.0032       	842.9013       	843.08813      	843.04565      	843.0626       	843.3471       	842.0136       	842.32855      	842.1226       	842.1225       	842.0732       	843.1504       	841.9636       	842.3981       	841.8564       	841.9983       	842.2312       	841.8564       	842.31323      	841.69476      	842.36725      	841.60114      	841.73627      	842.2958       	841.56647      	841.9488       	841.45667      	842.19086      	841.44226      	841.51135      	841.5614       	841.4569       	841.968        	841.37787      	842.0248       	841.36426      	841.38025      	842.14844      	841.37274      	841.64465      	841.48114      	841.38513      	841.76666      	841.48114      	841.4423       	841.8279       	841.5309       	841.50586      	841.96967      	841.5613       	841.9079       	841.6137       	841.5694       	841.87573      	841.61743      	841.58264      	841.52637      	842.17175      	841.539        	841.53674      	841.8485       	841.53125      	841.5515       	841.5289       	842.5478       	841.4404       	841.47797      	842.04944      	841.3509       	841.39746      	842.14545      	841.265        	841.329        	841.7323       	841.24677      	841.2641       	
842.601        	842.248        	842.2419       	842.2644       	842.12805      	842.2766       	842.5108       	842.5081       	842.528        	842.58203      	842.53424      	842.405        	842.27496      	842.46686      	842.4805       	842.47943      	842.60864      	842.4522       	842.31866      	842.46716      	842.47406      	842.7764       	842.7595       	842.698        	842.6155       	842.9241       	843.006        	842.90765      	842.90875      	841.86224      	842.33704      	841.9254       	842.5272       	841.7769       	841.9133       	842.7613       	841.70306      	842.2029       	841.62573      	841.76276      	841.97         	841.6103       	842.305        	841.459        	842.09735      	841.3419       	841.49835      	842.22797      	841.4122       	841.856        	841.3279       	841.5922       	841.36597      	841.3923       	842.4919       	841.29517      	841.9414       	841.3019       	841.9183       	841.34595      	841.3022       	841.99426      	841.3587       	841.8961       	841.4926       	841.4276       	841.9268       	841.4584       	841.44446      	842.65735      	841.5557       	841.4783       	841.87823      	841.5851       	841.97205      	841.6364       	841.6228       	842.15094      	841.72455      	841.73157      	841.648        	841.77515      	841.68         	841.65686      	842.2255       	841.6098       	841.6353       	842.0341       	841.5722       	841.5748       	841.6204       	841.6923       	841.4781       	841.50183      	842.10675      	841.422        	841.5215       	842.0604       	841.4055       	841.43823      	
841.86554      	842.0547       	842.8046       	842.8977       	844.47943      	841.87024      	842.18805      	842.4753       	842.9677       	842.94684      	842.9225       	843.17163      	842.8297       	842.72125      	842.9882       	843.0933       	843.11523      	843.07947      	842.9346       	842.8979       	843.05524      	843.34094      	843.392        	843.3824       	843.2128       	843.3216       	843.2065       	843.51227      	843.27234      	842.9099       	842.53864      	843.1042       	842.40015      	842.9456       	842.18945      	842.295        	842.77594      	842.1329       	842.60675      	841.9859       	842.11914      	842.6869       	841.93787      	842.39264      	841.7521       	841.921        	842.0782       	841.829        	842.2009       	841.75885      	842.20404      	841.7076       	842.0374       	841.8073       	841.83636      	842.14746      	841.7435       	842.33203      	841.6869       	842.0649       	841.7457       	841.7149       	842.27954      	841.7725       	842.088        	841.876        	841.8412       	842.9987       	841.93286      	841.92535      	842.1517       	841.9671       	842.4814       	842.0649       	842.57806      	842.0646       	842.04596      	842.3913       	842.0255       	842.03455      	842.789        	842.0199       	842.0163       	842.626        	841.9545       	842.0576       	842.04224      	842.0779       	841.9265       	841.95087      	842.25806      	841.8175       	841.86255      	842.1604       	841.76465      	841.8002       	842.5293       	841.8238       	841.8017       	842.40393      	
845.3898       	841.845        	841.778        	841.7499       	841.9845       	841.7599       	841.9773       	842.5735       	842.6338       	842.76697      	842.6889       	842.7702       	842.62695      	842.859        	842.8509       	842.8072       	842.9255       	842.75806      	842.90906      	842.82837      	842.81116      	843.14856      	843.2076       	843.0818       	843.29926      	842.9949       	843.11127      	843.2399       	843.1244       	842.1122       	842.74677      	842.0766       	842.64746      	841.8892       	842.01666      	841.8307       	841.8228       	842.4678       	841.6139       	841.7932       	841.6498       	841.6063       	841.79987      	841.6036       	842.1354       	841.48175      	841.9149       	841.4433       	841.81415      	841.3505       	841.77594      	841.4491       	841.49097      	842.8023       	842.56323      	842.9733       	841.3614       	841.77075      	841.39526      	841.5641       	841.5716       	841.4592       	841.81445      	841.5738       	841.49457      	842.3552       	841.6132       	841.5801       	842.03394      	841.73175      	842.2116       	841.8242       	841.7666       	842.81506      	842.9685       	841.81635      	841.7969       	842.0685       	841.83386      	842.36707      	841.843        	841.78644      	841.7748       	841.7851       	841.74615      	841.7844       	841.91113      	841.7406       	841.6817       	842.07983      	841.609        	841.625        	842.0498       	841.5474       	841.559        	845.23566      	841.5082       	841.7187       	841.64813      	841.8012       	
841.7836       	841.7208       	842.28754      	841.89075      	841.80695      	841.7392       	842.05914      	841.75543      	842.48364      	844.46356      	841.7562       	842.78485      	841.96686      	842.14465      	842.8969       	842.9687       	842.74304      	843.03687      	842.86884      	843.22894      	842.8419       	843.3545       	843.09216      	843.0948       	843.3766       	843.1979       	843.6003       	843.3108       	843.5381       	843.2631       	843.5781       	842.0003       	842.3646       	841.7292       	841.90027      	842.05634      	841.7045       	842.3723       	841.5359       	841.7269       	841.80304      	841.53937      	842.54755      	841.4975       	842.1733       	841.39         	841.79755      	841.36426      	841.80505      	841.8867       	841.41003      	842.0307       	841.50525      	842.3539       	842.79724      	842.6339       	842.6444       	841.4845       	841.95544      	841.64606      	841.52374      	842.1368       	841.6107       	841.5764       	842.239        	841.73175      	841.6938       	842.6233       	841.7282       	842.26746      	841.81537      	841.7823       	843.1251       	841.8103       	842.75745      	843.2527       	842.3816       	841.8405       	843.4027       	841.859        	841.8375       	842.29047      	841.8007       	841.85443      	842.0176       	841.7649       	842.17487      	841.73627      	841.7005       	842.33234      	841.60254      	841.62897      	842.02106      	841.5805       	841.8795       	842.74097      	842.9354       	842.677        	842.96515      	842.5103       	
841.95905      	841.8382       	842.21936      	842.07434      	841.98157      	841.8809       	842.43195      	842.0388       	842.13635      	842.25006      	842.0102       	843.07513      	843.18005      	842.8473       	842.99457      	843.0697       	843.30536      	843.2256       	843.1034       	843.30634      	843.40063      	843.3019       	843.40955      	843.56354      	843.6713       	843.6055       	843.59534      	843.56506      	843.69275      	843.976        	843.62683      	843.76697      	843.65735      	843.6656       	843.56726      	843.62445      	841.8648       	842.3729       	841.77496      	842.4394       	841.73303      	842.0875       	841.6393       	842.78394      	843.5469       	841.5145       	841.9007       	841.5353       	842.4872       	842.55524      	843.1483       	843.1449       	842.8442       	843.0331       	842.8577       	843.03503      	842.49945      	842.64935      	841.7722       	841.68         	842.01263      	841.70776      	842.3409       	841.84705      	841.73145      	842.3503       	841.8959       	842.18195      	841.9838       	841.9128       	843.2533       	842.97156      	842.9574       	843.0556       	843.1495       	843.1872       	843.2716       	843.21735      	843.3901       	842.34985      	841.9462       	842.5227       	841.9531       	841.9055       	842.51917      	841.8806       	842.0006       	843.20026      	841.845        	842.494        	841.7978       	841.87036      	843.4435       	841.7132       	842.45435      	842.99225      	842.9587       	843.119        	843.0561       	842.7167       	
842.51215      	842.0755       	841.9307       	841.9089       	841.8506       	842.7562       	842.07874      	842.02045      	842.3269       	842.0779       	841.9561       	842.53156      	842.01215      	842.47455      	842.0806       	842.61334      	843.0626       	843.24036      	843.29895      	843.25366      	843.36536      	843.2219       	843.4626       	843.45593      	843.19604      	843.5466       	843.68585      	843.5068       	843.4375       	843.28625      	843.37146      	842.078        	841.85297      	843.4442       	841.6485       	842.2607       	842.9547       	843.0865       	842.80066      	841.4022       	841.65814      	842.9462       	842.67         	842.5114       	841.2471       	841.74536      	841.2606       	841.8708       	841.27826      	841.8352       	841.2919       	841.3595       	841.4724       	841.903        	842.8026       	842.58923      	842.7575       	842.48303      	841.4365       	841.67993      	842.9558       	841.5115       	842.03         	841.6373       	841.52344      	842.1129       	841.57355      	841.54004      	841.857        	841.629        	842.2584       	841.7429       	842.7695       	842.97534      	843.1483       	842.9756       	842.78674      	842.907        	843.1553       	842.97253      	843.0051       	841.51245      	841.56964      	842.17786      	841.4474       	841.9029       	841.45325      	841.4692       	842.12195      	841.32135      	841.37146      	841.5616       	841.2966       	841.6235       	841.26044      	841.7156       	842.44446      	842.58044      	842.4599       	842.3803       	
841.27673      	841.54663      	846.0946       	841.3373       	841.30347      	841.28235      	842.12427      	841.38043      	841.3311       	841.7916       	841.4103       	841.9553       	841.4333       	841.39954      	841.89844      	841.4524       	841.8337       	841.5176       	842.061        	842.4999       	842.5364       	842.73346      	842.83246      	842.6036       	842.8852       	842.957        	842.8907       	843.21875      	842.4553       	842.9381       	842.75494      	842.9869       	841.4337       	841.0824       	841.6921       	840.9525       	841.2949       	840.8238       	844.0746       	840.6781       	841.21         	840.6239       	841.2027       	840.6358       	841.7125       	841.90485      	840.67145      	841.16003      	840.80316      	840.71716      	840.8611       	840.7501       	842.1109       	842.13354      	841.75934      	841.9723       	841.9018       	841.8978       	842.1569       	840.9745       	840.96216      	841.15717      	840.98395      	841.52563      	841.077        	841.5431       	841.14294      	841.2552       	841.236        	841.1833       	841.4418       	841.3119       	842.36066      	842.61273      	842.53503      	842.5522       	842.62854      	842.64355      	842.6878       	841.5802       	841.11676      	841.8139       	841.07684      	841.1099       	841.7838       	841.0214       	841.681        	840.9483       	840.9529       	841.37976      	840.87756      	841.4704       	840.93304      	840.89777      	841.8089       	842.38873      	841.88074      	842.1292       	842.1895       	841.72546      	
842.3386       	841.1817       	841.1659       	841.1865       	841.4489       	841.2521       	841.2432       	841.6285       	841.31573      	841.2929       	841.9029       	841.2854       	841.3089       	841.66046      	841.3457       	841.6254       	841.33734      	841.2833       	842.5099       	842.33386      	842.699        	842.42456      	842.6208       	842.8019       	842.5294       	841.3545       	841.25476      	842.8359       	842.5362       	840.99536      	841.4067       	842.61334      	842.4354       	840.8026       	841.4037       	842.20544      	840.692        	841.0685       	840.545        	841.1767       	840.4994       	841.0265       	840.503        	840.7211       	840.5969       	840.5382       	840.82935      	840.58484      	841.4523       	840.7037       	841.077        	840.75494      	840.6908       	841.86426      	841.9443       	840.9198       	840.76276      	841.32983      	840.8629       	841.3004       	840.934        	840.86804      	841.51306      	840.9814       	841.5155       	841.024        	841.00134      	841.4417       	841.05237      	841.7291       	841.0947       	841.9339       	842.4158       	842.47687      	842.5716       	842.6446       	841.3434       	841.1012       	841.33563      	841.04614      	841.4518       	840.9695       	841.4994       	840.85406      	840.982        	841.7282       	840.8214       	840.8981       	841.5872       	840.836        	840.9154       	841.0289       	840.8425       	841.37695      	840.8239       	841.4124       	841.8848       	841.98376      	841.83325      	841.97144      	
842.2796       	841.4483       	841.46765      	841.47125      	842.1324       	841.4496       	841.51605      	842.0663       	841.4922       	841.5668       	841.92316      	841.5812       	841.6448       	841.6388       	841.65625      	841.95386      	841.6217       	841.6123       	842.8442       	843.0383       	843.07086      	842.9538       	843.5795       	841.61273      	841.90753      	841.5477       	842.3086       	841.38385      	842.1048       	841.2631       	841.79285      	841.14746      	841.5685       	842.82654      	842.46814      	842.72046      	842.2099       	842.2093       	840.8991       	841.2985       	840.91705      	841.26965      	840.9913       	840.88446      	841.9756       	840.91797      	841.46686      	841.00714      	841.277        	841.1985       	841.00964      	841.71875      	841.14734      	841.70416      	841.31476      	842.10266      	841.42804      	841.71497      	842.55566      	841.5882       	841.38605      	841.9724       	841.45386      	841.4005       	841.7989       	841.48047      	842.038        	841.55206      	841.9154       	841.57166      	842.45825      	843.1465       	842.845        	842.7983       	843.3966       	841.5683       	842.18225      	841.5217       	841.9304       	841.42114      	841.60443      	841.51965      	841.4268       	842.1035       	841.3487       	842.05304      	841.35974      	841.3714       	842.0504       	841.29297      	841.4052       	841.3523       	841.3112       	843.73254      	841.31055      	841.6444       	841.29193      	842.1518       	842.09973      	842.43463      	
842.2103       	842.25134      	842.2955       	843.0931       	842.2444       	842.27386      	842.4236       	842.3302       	842.29816      	842.8343       	842.26953      	842.4019       	843.0977       	842.338        	842.4278       	843.1884       	842.38617      	842.83453      	843.7294       	843.7881       	843.7564       	843.661        	843.6654       	842.4564       	843.06274      	842.2532       	842.5142       	842.1403       	842.2208       	843.6949       	843.28516      	843.2266       	841.9643       	841.90814      	843.559        	843.48645      	842.6761       	841.78894      	842.88043      	843.0931       	841.662        	842.12695      	841.6839       	842.25806      	841.8302       	842.2948       	841.9548       	841.87335      	843.611        	841.93353      	842.44507      	842.07153      	842.38055      	843.4931       	843.2867       	842.45953      	842.1851       	842.455        	842.2839       	842.571        	842.38696      	842.29114      	842.6431       	842.3591       	842.38214      	842.4644       	842.364        	843.816        	843.4596       	843.81476      	843.7861       	843.8809       	843.8894       	843.6611       	843.9356       	843.73914      	843.7092       	842.3163       	842.9496       	842.3188       	842.4346       	842.324        	842.2767       	842.63666      	842.1687       	842.5349       	842.23303      	842.15454      	842.4518       	842.1298       	842.1809       	842.6631       	842.1046       	842.51135      	842.1718       	842.09344      	844.13965      	842.0821       	842.95087      	843.1787       	
843.1386       	842.52637      	842.5053       	842.57465      	842.6065       	842.5325       	842.4623       	842.6332       	842.5755       	842.539        	842.75195      	842.6544       	842.5518       	842.68805      	842.5127       	842.5355       	842.7093       	842.53296      	842.57556      	843.7167       	842.89905      	842.7923       	842.6228       	842.5303       	843.1094       	842.4573       	843.0102       	842.1764       	842.71875      	842.0473       	842.21234      	842.198        	842.03754      	842.044        	841.9133       	842.2145       	841.8584       	843.26263      	841.7927       	842.1112       	841.78876      	842.09753      	841.83997      	842.3096       	841.9307       	842.3518       	842.0294       	842.43915      	843.28217      	842.0933       	842.52844      	842.1809       	842.63684      	842.22687      	842.5404       	842.2493       	842.60547      	842.3105       	842.2637       	842.7133       	842.3629       	842.7013       	842.3561       	842.32776      	842.8418       	842.37415      	842.90594      	842.35126      	842.65375      	842.4284       	843.67535      	843.4476       	842.63776      	842.75916      	843.8912       	843.8605       	843.63055      	843.51984      	842.1231       	842.2422       	842.95935      	842.1238       	842.894        	842.0435       	842.12366      	843.41626      	842.02893      	842.15533      	842.1223       	842.0466       	842.6851       	842.0059       	842.0023       	842.2737       	841.99646      	841.9506       	842.88184      	841.9845       	842.47064      	842.0107       	
842.0485       	842.6642       	841.96124      	841.9818       	842.0748       	842.9195       	841.8559       	841.9688       	842.7017       	841.87604      	842.0253       	842.3558       	841.9238       	842.0978       	842.33344      	841.93195      	842.10126      	842.3779       	842.0316       	842.8086       	843.2821       	841.9749       	842.5724       	841.81805      	842.53674      	841.73694      	842.2061       	841.532        	841.6341       	841.6559       	841.4944       	842.1187       	841.4355       	842.3573       	843.03876      	842.89746      	842.9987       	842.569        	841.91266      	841.76526      	841.37854      	841.8271       	841.3771       	841.6301       	841.4371       	842.49567      	842.57007      	842.1659       	841.5686       	842.8651       	841.75024      	841.96027      	841.7272       	842.1934       	841.83887      	842.0602       	841.958        	841.8229       	842.62976      	841.8389       	842.3964       	841.8439       	841.83887      	842.1845       	841.846        	842.1113       	841.7969       	842.5206       	843.4258       	843.40405      	843.1595       	843.21356      	841.78186      	842.8037       	843.2817       	843.1321       	843.1495       	842.9531       	841.96136      	841.6273       	842.15845      	841.5917       	841.94275      	841.5065       	841.54266      	842.1481       	841.51294      	841.5814       	841.97327      	841.506        	841.5123       	841.7436       	841.5043       	842.1335       	841.5741       	841.5091       	841.9961       	841.59576      	841.50073      	842.3346       	
841.59283      	841.7493       	841.79944      	842.3077       	841.5638       	841.6658       	842.6113       	841.4524       	841.56055      	841.7041       	841.4713       	841.59674      	841.7406       	841.6563       	841.5673       	842.01624      	841.5844       	841.61646      	844.4059       	841.63635      	842.09094      	841.5794       	842.3502       	841.4407       	842.2731       	841.33777      	841.4405       	841.3759       	841.2444       	841.90027      	841.12445      	841.2192       	842.56226      	842.2464       	842.62146      	842.2246       	842.2005       	842.4449       	842.69867      	841.85504      	841.1874       	841.5181       	841.6809       	842.5173       	842.22095      	842.4902       	841.49115      	842.3508       	842.43304      	842.4824       	842.59344      	841.66113      	842.087        	841.7786       	842.0267       	841.84344      	841.8176       	842.0772       	841.8376       	842.44196      	841.77563      	841.80566      	841.91797      	841.77875      	842.361        	841.8041       	842.2013       	841.85516      	843.1736       	843.1988       	843.09985      	843.3759       	843.39777      	843.4047       	843.1822       	843.119        	842.92053      	842.64526      	841.7301       	841.6611       	841.933        	841.5658       	842.3394       	841.52704      	841.5736       	842.0827       	841.51654      	841.5244       	842.9273       	841.5559       	841.5543       	841.7471       	841.57477      	841.9005       	841.6567       	841.5703       	842.06195      	841.5863       	842.1008       	841.6608       	
842.58887      	842.4348       	842.36975      	842.47046      	842.58826      	842.4753       	842.27594      	842.48914      	842.9564       	842.3265       	842.50793      	843.3432       	842.3109       	842.4852       	844.4583       	842.53625      	843.52893      	843.60315      	843.7527       	843.8008       	843.8315       	842.3809       	843.1035       	842.3523       	842.42926      	842.71094      	842.2614       	842.9372       	842.1352       	842.7401       	842.0558       	842.09015      	842.7221       	842.06055      	843.5027       	843.43805      	843.2211       	843.13513      	843.2525       	843.4755       	842.2276       	843.0924       	843.3853       	843.2503       	842.82166      	842.3602       	843.52185      	842.6344       	842.69836      	844.67285      	842.5752       	843.1172       	842.684        	843.59796      	842.72784      	843.26184      	842.7883       	842.75287      	842.782        	842.72205      	844.3931       	842.7943       	843.3525       	842.79504      	843.17017      	842.8134       	843.066        	844.10876      	844.2133       	844.08887      	844.3176       	844.136        	844.2345       	844.2963       	844.26324      	844.2174       	843.74414      	842.98596      	842.6316       	843.0186       	842.51965      	842.6224       	842.7981       	842.50256      	842.9392       	842.54724      	842.6104       	842.8735       	842.56116      	842.955        	842.59827      	842.5933       	843.102        	842.63367      	842.6347       	842.90717      	842.6854       	843.2587       	842.81256      	842.7432       	
843.14026      	843.77045      	842.9385       	842.96704      	843.0622       	843.4538       	842.7352       	842.91895      	843.2617       	842.79584      	842.8443       	843.0534       	842.8702       	842.9306       	843.5153       	842.8948       	844.22534      	844.07214      	844.0777       	844.1068       	842.857        	843.2291       	842.8224       	843.1787       	842.6705       	843.0976       	842.63763      	843.1709       	842.5365       	842.57117      	843.3442       	842.5328       	842.99963      	842.4267       	842.9327       	843.5915       	843.4752       	843.5139       	842.5671       	843.67224      	843.7442       	843.68195      	842.7115       	843.6643       	842.7431       	843.3464       	843.20105      	843.0803       	843.1305       	843.1133       	842.9298       	843.28876      	843.00684      	843.612        	843.0724       	843.58685      	843.02185      	843.02673      	843.18933      	842.9525       	843.40686      	842.92487      	842.94244      	844.8124       	842.9518       	843.8022       	843.7574       	843.2878       	844.41235      	844.31256      	844.347        	844.337        	844.01196      	844.56305      	844.1846       	844.3144       	844.20514      	843.719        	844.13745      	842.6602       	843.3838       	842.68524      	842.73926      	843.1497       	842.71277      	843.1614       	842.68427      	843.38806      	842.7369       	842.7032       	844.70874      	842.70514      	843.0833       	843.55066      	843.7657       	843.6967       	843.82294      	843.964        	843.8176       	843.56         	
842.9657       	842.80066      	842.64154      	842.7341       	842.85095      	842.903        	842.5618       	842.7356       	843.4479       	842.595        	842.7687       	842.9325       	842.63837      	843.0393       	842.69727      	843.244        	842.69244      	843.16003      	842.6484       	843.92175      	843.92957      	842.6913       	842.63226      	843.0882       	842.5303       	843.34607      	842.46814      	843.055        	842.4121       	842.7577       	842.4852       	842.43176      	842.87976      	842.4381       	843.87604      	843.60095      	843.7147       	843.7394       	843.7572       	843.7857       	843.7347       	843.4721       	843.8522       	843.6978       	843.89484      	843.92847      	844.1068       	844.0944       	843.9665       	843.19855      	843.50555      	843.25183      	843.43616      	843.26105      	843.49133      	843.2398       	843.2117       	843.49304      	843.1266       	843.6422       	843.06866      	843.1228       	843.89685      	843.082        	843.5472       	843.0999       	843.9033       	844.49347      	844.5657       	844.51764      	844.65564      	844.30066      	844.45325      	844.5702       	844.8061       	844.2223       	844.3303       	844.3662       	844.3849       	842.9664       	843.3938       	842.902        	843.53973      	842.92883      	843.37683      	842.96906      	842.9775       	843.37524      	843.0482       	843.6153       	843.0404       	843.49255      	843.16315      	843.0619       	844.1676       	844.4556       	844.2565       	844.2153       	843.9899       	843.4721       	
843.9206       	844.0566       	844.7844       	843.7024       	843.79913      	843.9499       	843.91394      	843.7569       	843.9239       	844.089        	843.79364      	843.8931       	844.0657       	843.87506      	844.29645      	843.8817       	844.39075      	845.11255      	845.2008       	844.9592       	845.05664      	844.6904       	843.93317      	843.80634      	844.6064       	843.7919       	844.1296       	843.7555       	844.2503       	843.93823      	843.7281       	844.20337      	843.76184      	844.1151       	843.80865      	844.6996       	845.02997      	845.0178       	845.2618       	845.0749       	845.2011       	845.23016      	845.4125       	845.4347       	845.22534      	845.3456       	845.61127      	845.35913      	844.4092       	844.74225      	844.4749       	845.56805      	844.49524      	844.92664      	844.4981       	845.1064       	844.3867       	844.4473       	844.3961       	844.3513       	844.6927       	844.30505      	844.8402       	844.30237      	844.8113       	845.7787       	845.6848       	845.7062       	845.82294      	845.81586      	845.8382       	845.64246      	845.74097      	845.7653       	845.7617       	845.79785      	845.6621       	845.8346       	845.75525      	844.1225       	844.7477       	844.1533       	844.7768       	844.2144       	844.2519       	844.2132       	844.1471       	844.3538       	844.15784      	844.4813       	844.2025       	844.74097      	844.2435       	844.89844      	845.4667       	845.38074      	845.1277       	845.29944      	845.2416       	845.36884      	
843.5892       	843.61456      	843.72546      	844.44867      	843.5177       	843.44336      	843.56866      	844.1173       	843.43555      	843.53516      	844.02905      	843.40845      	843.5198       	844.0316       	843.434        	843.9259       	843.44037      	844.8652       	844.90344      	844.4066       	844.3171       	844.74243      	843.3153       	843.7512       	843.32544      	843.26044      	843.45374      	843.2333       	843.6773       	843.3086       	843.16284      	844.5101       	843.2448       	843.44073      	843.23676      	843.94916      	843.78314      	843.2517       	844.5051       	844.49207      	844.6433       	844.2519       	844.6158       	844.65375      	844.6162       	844.5858       	844.96423      	844.6939       	843.87006      	843.695        	844.1241       	843.7162       	844.32526      	843.6748       	844.2631       	843.49426      	843.4967       	844.0177       	843.39233      	843.7844       	843.2923       	843.3698       	843.3608       	843.27185      	844.22687      	843.29333      	843.4615       	843.7733       	844.2542       	844.4999       	844.5811       	844.3425       	844.5533       	844.51685      	844.76666      	844.63794      	844.3901       	844.4906       	844.8427       	843.0029       	843.36         	842.873        	843.1901       	842.8771       	843.5332       	842.82886      	843.3721       	842.8415       	842.8815       	843.08075      	842.8191       	843.54266      	844.28015      	844.0443       	844.0144       	843.8487       	843.9623       	842.98004      	843.1265       	844.0468       	
841.91565      	842.4867       	841.6017       	841.6246       	841.75555      	842.4433       	841.5423       	841.6227       	842.44446      	841.5935       	841.595        	842.1488       	841.6438       	841.68805      	841.8909       	841.64935      	843.0859       	843.06616      	842.8926       	843.13153      	842.4932       	841.65027      	841.55664      	841.7194       	841.503        	841.83         	841.54956      	841.45404      	841.93286      	841.63336      	841.7191       	841.8331       	841.57825      	842.96295      	841.6539       	843.10974      	841.6539       	842.0604       	841.7595       	842.6301       	842.99774      	842.53796      	842.89856      	843.30853      	842.9658       	842.8365       	843.1262       	842.1139       	842.5228       	842.1032       	842.0713       	842.15875      	842.0375       	842.2034       	841.92993      	842.5602       	841.8184       	842.03577      	842.88727      	842.3319       	842.0587       	841.7387       	842.2189       	841.7317       	842.9023       	843.079        	843.09674      	843.2493       	842.7885       	842.8457       	842.93945      	843.07983      	843.0896       	843.0569       	843.02094      	843.17786      	842.97046      	843.041        	842.8219       	841.7763       	841.4147       	842.8063       	841.42114      	841.86615      	841.4837       	841.65015      	841.4584       	842.0344       	841.44507      	842.90436      	842.8305       	841.4939       	842.6442       	842.6288       	842.8306       	841.56824      	841.91473      	841.6508       	841.6493       	842.6344       	
842.2194       	841.4163       	841.3329       	841.3754       	841.65015      	841.5909       	841.3765       	841.4407       	841.857        	841.37695      	841.4488       	841.7689       	841.412        	841.96655      	841.5245       	842.3828       	842.8619       	842.90753      	842.7595       	842.7186       	842.6431       	841.45044      	843.0514       	842.77124      	841.47156      	841.83563      	841.63245      	841.5186       	841.7936       	841.7831       	841.6172       	842.08044      	841.82104      	841.9818       	841.9315       	841.7686       	843.5336       	841.8281       	842.16077      	841.8905       	842.94574      	843.6342       	841.9783       	843.0456       	842.0582       	843.66656      	843.27594      	842.361        	843.67615      	842.18854      	842.5155       	842.1897       	842.73566      	842.0932       	842.76196      	841.9619       	842.1384       	842.0208       	841.95764      	842.987        	842.361        	843.03503      	842.9987       	841.8964       	842.43256      	841.9149       	842.71814      	843.0152       	843.2714       	843.111        	843.3933       	843.22327      	843.42035      	843.3736       	843.2206       	843.2972       	843.4604       	843.3104       	843.10834      	843.0819       	841.8175       	841.84143      	842.249        	841.8458       	842.21747      	842.29266      	843.28394      	843.5138       	843.2105       	843.2386       	843.32385      	843.07324      	843.17865      	843.1466       	842.0638       	842.4254       	842.1189       	842.62805      	842.18066      	842.42456      	
842.2511       	842.4071       	843.09644      	842.33         	842.29724      	842.3425       	842.7115       	842.32117      	842.32294      	842.7898       	842.3346       	842.3561       	842.7748       	842.3651       	842.9021       	842.3495       	843.0367       	843.69995      	843.62274      	843.5746       	843.67566      	843.6158       	843.57745      	843.85425      	842.5396       	842.41406      	843.36334      	842.65247      	842.46765      	844.2126       	842.7633       	842.60736      	843.29065      	842.82153      	843.001        	842.9884       	842.7311       	843.3106       	842.81793      	843.15         	842.8844       	844.039        	843.0614       	843.20825      	843.0406       	843.3697       	843.4068       	844.11945      	843.2135       	843.3698       	842.997        	843.4017       	842.9229       	843.26984      	842.81055      	842.91205      	842.7592       	842.96674      	842.91656      	842.7288       	844.2564       	843.8153       	842.80023      	843.12964      	842.6292       	843.733        	844.0221       	844.16797      	844.0278       	843.9128       	843.95703      	843.83875      	844.306        	843.9275       	844.1578       	844.0694       	844.0432       	844.15         	844.19434      	844.13         	843.9369       	844.0508       	842.60486      	842.90344      	843.83704      	843.9499       	843.88824      	844.06775      	843.89514      	843.9068       	844.05383      	844.10913      	843.9721       	844.06415      	842.8149       	843.41785      	842.8815       	843.21155      	842.99176      	843.38116      	
842.5816       	842.5251       	842.57806      	842.6702       	843.4395       	842.6399       	842.63464      	842.6567       	843.10187      	842.64514      	842.6911       	843.5712       	842.724        	842.89355      	842.7919       	842.89264      	843.8637       	844.1808       	843.9926       	843.7833       	843.98474      	844.1815       	843.8954       	843.99554      	843.08325      	842.93286      	843.48694      	843.1885       	843.01715      	843.2659       	843.25006      	843.1123       	843.61646      	843.29425      	843.1966       	843.48535      	843.2991       	843.627        	843.3609       	843.19104      	843.4941       	843.24585      	844.06683      	843.2645       	843.72046      	843.5459       	844.6882       	844.8513       	844.83295      	843.33954      	843.8197       	843.236        	844.37177      	843.13324      	846.2317       	843.0812       	843.8217       	843.1344       	844.2673       	844.291        	844.2992       	844.532        	844.0891       	844.3577       	844.20105      	844.14197      	844.3707       	845.13293      	843.2875       	844.3346       	844.21674      	844.3548       	844.43976      	844.25433      	844.4428       	844.3022       	844.2963       	844.4257       	844.28375      	844.1981       	844.1865       	844.07623      	844.2291       	844.1096       	844.235        	844.1609       	844.37067      	844.1698       	844.37213      	844.35425      	844.3002       	844.28394      	844.168        	844.1468       	844.1879       	844.3048       	843.6398       	843.46735      	844.2448       	843.1327       	
842.765        	843.19885      	843.0227       	842.8382       	842.7953       	842.78064      	842.814        	842.9555       	842.8226       	842.84894      	843.52484      	842.9082       	842.88324      	843.2734       	842.90845      	843.2841       	843.95044      	843.93915      	844.0512       	844.2382       	844.1469       	843.9807       	843.78613      	843.0543       	843.42664      	843.3105       	843.1289       	843.59436      	843.3471       	843.2194       	843.7237       	843.3966       	843.30347      	843.5681       	843.4374       	843.364        	843.57336      	843.39386      	843.33203      	843.5774       	843.4066       	843.8551       	843.4197       	843.85504      	843.4823       	844.0935       	843.5127       	843.5471       	844.40656      	844.76685      	844.5022       	844.8255       	843.2731       	844.59283      	844.78485      	843.6732       	843.17487      	844.2648       	844.4947       	844.2898       	844.2524       	844.4391       	843.87006      	843.40106      	844.39606      	844.44995      	844.3399       	844.2656       	843.03876      	844.61566      	844.42065      	844.33527      	844.5504       	844.3109       	844.41187      	844.3717       	844.5055       	844.4979       	844.3803       	844.30396      	844.20044      	844.22         	844.4973       	844.4477       	844.44293      	844.44403      	844.5042       	844.31665      	844.518        	844.4238       	844.3831       	844.2958       	844.29724      	844.1516       	844.54565      	844.22076      	844.0728       	844.4019       	844.0933       	844.1927       	
842.713        	842.78625      	843.1501       	842.9478       	842.88464      	842.8082       	842.75446      	843.4817       	842.91895      	842.8652       	842.8428       	843.248        	842.8883       	842.8933       	843.8555       	842.92926      	843.4692       	843.02185      	843.7019       	844.1026       	844.41235      	844.2373       	844.27985      	843.11774      	843.2481       	843.294        	843.1201       	843.30963      	843.28217      	843.1908       	844.57196      	843.3304       	843.27826      	843.63446      	843.36194      	843.32544      	844.12134      	843.3803       	843.6773       	843.31226      	843.3507       	843.89874      	843.3871       	843.71454      	843.3186       	843.81287      	843.2594       	843.8311       	843.31683      	844.7892       	844.8692       	844.58655      	844.489        	844.6122       	843.5311       	843.18066      	842.8635       	842.9887       	844.3969       	844.2556       	844.4164       	843.93524      	843.7611       	843.8835       	844.1788       	844.23047      	844.17773      	844.25354      	844.22363      	844.2259       	844.0095       	844.4647       	844.10834      	844.32806      	844.40894      	844.2981       	844.2654       	844.41473      	844.18835      	844.0817       	844.254        	844.0631       	844.11414      	844.41656      	844.17346      	844.28723      	844.10425      	844.297        	844.2532       	844.0548       	844.2083       	844.1108       	844.0753       	843.9179       	844.1482       	844.18805      	843.983        	843.7174       	843.9685       	844.07916      	
841.8069       	842.266        	842.2272       	842.1091       	842.0013       	841.9277       	841.8878       	843.48267      	842.17426      	842.0397       	841.94727      	842.4441       	842.1029       	842.04535      	842.5826       	842.18915      	842.0905       	842.6107       	842.1973       	842.1042       	842.663        	842.2783       	842.13763      	843.08997      	842.33856      	842.2178       	842.76465      	842.4325       	842.26337      	842.71387      	842.4779       	842.4013       	842.6747       	842.46277      	842.44763      	843.7005       	842.5126       	842.7709       	842.39197      	842.4366       	842.4553       	842.42505      	843.012        	842.3558       	842.733        	842.32806      	842.8769       	842.2731       	843.4845       	843.79266      	843.42145      	843.2363       	843.4654       	843.5253       	843.60297      	843.6091       	843.3814       	842.6394       	842.0072       	842.6364       	843.0649       	843.253        	843.23206      	843.13745      	843.2667       	843.09607      	843.3245       	843.32214      	843.14655      	843.32263      	843.3261       	843.25         	843.49243      	843.1389       	843.21387      	843.1761       	843.405        	843.25037      	843.2908       	843.13025      	843.22144      	843.31665      	843.2882       	843.2187       	843.2806       	843.16595      	843.3983       	843.2623       	843.2958       	843.2692       	843.2551       	843.27997      	843.2014       	843.2182       	843.2308       	843.3375       	843.15765      	842.7934       	843.21356      	843.0484       	
841.4293       	842.2197       	842            	841.85095      	841.70807      	841.6057       	841.5286       	842.0309       	841.8753       	841.7582       	841.66003      	842.15735      	841.92975      	841.81024      	841.7296       	842.22363      	841.9278       	841.8357       	842.17114      	841.9813       	841.88385      	842.17834      	842.0414       	841.9417       	842.1389       	842.096        	842.0022       	842.28656      	842.0598       	842.0905       	842.47906      	842.02045      	842.09143      	842.6539       	841.95905      	842.0613       	842.8151       	841.95306      	842.04675      	842.48645      	841.98755      	842.398        	841.89343      	842.0348       	842.0084       	841.9513       	842.8669       	841.9361       	843.3224       	842.0014       	843.60657      	843.4908       	843.0204       	843.0612       	843.32574      	842.1903       	842.0826       	842.5987       	842.5341       	842.9146       	843.00305      	842.9877       	842.75745      	842.856        	842.96783      	842.9521       	843.1703       	842.95123      	842.86523      	842.96185      	843.03754      	843.02344      	842.9446       	843.1482       	843.1405       	842.981        	843.10876      	842.97406      	843.0508       	842.92633      	842.933        	843.1519       	843.128        	843.0382       	843.1041       	843.1558       	843.231        	843.0702       	843.0566       	843.2094       	843.1073       	843.1944       	843.0575       	843.0723       	843.2094       	843.1365       	843.00867      	842.93195      	842.5286       	842.372        	
842.0727       	841.9109       	841.81274      	841.7207       	841.6395       	841.9639       	842.02386      	841.92004      	841.7864       	841.7198       	842.1104       	842.01086      	841.93005      	841.9769       	842.1982       	842.0795       	842.0238       	842.47894      	842.1991       	842.1878       	842.0811       	842.34143      	842.2449       	842.1698       	842.4143       	842.2631       	842.23535      	842.6413       	842.2416       	842.3131       	842.7986       	842.1972       	842.26263      	842.7561       	842.0928       	842.2638       	842.75433      	842.06274      	842.208        	842.31616      	842.14954      	842.691        	842.039        	842.4779       	842.0228       	842.80493      	841.99445      	842.3801       	841.91864      	842.80994      	843.4408       	843.2355       	843.27405      	843.369        	842.17786      	842.06903      	842.8086       	842.9392       	843.1212       	843.1236       	842.81226      	843.26434      	843.02765      	843.0878       	843.0717       	843.10864      	843.13403      	842.9469       	843.15424      	843.33624      	842.9649       	843.168        	843.06836      	843.17737      	843.36334      	843.0726       	843.3487       	843.1338       	843.1887       	843.22076      	843.1602       	843.2548       	843.31586      	843.0224       	843.1607       	843.2232       	843.2935       	843.20416      	843.2161       	843.32745      	843.1685       	843.2872       	843.1293       	843.5293       	843.06616      	842.7999       	842.906        	842.29456      	842.6262       	843.0987       	
841.9395       	841.788        	841.72595      	841.61707      	841.53674      	842.8854       	841.9414       	841.8197       	841.7243       	841.70306      	841.98016      	841.9022       	841.8352       	841.7556       	842.04004      	841.9731       	841.90344      	841.97327      	841.9772       	841.99664      	841.9796       	842.3901       	842.0205       	842.0442       	841.983        	842.05444      	842.0447       	842.31696      	841.98773      	842.0537       	842.80554      	841.8819       	842.04425      	842.6251       	841.6461       	841.8095       	842.1536       	841.7222       	841.8637       	842.3187       	841.70514      	841.91364      	841.7604       	841.76404      	845.21906      	841.7765       	842.292        	841.71136      	842.9348       	843.1573       	843.1931       	843.097        	842.9756       	842.97095      	843.0879       	842.9469       	842.6371       	842.7511       	842.82446      	842.7132       	842.85535      	842.686        	842.9682       	842.7982       	842.82825      	842.8841       	842.8469       	842.83746      	842.9423       	842.97845      	843.0634       	842.94885      	843.10455      	843.08594      	842.94403      	842.9616       	842.8778       	843.0533       	843.0694       	842.99054      	842.92444      	843.029        	843.0192       	843.0665       	842.86414      	843.0437       	842.96295      	843.08307      	843.192        	843.0981       	843.24414      	844.08624      	841.78284      	843.0476       	842.9944       	842.96155      	843.0175       	842.97687      	843.07355      	843.1363       	
841.7548       	841.6144       	841.5515       	841.9223       	841.94336      	841.8944       	841.8102       	841.67615      	841.6134       	842.0152       	841.91656      	841.8596       	841.7706       	842.4872       	841.97546      	841.97614      	841.90906      	843.2536       	841.9277       	842.0297       	842.01135      	842.6967       	841.987        	842.0841       	842.1292       	841.9814       	842.0723       	842.1192       	842.0281       	842.02545      	842.1084       	841.80457      	841.75885      	841.96704      	842.8245       	841.63586      	841.8329       	842.3788       	841.6412       	841.87634      	841.974        	841.6983       	842.2361       	841.6391       	842.2223       	841.6762       	842.0589       	841.69556      	842.8441       	843.1041       	842.86786      	842.7185       	843.03864      	843.06177      	842.9785       	842.84314      	842.8185       	842.9103       	842.57574      	842.41437      	842.7418       	842.80273      	842.87866      	842.92004      	842.88385      	842.90106      	842.9862       	842.99475      	843.037        	843.06177      	843.0597       	843.0779       	843.1887       	843.0932       	843.16046      	843.11847      	843.0138       	843.1582       	842.9945       	843.08856      	842.9143       	843.3272       	843.0685       	843.12604      	843.13965      	842.9189       	843.00934      	843.0079       	843.1114       	843.2488       	842.9889       	842.8931       	843.0739       	843.3521       	843.2901       	843.1742       	843.2727       	843.1609       	843.323        	843.3014       	
842.08356      	841.93524      	842.60065      	842.4906       	842.3562       	842.3014       	842.189        	842.0807       	842.35223      	842.2865       	842.2937       	842.1738       	842.09766      	842.214        	842.29016      	842.2874       	842.2581       	842.3038       	842.23914      	842.33325      	842.35785      	847.8037       	842.2401       	842.3851       	842.4184       	842.2489       	842.2633       	842.4464       	842.7917       	842.1429       	842.3301       	842.972        	841.9841       	842.12787      	842.34106      	842.12036      	842.03723      	842.4492       	841.99066      	842.06067      	842.8724       	841.9958       	842.7309       	841.91296      	842.05865      	842.0727       	842.0435       	843.7551       	843.26276      	843.21985      	843.2943       	843.4187       	843.24866      	843.23267      	843.2477       	841.7935       	843.1797       	841.82587      	842.7164       	843.0902       	843.398        	843.12506      	843.20966      	843.23737      	843.4732       	843.30426      	843.2768       	843.32776      	843.4509       	843.4449       	843.43695      	843.4941       	843.48785      	843.61096      	843.4569       	843.5105       	843.65594      	843.4612       	843.5367       	843.53876      	843.3722       	843.51355      	843.453        	843.3242       	843.2494       	843.5869       	843.2283       	843.4114       	843.3225       	843.4333       	843.60016      	843.56354      	843.3454       	843.5917       	843.5676       	843.57947      	843.5808       	843.6501       	843.4653       	843.5888       	
842.13043      	841.9987       	842.5604       	842.2944       	842.2175       	842.1846       	842.1384       	842.02386      	842.6972       	842.13055      	842.1433       	842.119        	842.0446       	842.0374       	842.09467      	842.21606      	842.2051       	847.4552       	842.0099       	842.13824      	842.20807      	842.5202       	841.9758       	842.13965      	842.21674      	843.0079       	842.02905      	842.17487      	842.89514      	841.95044      	842.1165       	842.74713      	841.705        	841.8888       	842.3658       	841.7347       	841.80237      	841.9726       	841.9628       	841.84796      	842.5849       	841.66864      	841.8678       	841.92957      	841.78577      	842.8906       	841.90424      	843.05554      	844.5258       	841.7174       	843.07825      	842.8141       	842.94006      	842.9132       	842.95984      	842.80475      	842.62134      	842.90436      	842.9498       	842.75433      	842.9437       	842.8998       	843.0381       	842.95386      	843.0453       	843.1246       	843.0957       	843.16534      	843.11426      	843.29285      	843.0742       	843.26685      	843.39514      	843.0308       	843.253        	843.3015       	843.3574       	843.20856      	843.25183      	843.2504       	843.1976       	843.3471       	843.2854       	843.3411       	843.1522       	843.2734       	843.1112       	843.113        	843.0332       	842.8596       	843.0455       	843.1817       	843.3763       	843.2724       	843.3453       	843.4568       	843.54224      	843.12067      	843.2546       	843.33527      	
842.3114       	842.2692       	842.1462       	842.0293       	842.7493       	842.24963      	842.2882       	842.252        	842.1456       	842.84973      	842.16754      	842.2382       	842.2269       	842.6361       	842.0406       	842.1918       	842.3012       	842.3126       	842.75653      	842.00006      	842.166        	842.35785      	842.71387      	842.0131       	842.2475       	842.3805       	842.0374       	842.08624      	842.2405       	842.65875      	841.83655      	842.0287       	842.22156      	841.78723      	841.7978       	841.981        	842.7333       	841.75543      	841.81433      	841.97754      	841.8572       	841.8187       	842.2383       	841.82684      	842.34955      	841.8809       	842.26794      	841.90204      	842.2471       	843.26556      	843.2484       	843.3125       	843.43176      	843.1809       	843.2755       	842.9812       	843.0628       	843.1981       	843.16174      	843.08685      	843.0586       	843.137        	843.17426      	843.21606      	843.1285       	843.4065       	843.34607      	843.1683       	843.47327      	843.3274       	843.43335      	843.4496       	843.33496      	843.4413       	843.47516      	843.61554      	843.52893      	843.44794      	843.33386      	843.7574       	843.56433      	843.5692       	843.47015      	843.3388       	843.5311       	843.2412       	843.64685      	843.5958       	843.3596       	843.46423      	843.5133       	843.41077      	843.5689       	843.48315      	843.55054      	843.80884      	843.52313      	843.6288       	843.5227       	843.43036      	
843.025        	843.0944       	843.08795      	843.046        	842.9687       	843.26746      	842.89746      	842.9848       	843.01263      	842.95215      	843.6812       	842.8411       	842.9687       	843.0401       	843.0649       	842.73285      	842.7808       	842.9538       	843.0883       	843.4752       	842.61926      	842.81683      	843.0186       	843.60675      	842.67786      	842.8651       	843.07355      	842.8538       	842.7348       	842.92053      	843.8313       	842.60614      	842.74744      	842.94586      	842.4961       	842.5416       	842.67633      	843.1451       	842.4593       	842.5097       	842.93097      	842.5702       	842.54126      	843.167        	842.54755      	842.63086      	843.2032       	842.99976      	843.9181       	842.57965      	843.6663       	843.9808       	843.8456       	843.9019       	843.50977      	843.48474      	843.72095      	843.5655       	842.51117      	843.67175      	843.7167       	843.92957      	843.77625      	843.9043       	844.0038       	843.9675       	843.9778       	844.0403       	844.06445      	844.0271       	844.019        	844.1433       	844.19116      	844.0562       	844.0624       	844.37665      	844.20154      	844.1471       	844.2097       	844.39124      	844.079        	844.1686       	844.1617       	844.0841       	844.01965      	844.1708       	844.1078       	844.13855      	844.1249       	844.15247      	844.14996      	844.157        	844.2306       	844.2055       	844.27985      	844.1618       	844.2399       	845.55566      	842.9351       	843.5816       	
843.76715      	842.82074      	842.81976      	842.8483       	842.8903       	842.8888       	842.8411       	843.988        	842.76733      	842.8626       	842.87463      	842.83606      	842.5837       	842.64154      	842.8392       	842.8433       	843.569        	842.4365       	842.60187      	842.7294       	843.2654       	842.2559       	842.3167       	842.46295      	842.7187       	843.31616      	842.2428       	842.3868       	842.6243       	842.3607       	842.2696       	842.41907      	843.0944       	842.122        	842.19104      	842.3619       	842.64136      	842.0836       	842.123        	842.77026      	842.1402       	842.08795      	842.1676       	846.5979       	842.2419       	842.2696       	842.3619       	842.1658       	843.4229       	842.23895      	843.7226       	843.46844      	843.51306      	843.33044      	843.2058       	843.3417       	843.25555      	842.1175       	843.00726      	843.4023       	843.3236       	843.49866      	843.448        	843.36646      	843.53235      	843.6315       	843.6148       	843.6567       	843.57654      	843.57117      	843.6734       	843.81976      	843.6524       	843.4894       	843.6988       	843.8994       	843.8118       	843.5798       	843.7496       	843.52936      	843.7672       	843.7113       	843.6813       	843.53485      	843.58746      	843.6972       	843.61816      	843.80634      	843.7162       	843.699        	843.76886      	843.7408       	843.7985       	843.7461       	843.9667       	843.9626       	842.9565       	842.6023       	843.40375      	843.5447       	
845.0435       	842.4239       	842.49036      	842.5699       	842.64935      	842.66754      	842.6448       	842.59344      	842.5634       	842.60583      	842.66284      	843.12836      	842.31824      	842.44824      	842.6215       	842.6862       	842.636        	842.1829       	842.3915       	842.5438       	843.0075       	842.15686      	842.1886       	842.3591       	842.6015       	842.19617      	842.1897       	842.2803       	843.3308       	842.15485      	842.1944       	842.3141       	842.82574      	842.10706      	842.1772       	842.29517      	842.16046      	842.08215      	842.1702       	842.6133       	842.181        	842.1332       	842.1777       	842.689        	842.1243       	842.7318       	842.2989       	842.63855      	842.239        	844.4955       	842.2286       	843.46814      	843.3518       	842.2005       	842.49207      	842.2397       	842.4464       	842.238        	842.5953       	842.2221       	842.67773      	842.2448       	842.72626      	842.4147       	843.61237      	843.6536       	843.64526      	843.7436       	843.7107       	843.6687       	843.6819       	843.85706      	843.873        	843.7028       	843.86316      	843.72723      	843.9042       	843.769        	843.75946      	843.974        	843.9659       	843.8427       	843.7796       	843.72656      	844.0533       	843.9773       	843.99744      	844.0384       	844.0522       	844.0538       	843.91693      	843.9765       	844.15515      	843.9968       	844.1669       	842.7715       	843.9858       	844.16693      	844.04395      	843.90027      	
843.50305      	843.6271       	843.62506      	844.0263       	843.38666      	843.4271       	843.5602       	843.6378       	843.6184       	843.543        	843.34576      	843.4651       	843.6388       	844.2147       	843.14874      	843.2653       	843.4353       	843.5895       	843.6348       	843.08203      	843.262        	843.43695      	844.08496      	843.0918       	843.097        	843.2125       	843.41296      	843.24603      	843.1108       	843.15204      	843.34595      	843.1309       	843.1309       	843.2079       	843.7099       	843.0768       	843.0673       	843.14246      	843.27075      	843.1145       	843.13574      	843.3798       	843.21747      	843.1927       	843.565        	843.2123       	843.55145      	843.24615      	843.7087       	843.39484      	843.7373       	843.26605      	843.6122       	844.54236      	843.2538       	843.49896      	843.24066      	844.0138       	843.29504      	843.16833      	843.4402       	843.23535      	844.7584       	844.51         	844.5238       	844.5774       	844.7811       	844.80865      	844.6702       	844.52234      	844.6767       	844.8729       	844.76825      	844.76135      	844.66724      	844.77966      	844.61237      	844.6355       	844.7396       	844.81744      	844.9223       	844.5638       	844.7276       	844.7833       	844.86383      	844.82904      	844.8431       	844.8196       	844.9342       	844.9443       	844.98346      	844.9916       	845.0242       	845.06335      	844.9237       	843.9057       	843.9004       	845.27356      	845.0445       	844.9747       	
843.63153      	843.8103       	843.90424      	843.92017      	843.9037       	843.5263       	843.5798       	843.74066      	843.8691       	843.8968       	843.46643      	843.57495      	843.67584      	843.8548       	844.60046      	843.3585       	843.45123      	843.66895      	843.8038       	843.75586      	843.3746       	843.44556      	843.61035      	844.42633      	843.3417       	843.34485      	843.3898       	843.5533       	843.41284      	843.30927      	843.39685      	844.12964      	843.34143      	843.29065      	843.4103       	844.9053       	843.3944       	843.3669       	843.375        	843.6332       	843.43646      	843.3656       	843.6318       	843.5075       	843.43353      	844.02844      	843.50964      	843.7319       	844.2133       	844.49976      	844.5525       	843.4664       	844.14197      	844.49927      	843.38446      	844.8971       	843.3757       	843.599        	843.3734       	843.8226       	843.39294      	844.6391       	843.4684       	844.797        	844.7484       	844.8053       	844.6738       	844.77344      	844.8595       	844.7354       	844.8438       	844.86694      	845.0732       	844.793        	845.082        	844.8856       	844.9739       	844.7543       	844.8549       	844.8892       	844.96606      	844.8585       	844.814        	844.8769       	844.77185      	844.88         	844.86206      	844.8842       	844.86707      	844.96783      	844.963        	844.9603       	845.0712       	845.0393       	845.0399       	843.6498       	844.1183       	843.6504       	844.18915      	843.6273       	
844.2618       	842.99524      	842.8964       	843.0012       	843.1173       	843.2169       	843.2614       	843.5253       	842.8106       	842.9697       	843.14496      	843.23364      	842.84094      	842.78815      	842.90533      	843.0276       	843.79         	842.6298       	842.69995      	842.8132       	843.02924      	842.8223       	842.5974       	842.6361       	842.7809       	843.3523       	842.6049       	842.57227      	842.6095       	843.1797       	842.6048       	842.55176      	842.59564      	843.27594      	842.5859       	842.5383       	842.583        	842.97437      	842.6882       	842.5932       	843.0944       	842.7943       	842.7177       	842.6529       	843.1112       	842.70355      	842.99664      	842.7515       	842.95703      	842.78735      	845.619        	842.7213       	843.08984      	842.7755       	843.0481       	842.7346       	843.1442       	843.3093       	842.8697       	843.25684      	842.9639       	843.2794       	843.8026       	844.0778       	844.1151       	844.19586      	844.1116       	844.1098       	844.13904      	843.98145      	844.12103      	844.0997       	844.24255      	844.1178       	844.16046      	844.15436      	844.21094      	844.1797       	844.2948       	844.22626      	844.29956      	844.27625      	844.1972       	844.09503      	844.4629       	844.2647       	844.377        	844.31635      	844.19916      	844.3698       	844.5307       	844.34204      	844.6021       	844.5251       	843.10614      	843.75085      	843.1731       	843.5906       	843.1469       	843.2276       	
843.69604      	843.82263      	843.9312       	844.0551       	844.16595      	844.2483       	843.8534       	843.8277       	843.99603      	844.1896       	844.37024      	843.79095      	843.86664      	844.05505      	844.1524       	844.64105      	843.7885       	843.8746       	844.0439       	844.2455       	843.97363      	843.8536       	843.915        	844.087        	845.0992       	843.9735       	843.9698       	844.03546      	844.42084      	844.0963       	844.0187       	844.0039       	844.7187       	844.1498       	844.0675       	844.0444       	844.501        	844.2363       	844.12506      	844.405        	844.47815      	844.3767       	844.2989       	844.8318       	844.4094       	844.3031       	844.92664      	844.413        	844.8824       	844.4423       	845.4271       	845.8554       	844.5344       	844.9739       	844.62756      	844.8541       	844.58014      	845.0649       	844.5857       	847.4742       	844.6456       	844.9076       	844.672        	845.8906       	845.92017      	845.8034       	845.90497      	845.9951       	846.01074      	846.04535      	845.7803       	845.9447       	846.02844      	846.00525      	846.17084      	846.1055       	846.02795      	846.2636       	846.1318       	846.0577       	845.9687       	846.1487       	845.91736      	846.1627       	846.2008       	846.2643       	846.1992       	846.0374       	846.2083       	846.2602       	846.3824       	846.4298       	846.4399       	846.5818       	846.4522       	846.4577       	845.057        	845.2519       	845.277        	845.16174      	
845.4202       	845.627        	845.7174       	846.07086      	845.32556      	845.22         	845.34143      	845.475        	845.66016      	845.34595      	845.1695       	845.3131       	845.473        	845.67413      	845.22546      	845.2392       	845.31287      	845.4647       	846.2962       	845.3001       	845.29         	845.3487       	845.4886       	845.50397      	845.3508       	845.3737       	845.4145       	846.2302       	845.4479       	845.3653       	845.40594      	846.1247       	845.54144      	845.4794       	845.4169       	846.2473       	845.6477       	845.514        	845.84375      	845.9159       	845.74475      	845.6436       	845.93256      	845.80756      	845.7471       	845.99225      	845.80023      	846.6879       	846.6648       	846.59503      	846.99457      	847.1124       	846.98267      	847.0527       	846.87305      	845.9537       	846.9659       	845.99774      	847.5534       	845.9506       	846.90375      	846.0531       	847.0317       	847.1991       	847.2949       	847.24316      	847.4804       	847.381        	847.12335      	847.21277      	847.2471       	847.3813       	847.5107       	847.4186       	847.4925       	847.40594      	847.5243       	847.3808       	847.5597       	847.4407       	847.53766      	847.4078       	847.35974      	847.5841       	847.557        	847.4766       	847.45386      	847.33136      	847.41144      	847.662        	847.66364      	847.7018       	847.80035      	847.9284       	847.9823       	846.8741       	846.4326       	847.17035      	846.4221       	846.50085      	
845.9788       	846.08105      	846.1483       	846.274        	846.3651       	847.0319       	845.93317      	845.9521       	846.093        	846.22614      	846.77136      	845.8163       	845.888        	845.99384      	846.1554       	845.93365      	845.7808       	845.8271       	845.9551       	851.1254       	845.8007       	845.7617       	845.7763       	846.1311       	845.8225       	845.7306       	845.69037      	845.72656      	845.98706      	845.7272       	845.58636      	845.58167      	846.1913       	845.75745      	845.55023      	845.5006       	845.9317       	845.7151       	845.60156      	846.0489       	845.9428       	845.7764       	845.64075      	847.081        	845.7235       	845.67944      	845.85095      	845.64996      	846.106        	845.685        	846.288        	845.7398       	846.1327       	845.7038       	846.03394      	845.63403      	846.01245      	845.6703       	845.9957       	845.6406       	845.99         	845.6117       	846.226        	846.8224       	846.75024      	846.66016      	846.67584      	846.76227      	846.43726      	846.7008       	846.73267      	846.5165       	846.6914       	846.8457       	846.38         	846.68646      	846.527        	846.54144      	846.58746      	846.57074      	846.34216      	846.47253      	846.5987       	846.2243       	846.53577      	846.3111       	846.5226       	846.2496       	846.2496       	846.4823       	846.5984       	846.45953      	846.6105       	846.6612       	846.8605       	845.10846      	845.1388       	845.7419       	845.0948       	845.4388       	
843.32825      	843.4615       	843.55634      	843.6352       	844.13275      	843.1016       	843.1479       	843.30597      	843.4825       	843.35944      	843.071        	843.12915      	843.2524       	843.70795      	843.0365       	843.0533       	843.1454       	843.3597       	843.02905      	842.94824      	842.9418       	843.0434       	843.44684      	842.9866       	842.9365       	842.92957      	843.6993       	843.0297       	842.96234      	842.8776       	843.3187       	843.0585       	842.9001       	842.8186       	843.23206      	843.1348       	842.96783      	842.8047       	844.9746       	843.1256       	843.0653       	842.87476      	843.49664      	843.0687       	842.9245       	844.70874      	843.0439       	842.9158       	843.3119       	842.97974      	843.20123      	842.9574       	843.4815       	844.02026      	844.33606      	843.61597      	842.8505       	844.4223       	842.86         	843.3263       	842.8393       	843.26965      	842.82043      	843.37946      	843.9743       	843.7758       	843.90326      	843.9327       	843.8927       	843.82153      	843.8401       	843.81116      	843.64246      	843.9967       	843.79         	843.94244      	843.894        	843.6823       	843.74207      	843.66986      	843.6329       	843.5222       	843.53674      	843.4916       	843.6306       	843.8878       	843.6191       	843.5947       	843.5928       	843.8181       	843.9495       	843.8259       	843.932        	844.0735       	842.9304       	842.5831       	842.9039       	842.48047      	843.0823       	842.4947       	
844.5063       	841.6459       	841.6061       	841.69055      	841.81964      	841.9755       	842.2733       	841.5831       	841.68176      	841.78845      	842.22406      	841.58344      	841.6129       	841.72076      	842.57227      	841.5758       	841.69586      	841.7086       	842.1644       	841.7478       	841.7011       	841.64984      	842.12213      	841.83594      	841.7192       	841.7065       	841.6651       	842.0618       	841.8395       	841.76013      	841.6561       	842.31604      	842.01733      	841.8803       	841.7605       	842.5647       	842.0688       	841.94336      	841.81903      	842.3978       	842.0929       	842.00226      	842.6114       	842.1666       	842.04596      	842.6278       	842.1558       	842.098        	842.5117       	842.2058       	842.69476      	842.24066      	842.0919       	842.494        	842.1913       	842.5979       	842.3355       	842.8019       	842.3128       	842.7509       	842.40564      	842.204        	843.5897       	842.1536       	843.2645       	843.33844      	843.281        	843.4164       	843.3789       	843.363        	843.4681       	843.3687       	843.4237       	843.2476       	843.44916      	842.96185      	843.29645      	843.3212       	843.18695      	843.1902       	843.3412       	843.35065      	843.40234      	843.43713      	843.22003      	843.2615       	843.19977      	843.23566      	843.35223      	843.63324      	843.6956       	843.72784      	843.82745      	842.2354       	842.7045       	842.3069       	842.3853       	842.3651       	842.47003      	843.5325       	
843.5292       	842.1146       	842.161        	842.23047      	842.3474       	842.4831       	842.24554      	842.1585       	842.2005       	842.3366       	842.71027      	842.17346      	842.2028       	842.34644      	842.9106       	842.2155       	842.2234       	842.304        	842.73706      	842.3273       	842.275        	842.23645      	842.66956      	842.41296      	842.36664      	842.2894       	842.8802       	842.55383      	842.4502       	842.31354      	842.5644       	842.6796       	842.61566      	842.45325      	842.4336       	842.8694       	842.69446      	842.5468       	842.4767       	842.7688       	842.6855       	842.5726       	843.80023      	842.7349       	842.64325      	843.2123       	842.7896       	843.1935       	842.954        	842.7946       	843.31775      	842.7494       	843.1544       	842.8188       	842.9158       	842.8446       	842.97107      	842.8889       	842.6832       	843.04614      	842.70746      	843.17896      	842.74677      	843.12134      	843.37976      	842.676        	843.8405       	843.6822       	843.86597      	843.8923       	843.4804       	843.7171       	843.8738       	843.93286      	845.6914       	842.5681       	843.06323      	842.5101       	842.5397       	842.59485      	842.4841       	843.3011       	842.9973       	842.52734      	843.6569       	842.66315      	843.9106       	844.07623      	843.9046       	843.88635      	843.91986      	844.24585      	844.2009       	844.0958       	843.16003      	842.76764      	844.23413      	842.82825      	843.6444       	842.8307       	
843.25824      	843.3401       	843.43427      	843.5565       	844.4479       	843.34045      	843.3124       	843.37836      	843.55145      	843.4903       	843.39874      	843.4557       	843.57056      	843.54333      	843.4186       	843.4772       	843.80316      	843.5935       	843.48236      	843.47296      	843.8101       	843.682        	843.6235       	843.57446      	843.625        	843.88824      	843.77484      	843.70416      	843.6218       	844.2843       	843.9681       	843.8645       	843.7553       	844.07654      	844.10486      	844.0218       	843.9485       	844.36664      	844.1544       	844.0897       	844.0346       	844.4939       	844.2363       	844.17377      	844.06323      	844.4685       	844.2278       	844.15234      	844.3648       	844.27374      	844.8358       	844.3086       	844.2383       	844.45105      	844.27594      	844.721        	844.28516      	844.5664       	844.2943       	844.82983      	844.38184      	844.48145      	845.43616      	845.40686      	845.34467      	845.5478       	845.4336       	845.5598       	845.5283       	845.37915      	845.4511       	845.5605       	845.49426      	845.0703       	844.2569       	844.13116      	844.7708       	844.17004      	844.2029       	844.4014       	844.1472       	844.26843      	844.17957      	844.1437       	844.5928       	844.18524      	844.8372       	844.2338       	844.6975       	845.7239       	845.91345      	845.777        	845.85736      	845.7306       	844.3903       	845.0258       	844.44183      	845.0372       	844.4106       	844.52246      	
844.9668       	844.6049       	844.66473      	844.74225      	844.9496       	844.6803       	844.661        	844.6878       	845.40234      	844.7118       	844.70734      	844.80066      	845.251        	844.7147       	844.71204      	844.81647      	845.2729       	844.7733       	844.7584       	844.818        	844.99646      	844.8352       	844.78796      	844.75226      	845.0668       	844.92804      	844.84955      	844.86316      	845.1406       	845.0713       	844.9411       	844.8569       	845.3454       	845.20953      	845.10046      	844.9822       	846.5556       	845.1692       	845.1256       	845.0731       	845.64056      	845.1839       	845.1791       	845.12915      	845.3839       	845.21155      	845.15027      	845.7256       	845.2617       	845.86145      	845.251        	845.1872       	845.6976       	845.22003      	845.59515      	845.2243       	845.192        	845.3554       	845.1849       	845.5596       	845.13275      	845.1274       	845.25134      	845.0739       	846.1161       	845.07416      	845.5027       	846.18976      	846.2562       	846.2747       	846.2002       	844.9733       	844.92194      	846.3603       	844.8895       	844.85065      	844.8965       	844.82117      	845.2523       	844.7472       	844.7464       	845.2286       	844.753        	844.7533       	845.16864      	844.71185      	845.4633       	844.8712       	844.8645       	846.0231       	846.39777      	846.3622       	846.4877       	846.3507       	846.351        	844.9499       	845.0157       	845.108        	845.00433      	845.28217      	
845.1406       	844.23083      	844.1549       	844.18066      	844.2673       	844.4589       	844.14154      	844.18805      	844.74945      	844.11707      	844.15625      	844.219        	844.3092       	844.1607       	844.1903       	845.031        	844.26263      	844.2591       	844.2307       	844.8831       	844.27826      	844.21136      	844.28754      	844.4108       	844.3313       	844.2472       	844.9997       	844.48785      	844.39136      	844.2978       	844.2181       	844.5697       	844.4981       	844.4525       	844.3442       	844.71         	844.49023      	844.44995      	844.37897      	844.53577      	844.4818       	844.482        	844.70715      	844.49896      	844.53064      	844.47205      	844.9258       	844.5618       	844.5264       	844.76117      	844.5202       	844.5312       	844.56067      	844.4848       	844.7081       	844.5382       	844.44165      	844.69653      	844.40924      	844.36743      	844.5003       	844.3679       	844.953        	844.332        	844.5888       	844.46625      	844.26825      	845.1624       	845.611        	845.32996      	844.2611       	844.166        	844.5891       	844.1207       	844.0779       	844.5452       	844.0235       	843.995        	844.72766      	844.0219       	843.97797      	844.4052       	843.9314       	843.9199       	844.5374       	843.93304      	843.9173       	844.4403       	843.98706      	844.0117       	845.0092       	845.1824       	845.4788       	845.63855      	844.0628       	844.5424       	844.0143       	844.38763      	844.04297      	844.03455      	
844.3663       	843.62634      	843.54987      	843.57104      	844.1791       	843.5936       	843.53235      	844.01495      	843.5155       	843.54407      	844.3383       	843.5911       	843.5397       	844.18207      	843.6501       	843.58234      	843.6261       	844.0003       	843.65027      	843.63025      	844.2992       	843.7636       	843.69183      	843.6731       	844.2566       	843.8578       	843.8248       	843.7633       	844.00824      	843.9157       	843.93036      	843.89294      	843.78033      	844.1459       	843.84546      	843.9197       	843.9118       	844.42633      	843.864        	843.93427      	843.92834      	844.43286      	843.9003       	843.9906       	843.9747       	844.05084      	843.9558       	844.0254       	845.50836      	844.0178       	844.01306      	844.51086      	843.939        	843.98157      	844.41595      	843.8806       	843.9336       	844.58844      	843.8248       	843.8619       	844.34973      	843.877        	844.42395      	843.7839       	844.14453      	845.5107       	843.7709       	844.21423      	844.0231       	843.7048       	844.3433       	843.72473      	843.70337      	843.7136       	843.77026      	843.62177      	843.594        	844.0956       	843.5776       	843.60223      	844.36206      	843.5302       	843.51324      	844.1913       	843.5703       	843.52747      	843.5257       	843.92004      	843.5797       	843.6807       	844.1627       	843.6427       	843.77356      	843.84735      	843.7089       	844.0865       	843.6621       	844.338        	843.75195      	843.7804       	
844.0156       	843.39136      	843.2188       	843.26654      	843.8472       	843.2813       	843.28265      	843.97534      	843.293        	843.7991       	843.3593       	843.32965      	843.8968       	843.37885      	843.35614      	843.98016      	843.4653       	843.4122       	843.4934       	843.59674      	843.46686      	843.4645       	843.7969       	843.5569       	843.5602       	843.5608       	844.07916      	843.6669       	843.6658       	843.64813      	843.55707      	844.37726      	843.61456      	843.70355      	843.7065       	844.1647       	843.56085      	843.6442       	843.7263       	844.5241       	843.6093       	843.7363       	843.8427       	844.3544       	843.6656       	843.77386      	843.86127      	844.0899       	843.8206       	843.82574      	844.3974       	843.7214       	843.8044       	844.333        	843.6884       	843.77704      	844.2702       	843.7035       	843.69244      	844.6744       	843.6825       	843.6988       	843.8723       	843.6647       	844.0525       	843.6271       	843.63464      	844.09625      	843.57227      	843.6005       	843.90234      	843.5045       	843.5175       	844.3063       	843.515        	843.4932       	843.50226      	843.63416      	843.46246      	843.4353       	844.21356      	843.4016       	843.39813      	843.8474       	843.4247       	843.3678       	843.4371       	843.7753       	843.41406      	843.45825      	844.1643       	843.4802       	843.53375      	844.2204       	843.49945      	843.6419       	843.9182       	843.57434      	843.9753       	843.58624      	
843.933        	844.5494       	843.8967       	843.90906      	844.2118       	843.9626       	844.17914      	844.02747      	843.96185      	844.4689       	843.96643      	844.4397       	844.0829       	844.08386      	844.2418       	844.1462       	844.1266       	844.3233       	844.22174      	844.1684       	844.7135       	844.2952       	844.29785      	844.25476      	844.8552       	844.3645       	844.42487      	844.422        	844.9463       	844.37036      	844.4472       	844.50354      	844.46216      	844.4799       	844.3951       	844.53644      	844.6159       	845.226        	844.34656      	844.5299       	844.63684      	844.9933       	844.4016       	844.559        	844.6804       	845.25397      	844.46606      	844.6695       	844.744        	844.6117       	844.5989       	844.7027       	845.1214       	844.5685       	844.6685       	845.0851       	844.55664      	844.6549       	844.81793      	844.5611       	844.63605      	844.76013      	844.5685       	844.65344      	844.5784       	844.60925      	844.886        	844.5499       	844.56934      	844.58264      	844.8069       	844.5085       	844.5437       	845.16113      	844.517        	844.4857       	844.4919       	844.7268       	844.4692       	844.46686      	845.0791       	844.4858       	844.4236       	844.4185       	845.1936       	844.41516      	844.43207      	844.4718       	844.73737      	844.45465      	844.48694      	844.60675      	844.57513      	844.5078       	844.656        	844.73474      	844.5297       	844.65015      	844.56573      	844.5625       	
844.9489       	844.5117       	844.4032       	844.82574      	844.5395       	844.4216       	845.36005      	844.4926       	844.75195      	844.5131       	844.7944       	844.5049       	845.9718       	844.6134       	844.5976       	845.0155       	844.6631       	844.6338       	845.31177      	844.7307       	844.70105      	845.1026       	844.7527       	844.77124      	844.791        	845.3946       	844.75165      	844.8351       	844.8676       	845.4516       	844.6748       	844.8048       	844.9091       	844.8891       	844.74194      	844.727        	844.85547      	844.94666      	845.54205      	844.6214       	844.7838       	844.9501       	845.28284      	844.7227       	844.88727      	845.0293       	845.08075      	844.791        	844.95953      	845.77374      	844.7659       	844.8671       	845.63446      	844.7401       	844.8409       	845.4056       	844.71155      	844.83527      	845.3658       	844.6819       	844.8357       	845.3775       	844.68915      	844.77637      	844.8561       	844.9941       	844.78546      	844.8314       	845.36395      	844.7031       	844.7971       	844.83167      	845.954        	844.727        	844.71484      	844.7284       	845.61365      	844.67566      	844.64905      	844.99225      	844.6654       	844.62115      	844.6338       	845.2201       	844.6946       	844.6633       	844.6306       	845.20636      	844.64154      	844.6461       	844.6924       	845.0567       	844.6279       	844.6054       	844.7591       	844.7701       	844.678        	844.7963       	845.787        	844.6744       	
845.79895      	845.86804      	845.9844       	846.11975      	845.9651       	845.933        	844.6956       	845.1048       	844.7197       	845.7376       	846.0433       	844.79047      	845.2806       	844.8173       	845.332        	844.956        	844.8594       	845.4876       	844.95044      	844.90625      	845.3482       	844.97943      	844.9853       	844.9522       	846.00854      	844.98303      	845.02313      	845.0398       	845.4456       	844.87836      	844.9737       	845.05334      	845.7457       	844.7868       	844.8887       	845.0375       	845.11804      	844.6871       	844.78033      	844.9706       	845.11975      	845.17944      	844.8403       	845.07227      	845.1928       	844.8811       	844.85187      	845.05804      	845.48346      	844.78937      	844.97644      	845.1347       	844.9447       	844.9648       	845.351        	844.8691       	844.9261       	845.7179       	844.818        	844.9004       	845.59204      	844.74         	844.8492       	844.91254      	844.9636       	844.79517      	844.8841       	845.20715      	844.69543      	844.7597       	844.8326       	845.2949       	844.684        	844.7145       	844.7543       	844.74927      	844.9348       	844.651        	844.6454       	844.6709       	844.8319       	844.57477      	844.57935      	844.5978       	844.6685       	844.5364       	844.5333       	844.61774      	844.65985      	844.5026       	844.5261       	844.6176       	844.92126      	844.52826      	844.6314       	845.22156      	844.5159       	844.5336       	844.6969       	845.69446      	
845.07806      	845.4053       	845.4886       	845.1048       	844.3931       	844.3495       	844.1443       	844.7829       	845.4846       	845.2487       	845.295        	845.50903      	844.302        	844.4206       	845.1759       	845.4137       	844.21106      	844.1953       	844.3054       	844.2699       	844.223        	844.44885      	844.2982       	844.33844      	844.3219       	844.2387       	844.2563       	844.321        	844.3955       	844.31866      	844.0436       	844.2051       	844.3593       	844.7624       	843.98645      	844.1405       	844.31165      	844.7396       	843.8018       	843.96356      	844.21063      	844.39856      	844.81836      	843.9206       	844.1699       	844.3803       	845.0283       	843.8979       	844.107        	844.3267       	844.15466      	843.932        	844.16895      	844.77386      	843.93176      	844.05566      	844.1659       	843.8951       	843.8909       	844.0082       	844.50757      	843.8525       	843.94946      	844.0802       	844.6195       	843.8596       	843.9379       	844.0758       	844.459        	843.82025      	843.95874      	844.07416      	844.38586      	843.8822       	843.92865      	843.97614      	843.9548       	844.15924      	843.91614      	843.93445      	843.92804      	844.6669       	843.95184      	843.87964      	843.9121       	844.3225       	843.9298       	843.91144      	843.9869       	844.57574      	844.0136       	844.0172       	844.074        	844.1673       	844.01605      	844.0941       	844.19214      	844.96326      	844.0704       	844.14154      	
845.25684      	845.3495       	845.56445      	845.42346      	845.2319       	845.1964       	845.5377       	845.102        	845.2884       	845.45105      	845.61566      	844.5569       	844.6386       	844.3336       	845.10645      	845.21783      	844.50464      	844.41077      	844.9515       	844.45764      	844.4623       	844.4692       	845.1358       	844.28815      	844.3937       	844.4788       	844.5507       	844.27094      	843.99744      	843.91614      	843.893        	843.9895       	844.1632       	844.41785      	844.4073       	843.85345      	843.86975      	844.00745      	844.2311       	844.4557       	843.8789       	843.7425       	843.82526      	844.0312       	844.32477      	844.65356      	843.79364      	844.00165      	844.21735      	844.5528       	843.86945      	843.90204      	844.0417       	844.26855      	844.9726       	843.8966       	844.0309       	844.27356      	845.09344      	843.96387      	844.0577       	844.20593      	844.6017       	843.93616      	844.0087       	844.13293      	844.2747       	844.0077       	844.056        	844.14075      	844.1925       	844.87494      	844.07416      	844.1292       	844.19183      	844.2268       	845.0649       	844.1107       	844.0846       	844.08636      	844.70355      	844.10345      	844.0775       	844.0612       	844.0769       	844.8184       	844.07446      	844.0512       	844.05133      	844.19586      	844.0865       	844.0248       	844.0518       	844.1397       	844.5409       	844.0136       	844.10004      	844.2399       	844.01953      	844.0287       	
844.86456      	844.95496      	844.90295      	844.94574      	844.81635      	844.94226      	845.031        	844.90485      	844.68463      	844.6491       	844.91565      	845.2315       	845.20886      	843.8643       	844.3483       	843.9417       	843.9326       	844.28424      	843.9519       	843.92084      	843.9721       	844.5856       	843.7252       	843.82117      	843.9233       	843.96313      	843.7799       	843.3888       	843.3723       	843.43225      	843.556        	843.7164       	844.7343       	843.35834      	843.2948       	843.3103       	843.4872       	843.70355      	844.6791       	843.3086       	843.2867       	843.3541       	843.6085       	843.8825       	843.2765       	843.315        	843.5003       	843.76294      	844.58215      	843.3041       	843.4075       	843.58984      	844.6397       	843.34314      	843.4131       	843.55273      	843.74255      	843.5233       	843.41205      	843.5764       	843.6974       	843.6188       	843.4488       	843.5892       	843.6494       	844.4277       	843.4798       	843.5003       	843.6051       	843.73785      	844.23016      	843.45026      	843.5361       	843.6366       	843.6666       	844.5753       	843.569        	843.58624      	843.57416      	843.57         	845.1495       	843.59375      	843.5449       	843.4859       	843.51276      	843.80426      	843.55945      	843.5271       	843.50793      	844.2462       	843.5277       	843.4879       	843.561        	843.66833      	844.56274      	843.5169       	843.56866      	843.69196      	844.17566      	843.5092       	
844.78125      	844.9352       	845.0844       	845.255        	845.1237       	845.1469       	845.08246      	845.1527       	845.06067      	844.161        	843.8389       	844.3347       	843.8811       	844.17865      	843.942        	843.9053       	844.72327      	843.94684      	843.9721       	844.0111       	843.75946      	843.7399       	843.94727      	844.0564       	844.79675      	843.45087      	843.5398       	843.709        	843.8567       	844.69116      	843.45966      	843.4436       	843.5332       	843.7106       	843.9309       	843.4806       	843.4097       	843.4708       	843.6484       	843.9224       	843.8062       	843.3454       	843.42944      	843.6067       	843.8512       	844.6341       	843.4402       	843.6036       	843.7844       	844.6218       	843.45764      	843.615        	843.77106      	844.3473       	843.6231       	843.6697       	843.8075       	844.35547      	843.636        	843.63837      	843.7687       	843.9685       	843.704        	843.6564       	843.77234      	843.89557      	844.70776      	843.68195      	843.75494      	843.85834      	843.97943      	844.6761       	843.7976       	843.82465      	843.89465      	843.9184       	845.7104       	843.8552       	843.8616       	843.8243       	843.833        	845.3463       	843.8396       	843.778        	843.7818       	843.7748       	844.32214      	843.77405      	843.81616      	843.8443       	844.5831       	843.77673      	843.82104      	843.8298       	843.9179       	844.6152       	843.7652       	843.8785       	843.9518       	843.9226       	
844.8231       	845.01697      	844.8392       	844.7939       	845.07526      	845.0699       	845.0524       	844.95355      	845.0768       	845.02057      	846.58795      	843.9086       	844.2187       	843.99915      	844.365        	844.0565       	843.99695      	844.642        	843.82526      	843.9234       	843.92224      	844.7133       	843.6041       	843.769        	843.89246      	844.25793      	843.4452       	843.5348       	843.67474      	844.2921       	843.43414      	843.44293      	843.543        	843.7093       	843.762        	843.3251       	843.35944      	843.5188       	843.81696      	843.70996      	843.25946      	843.29144      	843.4944       	843.8153       	843.4517       	843.4049       	843.6017       	844.141        	843.45734      	843.556        	843.6995       	844.3769       	843.3959       	843.48267      	843.64594      	844.078        	843.4729       	843.5444       	843.6511       	843.7246       	843.57227      	843.50775      	843.5572       	843.7247       	845.3428       	843.4994       	843.56433      	843.67004      	843.76337      	844.0152       	843.5867       	843.65625      	843.6845       	843.7462       	844.0257       	843.63245      	843.6234       	843.65326      	843.65497      	844.3601       	843.6324       	843.6207       	843.5775       	843.5487       	844.47565      	843.5876       	843.54224      	843.52704      	843.6591       	844.4535       	843.56555      	843.56256      	843.6017       	844.1074       	843.523        	843.52356      	843.60815      	843.71936      	843.561        	843.4782       	
844.08997      	844.3154       	844.4561       	844.41406      	843.9958       	844.1861       	844.4551       	844.2195       	844.38837      	843.00867      	844.07587      	842.93915      	844.0328       	842.83386      	843.2854       	842.9983       	842.9418       	843.2433       	842.88184      	842.94116      	843.04535      	842.6105       	842.6055       	842.8695       	842.94275      	842.8263       	842.53723      	842.6671       	842.7913       	843.00714      	842.54407      	842.5824       	842.70435      	843.17523      	842.59216      	842.56964      	842.6021       	842.74774      	843.3106       	842.52277      	842.4522       	842.5137       	842.80396      	843.44885      	842.5284       	842.6271       	842.8601       	843.7164       	842.59875      	842.7397       	842.86957      	842.8206       	842.5872       	842.6903       	842.83203      	843.0349       	842.55206      	842.6488       	842.72015      	843.6734       	842.5885       	842.5826       	842.6501       	843.411        	842.5974       	842.57355      	842.6514       	842.749        	843.1806       	842.63763      	842.6964       	842.74176      	842.8619       	844.31995      	842.70404      	842.779        	842.805        	842.78766      	843.4996       	842.80383      	842.7706       	842.8256       	842.8212       	843.1735       	842.8392       	842.82043      	842.8069       	842.8369       	843.24457      	842.77905      	842.844        	842.8655       	842.95074      	843.1267       	842.9058       	842.9104       	842.9517       	843.54297      	842.8461       	842.9313       	
844.389        	844.43915      	844.41003      	844.2428       	844.4324       	844.13434      	844.5912       	844.58484      	844.6943       	843.2864       	844.42175      	843.3354       	844.43134      	843.38513      	843.77673      	843.4222       	843.8231       	843.2349       	843.3256       	843.4335       	843.86755      	842.8726       	842.9604       	843.079        	843.2056       	843.10455      	842.86487      	842.9251       	843.0859       	843.3559       	842.9232       	842.8476       	842.8747       	843.0749       	842.9936       	842.83704      	842.8051       	842.9342       	843.1108       	843.0762       	842.8445       	842.77625      	842.87866      	843.12573      	843.2663       	842.8124       	842.92065      	843.164        	843.30066      	842.8961       	843.0526       	843.2485       	843.3302       	843.01086      	843.0732       	843.22723      	844.1846       	843.01843      	843.0277       	843.1568       	843.85736      	843.0326       	843.0776       	843.1445       	843.6534       	843.0846       	843.09546      	843.15344      	843.261        	844.3642       	843.1642       	843.2099       	843.26636      	843.2748       	843.57025      	843.17114      	843.2165       	843.20844      	843.2257       	844.643        	843.2103       	843.1734       	843.1767       	843.1607       	843.56506      	843.25323      	843.18164      	843.1868       	843.2608       	844.023        	843.2126       	843.23206      	843.297        	843.348        	843.4036       	843.1804       	843.2838       	843.3715       	843.7485       	843.20276      	
844.33844      	844.6559       	844.5671       	844.4657       	844.55505      	844.3993       	844.7765       	844.67615      	844.2041       	843.469        	844.56696      	843.5293       	843.90656      	843.5131       	843.99316      	843.5435       	843.88745      	843.3315       	843.3905       	843.4592       	844.14703      	842.92786      	842.9962       	843.05145      	843.1907       	843.3146       	842.9456       	842.9001       	842.9677       	843.8535       	843.0237       	842.8827       	842.84436      	842.89984      	843.36456      	842.9571       	842.79456      	842.7165       	842.7645       	843.32904      	842.845        	842.6956       	842.67084      	842.83887      	843.372        	842.69727      	842.72644      	842.8376       	843.5186       	842.75354      	842.79944      	842.9366       	843.8246       	842.7955       	842.7698       	842.87067      	843.0381       	842.9713       	842.81696      	842.89575      	842.9336       	842.9489       	842.8425       	842.876        	842.9206       	843.0383       	842.8652       	842.905        	842.9768       	843.4638       	842.835        	842.87476      	842.9646       	843.0292       	843.3955       	842.9124       	842.95795      	842.9562       	842.91534      	843.50555      	842.91205      	842.881        	842.87964      	842.85535      	843.25256      	842.8548       	842.84796      	842.828        	842.8912       	843.38324      	842.8154       	842.795        	842.87244      	842.97925      	843.8803       	842.74677      	842.8129       	842.8616       	843.6603       	842.69037      	
843.6368       	843.713        	843.7423       	844.11285      	843.8653       	843.7672       	843.8392       	843.9053       	844.1918       	843.2019       	842.6671       	843.6869       	842.66693      	843.3021       	842.7224       	843.06573      	842.47546      	842.5283       	842.59906      	843.0914       	842.2102       	842.3204       	842.4141       	842.7179       	842.084        	842.05334      	842.0763       	842.70435      	842.17004      	842.0575       	841.98755      	841.9968       	842.4404       	842.0836       	841.98596      	841.9577       	841.9391       	843.0004       	842.04663      	841.9027       	841.8596       	841.9856       	842.79486      	841.97034      	841.9107       	841.9548       	842.18097      	842.54816      	842.0059       	842.07         	842.1571       	842.6492       	842.01965      	842.0709       	842.10535      	843.0452       	842.0579       	842.08594      	842.15405      	842.7031       	842.11005      	842.136        	842.181        	843.19324      	842.1475       	842.1679       	842.23346      	842.7416       	842.1417       	842.2101       	842.2802       	842.3302       	842.6788       	842.15765      	842.2068       	842.2418       	842.27856      	842.9371       	842.2285       	842.2204       	842.16315      	842.15485      	842.24274      	842.2408       	842.17474      	842.14545      	842.14575      	842.25305      	842.4776       	842.1809       	842.1803       	842.1927       	842.2789       	842.4218       	842.17554      	842.1774       	842.2516       	842.35315      	842.1884       	842.1198       	
843.61456      	843.7751       	843.61584      	843.9745       	843.5967       	843.72876      	843.9437       	843.9146       	843.9483       	842.6687       	842.8792       	842.7126       	842.7224       	843.6236       	842.65405      	843.4453       	842.47046      	842.5985       	842.70044      	842.7364       	842.2189       	842.3408       	842.49835      	843.51556      	842.2304       	842.1477       	842.154        	842.69135      	842.4017       	842.2938       	842.20074      	842.1602       	843.07104      	842.3894       	842.292        	842.07074      	842.0934       	843.15015      	842.301        	842.1513       	842.0739       	842.1212       	842.9671       	842.1622       	842.0752       	842.1202       	842.2937       	842.9756       	842.1855       	842.2117       	842.32355      	843.2679       	842.2665       	842.2864       	842.352        	842.97144      	842.31714      	842.34106      	842.39526      	842.7754       	842.4001       	842.4213       	842.4115       	843.3481       	842.4196       	842.4208       	842.4636       	842.9333       	842.40076      	842.45605      	842.4913       	842.5403       	843.30383      	842.46106      	842.44855      	842.50653      	842.5251       	842.5024       	842.72125      	842.4869       	842.4482       	842.3734       	842.45795      	843.04926      	842.4662       	842.4232       	842.4164       	842.4167       	842.9366       	842.4944       	842.48627      	842.5511       	842.5766       	843.18195      	842.4492       	842.53235      	842.58295      	842.6075       	843.1435       	842.42957      	
843.8535       	844.0286       	844.14557      	844.06177      	844.29535      	844.41504      	844.15497      	844.446        	844.2233       	843.3388       	842.98444      	843.4195       	843.0279       	843.90204      	842.95953      	843.4773       	842.8116       	842.9274       	843.02405      	842.5612       	842.5892       	842.7207       	842.89514      	842.61066      	842.49023      	842.4417       	842.4583       	842.97925      	842.7091       	842.6097       	842.5038       	842.4271       	842.85895      	842.76697      	842.6793       	842.4987       	842.3977       	842.4197       	842.77185      	842.5514       	842.3933       	842.3665       	842.5045       	842.7126       	842.50336      	842.42847      	842.55444      	843.4441       	842.51587      	842.50024      	842.56067      	843.19165      	842.6173       	842.59015      	842.5761       	843.2789       	842.6829       	842.6441       	842.6513       	843.4349       	842.8048       	842.73303      	842.7565       	843.5642       	842.7478       	842.75696      	842.7937       	842.9551       	842.76685      	842.7344       	842.7802       	842.8502       	843.037        	842.8337       	842.8298       	842.82623      	842.8499       	842.8751       	843.2353       	842.83044      	842.81903      	842.7719       	842.80536      	843.2235       	842.9021       	842.8837       	842.8691       	842.85516      	843.1156       	842.93304      	842.88416      	842.9325       	842.9293       	842.9897       	842.90735      	842.7983       	842.86597      	842.91614      	843.08014      	842.93         	
844.7497       	844.83203      	844.91296      	844.9778       	843.80133      	844.0436       	845.11957      	845.05707      	845.03754      	844.99255      	843.78235      	844.19763      	843.7123       	843.75323      	843.95386      	843.6899       	843.8682       	843.4327       	843.4942       	843.6423       	844.497        	843.2659       	843.26624      	843.3445       	843.5317       	843.5777       	843.4542       	843.4131       	843.3406       	843.74384      	843.73206      	843.6298       	843.5123       	843.41614      	844.2349       	843.6643       	843.4984       	843.3694       	843.34216      	844.10876      	843.59827      	843.4587       	843.40533      	843.51733      	844.2764       	843.5397       	843.48987      	843.5485       	844.0393       	843.57135      	843.5826       	843.62976      	844.28503      	843.6357       	843.59467      	843.66925      	844.0827       	843.74774      	843.74536      	843.7934       	844.88336      	843.8256       	843.7919       	843.8401       	844.5166       	843.7666       	843.8352       	843.8964       	843.91187      	843.8734       	843.7938       	843.8431       	843.91016      	843.945        	843.83356      	843.8744       	843.8841       	843.85156      	843.8889       	844.20386      	843.8509       	843.81573      	843.81946      	843.79364      	843.8554       	843.9869       	843.8515       	843.8209       	843.8386       	843.95374      	844.0765       	843.8187       	843.8464       	843.8876       	843.9739       	844.2854       	843.7978       	843.83105      	843.8738       	843.9773       	
846.15045      	844.16003      	844.38086      	844.25446      	844.1682       	844.4895       	844.38257      	845.35223      	845.35486      	845.5616       	845.6794       	845.43036      	844.04553      	844.04034      	843.9358       	843.9265       	844.708        	843.5768       	843.7119       	843.84955      	843.4782       	843.40076      	843.51086      	844.04504      	843.5577       	843.4976       	843.4359       	843.3559       	843.8684       	843.68933      	843.5446       	843.4018       	843.85706      	843.6989       	843.5664       	843.43176      	843.5727       	843.6858       	843.4371       	843.2814       	843.2232       	843.7566       	843.4052       	843.30286      	843.2741       	843.32495      	844.1917       	843.3262       	843.3204       	843.38055      	844.49915      	843.3565       	843.3436       	843.4147       	843.7081       	843.42126      	843.3852       	843.48444      	843.6266       	843.4361       	843.43176      	843.8505       	843.49414      	843.4166       	843.41907      	843.51117      	843.79         	843.3678       	843.42505      	843.45013      	844.22375      	843.3472       	843.37146      	843.4426       	843.4652       	843.4939       	843.4031       	843.3699       	843.3805       	843.37445      	843.37976      	844.44666      	843.3959       	843.3291       	843.3059       	843.2656       	843.3602       	843.3948       	843.3298       	843.3108       	843.3824       	843.42065      	843.6063       	843.32965      	843.31635      	843.3562       	843.44714      	844.9254       	843.24805      	843.296        	
843.45746      	843.2322       	843.58685      	843.30536      	843.231        	843.4967       	843.1798       	844.00494      	844.4791       	844.4574       	844.54364      	844.45496      	844.59015      	843.15173      	843.0905       	847.3653       	842.9167       	843.0282       	842.9076       	842.73505      	842.839        	842.90826      	842.538        	842.5226       	842.51294      	843.03906      	842.7382       	842.65594      	842.5444       	843.2227       	842.82935      	842.7233       	842.5576       	842.90137      	842.77344      	842.5933       	842.4558       	843.1632       	842.6139       	842.47943      	842.4118       	842.47656      	842.7153       	842.4732       	842.44403      	842.50836      	842.95715      	842.5312       	842.5683       	842.6595       	842.76843      	842.59973      	842.61725      	842.9896       	842.6638       	842.66235      	842.6491       	843.32623      	842.7105       	842.70245      	842.72363      	843.44214      	842.7239       	842.69507      	842.75934      	843.4388       	842.65686      	842.66266      	842.73755      	842.8822       	842.6501       	842.6689       	842.7161       	842.7504       	843.50037      	842.6278       	842.65753      	842.6593       	842.6459       	843.0147       	842.6915       	842.59436      	842.6073       	842.56085      	842.59503      	844.62946      	842.6022       	842.58234      	842.5538       	842.602        	843.3839       	842.57324      	842.5619       	842.5604       	842.6085       	843.4583       	842.5078       	842.4955       	842.4859       	842.5257       	
843.16736      	843.48236      	843.3378       	843.1254       	843.4638       	844.5147       	844.2219       	844.29974      	844.2546       	844.20386      	844.4287       	844.1415       	842.9846       	842.9926       	843.4537       	842.8821       	843.96814      	843.0151       	842.93646      	843.8352       	842.4767       	842.5505       	842.653        	842.79926      	842.61725      	842.5302       	842.45886      	843.7317       	842.7511       	842.63025      	842.5107       	843.3981       	842.7821       	842.67096      	842.56647      	842.9443       	843.72327      	842.79553      	842.5922       	842.45496      	842.433        	842.88245      	842.55286      	842.4919       	842.4895       	843.2797       	842.56995      	842.5477       	842.54974      	843.3526       	842.5992       	842.5984       	842.67804      	842.76105      	842.64325      	842.6823       	843.0025       	842.6978       	842.74445      	843.14886      	842.7645       	842.7454       	842.7614       	842.79016      	842.7805       	842.7263       	842.80316      	842.811        	843.6817       	842.6722       	842.7475       	842.7944       	843.4511       	842.71423      	842.7577       	842.8058       	843.51105      	842.7364       	842.7523       	842.737        	842.6594       	842.71027      	843.45276      	842.73175      	842.68665      	842.66656      	842.71674      	843.4339       	842.77454      	842.78796      	842.7598       	842.74554      	843.209        	842.79126      	842.7728       	842.7991       	842.84375      	843.35834      	842.7023       	842.7341       	
843.66205      	844.2266       	843.57654      	843.5704       	844.40564      	844.60284      	844.9845       	844.7838       	844.988        	844.7753       	844.7989       	844.72614      	844.5688       	844.78326      	844.8065       	844.6649       	844.9619       	844.9716       	844.5859       	843.045        	843.16016      	843.6443       	843.0224       	842.9755       	842.9708       	843.3909       	843.12683      	843.0152       	843.4665       	843.3063       	843.20984      	843.03284      	844.9784       	843.22656      	843.1137       	843.69714      	843.2311       	843.0741       	842.96356      	843.5676       	843.22906      	843.0609       	842.99866      	843.00574      	843.15173      	843.0355       	843.0837       	843.5232       	843.0983       	843.1227       	843.52313      	843.22815      	843.24866      	844.06683      	843.3316       	843.2814       	843.3489       	844.5599       	843.30054      	843.31604      	843.6941       	843.29114      	843.2853       	843.33496      	843.37787      	843.31537      	843.3178       	843.3522       	843.4261       	843.4111       	843.34625      	843.3623       	844.0148       	843.3259       	843.3502       	843.3815       	843.73505      	843.30396      	843.29724      	843.2784       	843.2687       	843.6918       	843.31836      	843.2735       	843.2451       	843.2367       	843.29584      	843.5217       	843.3024       	843.2914       	843.3233       	843.37067      	843.65106      	843.2682       	843.2874       	843.3105       	843.3765       	843.40686      	843.24615      	843.2972       	
843.9525       	844.1845       	843.7128       	844.12427      	844.98285      	844.86237      	845.08655      	845.05206      	845.10504      	845.09955      	844.9475       	845.07916      	844.9824       	845.1354       	845.10974      	845.09155      	845.15076      	845.0403       	844.8327       	843.22107      	843.29425      	844.3192       	843.14453      	843.1185       	843.6881       	843.31824      	843.237        	843.16766      	848.836        	843.4729       	843.34576      	843.1884       	843.7933       	843.4423       	843.3012       	843.8961       	843.4251       	843.29266      	843.16766      	843.114        	843.5106       	843.2299       	843.1575       	843.2101       	843.48816      	843.17975      	843.19934      	843.8056       	843.27936      	843.2848       	843.48645      	843.327        	843.95905      	843.4466       	843.39624      	843.8808       	843.4526       	843.4342       	843.43726      	843.93823      	843.419        	843.4658       	843.47406      	843.7487       	843.43134      	843.52203      	843.58105      	844.4154       	843.3749       	843.4324       	843.55536      	844.2282       	843.52826      	843.5121       	843.4932       	843.5833       	843.4364       	843.40717      	843.3931       	843.42487      	843.9473       	843.36285      	843.3545       	843.3152       	843.3484       	843.722        	843.4478       	843.3945       	843.3961       	843.4164       	843.82324      	843.4378       	843.40625      	843.4525       	843.4778       	843.95514      	843.4019       	843.3765       	843.42786      	843.5032       	
