# www.neaspec.com
# Scan:	 	Whitelight Imaging
# Project:	 	20251007_PS
# Description:	 	
# Date:	 	10/07/2025 11:32:10
# Scanner Center Position (X, Y):	[µm]	49.99	50.01	 
# Rotation:	[°]	0	 	 
# Scan Area (X, Y, Z):	[µm]	5.000	5.000	0.000
# Pixel Area (X, Y, Z):	[px]	100	100	1
# Interferometer Center/Distance:	[µm]	0.000	0.000	 
# Averaging:	 	1	 	 
# Integration time:	[ms]	5	 	 
# Wavenumber Scaling:	 	1.000000	 	 
# Laser Source:	 	4.5-15 µm nano-FTIR laser
# Detector:	 	R
# Target Wavelength:	[µm]	7.502	 	 
# Demodulation Mode:	 	Fourier
# Tip Frequency:	[Hz]	241,340.500	 	 
# Tip Amplitude:	[mV]	45.700	 	 
# Tapping Amplitude:	[nm]	70.684	 	 
# Modulation Frequency:	[Hz]	0.000	 	 
# Modulation Amplitude:	[mV]	0.000	 	 
# Modulation Offset:	[mV]	0.000	 	 
# Setpoint:	[%]	79.75	 	 
# Regulator (P, I, D):	 	4.206850	8.625812	1.000000
# Tip Potential:	[mV]	0.000	 	 
# M1A Scaling:	[nm/V]	0.426	 	 
# M1A Cantilever Factor:	 	1,000	 	 
# Q-Factor:	 	487.4	 	 
# Version:	 	2.1.11536.0
844.04254      	844.13904      	844.4919       	844.1664       	844.59625      	843.4016       	843.6172       	845.2935       	843.5674       	843.78485      	843.8523       	843.84576      	844.0102       	843.77216      	843.8249       	843.7877       	844.06213      	843.7646       	843.79425      	843.69684      	843.5304       	843.45496      	843.7952       	843.7416       	843.6226       	843.43286      	843.262        	843.1349       	844.484        	843.5372       	843.28906      	843.1084       	842.9687       	843.3026       	843.3944       	843.1339       	842.9652       	842.94086      	843.0307       	843.4849       	843.22125      	843.0912       	843.04156      	843.07434      	843.98376      	843.2741       	843.15045      	843.0858       	843.9043       	843.22766      	843.1833       	843.705        	843.24554      	843.4952       	844.11646      	844.45856      	844.4267       	844.5915       	844.35254      	844.55786      	843.6657       	843.38385      	843.90497      	843.3835       	843.58685      	844.41785      	844.2853       	843.4821       	846.1637       	843.9109       	843.537        	844.10876      	843.49304      	843.56384      	844.11255      	843.5435       	843.4574       	843.7729       	843.5846       	843.4978       	843.4109       	844.14453      	843.51263      	843.45514      	844.1194       	843.5585       	843.4438       	844.1069       	843.555        	843.40076      	843.2673       	844.19574      	843.4167       	844.3645       	844.88416      	844.64075      	844.6049       	844.41693      	844.37         	844.3788       	
843.13586      	843.0338       	843.0117       	843.347        	843.131        	843.254        	842.2637       	842.60016      	842.40125      	842.52136      	842.6194       	842.6542       	843.1504       	842.59174      	842.59674      	842.5748       	842.6249       	842.5726       	842.63086      	842.55396      	842.4274       	842.28345      	842.9668       	842.5629       	842.4618       	842.32587      	842.11566      	842.01746      	842.9143       	842.42834      	842.2128       	842.013        	841.8814       	841.943        	842.4101       	842.17737      	841.9732       	841.9517       	842.0224       	842.73206      	842.2564       	842.1173       	842.06744      	842.14496      	843.2222       	842.263        	842.16113      	842.1933       	842.9463       	842.29114      	842.2891       	842.559        	842.4071       	842.40076      	843.5191       	843.5947       	843.58685      	843.68976      	843.4366       	843.656        	843.13367      	842.8516       	842.578        	843.102        	842.5958       	843.1536       	843.7532       	842.6816       	842.86633      	842.8929       	842.9986       	843.9503       	842.8185       	842.8188       	843.22046      	842.7689       	842.71545      	843.62244      	842.8512       	842.7852       	842.8727       	842.93097      	842.8125       	842.7103       	843.30035      	842.8443       	842.73883      	843.1012       	842.8958       	842.777        	842.65173      	843.42554      	842.7706       	843.488        	844.1077       	844.20953      	843.9426       	843.8666       	843.815        	843.7926       	
842.4867       	842.55774      	842.3598       	842.63434      	842.5475       	842.5888       	842.57086      	842.59656      	842.5473       	841.64624      	841.8022       	841.8894       	842.24097      	841.8601       	841.8894       	841.8136       	842.2997       	841.82526      	841.7575       	841.63995      	841.5686       	841.80304      	841.71875      	841.5823       	841.4426       	841.2474       	842.5486       	841.6677       	841.49133      	841.22534      	841.07153      	840.998        	841.9492       	841.2847       	841.0883       	840.9786       	840.9887       	841.54193      	841.31506      	841.1341       	841.04974      	841.0945       	841.94037      	841.2434       	841.1725       	841.15533      	841.2802       	841.28723      	841.221        	841.1995       	841.6166       	841.2338       	841.2994       	841.7725       	841.2777       	842.21106      	842.5321       	842.42456      	842.4612       	842.5758       	842.37573      	842.60706      	841.5999       	841.56903      	843.0151       	842.0278       	841.66705      	842.6129       	842.5867       	842.8704       	842.9196       	842.51764      	842.54584      	841.7093       	842.7528       	841.7231       	841.6673       	841.63226      	842.48834      	841.6761       	841.5606       	842.15857      	841.7174       	841.5875       	841.6173       	841.75854      	841.55444      	841.44165      	842.0702       	841.5264       	841.43256      	842.25476      	841.61383      	842.7608       	842.97644      	842.5566       	842.78577      	843.08234      	842.67993      	842.41516      	
843.2804       	843.20447      	843.1669       	843.38116      	843.35284      	843.407        	843.4044       	843.4459       	843.3145       	843.3009       	843.35364      	842.48737      	842.54694      	842.5544       	842.4849       	842.5551       	842.4486       	842.3394       	842.7854       	842.4662       	842.3656       	842.1368       	842.13403      	842.62805      	842.25336      	842.12244      	841.9315       	841.7858       	841.78864      	842.2793       	842.01263      	841.8022       	841.672        	841.6373       	842.71423      	841.8958       	841.69714      	841.58215      	841.6133       	842.7836       	841.85345      	841.69464      	841.68744      	841.87964      	841.83716      	841.7793       	841.79065      	841.9496       	841.7804       	841.7758       	841.85406      	842.3629       	841.79395      	841.8142       	842.429        	841.80963      	841.8951       	842.94336      	843.0053       	842.9544       	842.78033      	841.9576       	841.998        	842.43024      	841.97406      	842.21747      	842.9922       	843.2887       	843.04114      	843.0432       	843.1991       	843.186        	843.16394      	843.04193      	843.39026      	842.94653      	842.4628       	842.0021       	842.6148       	842.0035       	841.8746       	842.1754       	842.02026      	841.9026       	841.7988       	842.7491       	841.8997       	841.79626      	843.0017       	841.8451       	841.73254      	842.30896      	841.7882       	842.9603       	843.2631       	842.83264      	842.91675      	842.9148       	842.7994       	842.72723      	
843.0039       	842.9652       	843.02704      	843.0868       	843.03937      	843.13025      	843.2333       	843.02765      	843.07825      	843.071        	843.4291       	843.06116      	843.3187       	842.57935      	842.2058       	842.22766      	846.0834       	842.2763       	842.1713       	842.0547       	842.4441       	842.2096       	842.0217       	841.84515      	841.70374      	842.8686       	842.05023      	841.88116      	841.63025      	841.4644       	841.429        	842.381        	841.7906       	841.57043      	841.45325      	841.4065       	841.8472       	841.63855      	841.47925      	841.4719       	841.5597       	842.19836      	841.58093      	841.56995      	841.6195       	842.7171       	841.6562       	841.6559       	841.7323       	842.2555       	841.7405       	841.82874      	842.1178       	841.80804      	841.8383       	842.4021       	841.89075      	841.9079       	842.08954      	841.90356      	841.9121       	842.36786      	842.03906      	842.0089       	842.444        	842.0214       	842.05927      	843.32916      	843.36945      	842.9106       	843.25415      	842.727        	842.08215      	843.4109       	843.3458       	842.3432       	842.57605      	842.16736      	842.40375      	842.1631       	842.036        	841.8817       	842.6725       	842.04663      	841.9298       	841.8655       	842.3483       	841.9772       	841.83344      	842.6314       	841.93195      	841.86816      	842.08954      	841.89545      	843.3176       	843.32025      	843.12067      	843.0169       	842.5712       	842.7778       	
843.10095      	843.08093      	843.085        	843.0531       	843.20404      	843.19525      	843.1816       	843.23334      	843.2592       	843.3593       	843.1618       	843.17487      	843.27704      	842.5268       	842.22797      	842.25555      	842.7693       	842.1829       	842.1035       	842.00586      	842.88074      	842.07495      	841.9154       	841.8383       	842.139        	841.90063      	841.6494       	841.4841       	841.37476      	842.45374      	841.83563      	841.56384      	841.39624      	841.2975       	841.49524      	841.6243       	841.3877       	841.2689       	841.3155       	842.00085      	841.42883      	841.3444       	841.42584      	841.9538       	841.4845       	841.4791       	841.5778       	842.1681       	841.5762       	841.5663       	841.6498       	842.27545      	841.6136       	841.6415       	841.8558       	841.6725       	841.6739       	841.7483       	842.24316      	841.70087      	841.84656      	842.52625      	841.7559       	841.7976       	843.097        	843.0453       	843.0758       	842.7909       	842.8388       	842.8516       	842.93317      	842.81055      	842.8152       	842.9978       	842.91315      	843.0996       	842.7304       	843.1355       	842.8886       	841.8021       	841.75726      	842.4056       	841.7107       	841.5867       	842.04285      	841.8319       	841.6807       	841.5903       	841.81805      	841.6022       	841.71704      	841.7055       	841.55206      	843.12036      	842.8212       	842.8852       	842.7899       	842.7687       	842.29224      	842.4057       	
842.72296      	842.8334       	842.48303      	842.865        	842.8799       	842.8909       	842.89526      	842.95044      	843.0942       	843.0312       	842.73004      	842.86206      	843.07227      	842.93195      	842.66547      	842.0353       	841.9427       	841.84534      	842.2588       	841.85834      	841.7146       	842.72015      	841.7932       	841.5921       	841.4433       	841.48865      	841.70105      	841.50885      	841.26636      	841.13245      	841.1908       	841.83636      	841.3008       	841.1286       	841.0966       	841.1716       	841.85583      	841.18835      	841.0922       	841.1256       	845.7211       	841.17145      	841.22845      	841.3366       	841.7888       	841.2624       	841.3126       	841.4538       	841.6261       	841.64557      	841.4046       	841.481        	841.5736       	841.9268       	841.4847       	841.5238       	842.79846      	842.539        	842.71313      	842.02563      	841.6875       	841.7464       	842.52374      	842.7183       	842.5686       	842.68097      	842.71246      	842.95325      	842.926        	842.85364      	842.88354      	842.99207      	842.8849       	843.04156      	842.93054      	842.8738       	842.95184      	843.03265      	842.8726       	842.3062       	841.6895       	842.0231       	841.6451       	841.5212       	841.47766      	842.4413       	841.5801       	841.47766      	842.3059       	841.5505       	841.45953      	842.8415       	842.83246      	842.80206      	842.8139       	842.81976      	842.80176      	842.54126      	842.13055      	841.8837       	
842.29004      	842.4109       	842.4166       	842.4625       	842.3469       	842.432        	842.556        	842.47906      	842.6501       	842.38965      	842.4511       	842.5079       	842.4848       	842.32947      	842.7732       	841.4157       	841.3284       	842.0001       	841.38         	841.26605      	841.1644       	841.73785      	841.1747       	841.0241       	841.748        	841.10254      	840.86255      	840.70703      	841.6934       	840.889        	840.7014       	840.59503      	840.5957       	841.34467      	840.72394      	840.58563      	840.59766      	840.67163      	841.1148       	840.6448       	840.6713       	840.7628       	841.45355      	840.7372       	840.83246      	840.98364      	841.256        	840.8206       	840.9078       	841.01276      	841.4523       	840.9502       	840.99274      	841.0637       	841.32117      	841.038        	841.0404       	841.14026      	841.298        	841.1005       	841.149        	841.35425      	841.0804       	841.0972       	841.29175      	841.8954       	842.23413      	842.348        	842.3058       	842.36334      	842.3454       	842.4648       	842.3892       	842.6036       	842.33923      	842.4206       	842.295        	842.4936       	842.4976       	842.20435      	842.37756      	842.065        	841.0863       	840.97375      	841.74805      	841.10913      	841.0118       	841.7765       	841.04584      	841.10834      	841.7743       	842.1338       	842.2538       	842.232        	842.2852       	842.1428       	842.4609       	842.0452       	841.6085       	841.7484       	
842.8792       	842.8779       	842.8917       	842.8803       	842.8772       	842.99585      	843.00494      	842.99945      	842.94836      	842.8593       	842.93396      	842.99255      	842.9781       	843.0778       	842.97894      	843.0273       	842.93494      	842.8561       	842.5807       	841.7031       	841.5602       	842.23254      	841.53815      	841.55566      	842.0274       	841.422        	841.2246       	841.0722       	841.95746      	841.1521       	840.9691       	840.8596       	841.0063       	841.1062       	840.9672       	840.95087      	841.0036       	841.71106      	840.9423       	840.9675       	841.051        	841.3313       	840.9782       	841.08563      	841.1628       	841.4792       	841.1016       	841.1526       	841.2687       	841.46844      	841.1712       	841.2022       	841.25037      	841.453        	841.20276      	841.26086      	841.2499       	841.58734      	841.25653      	841.3396       	841.3245       	845.8751       	841.27966      	841.30133      	841.46844      	841.34515      	841.36884      	841.9538       	842.5921       	842.5323       	842.55884      	842.5779       	842.6072       	842.5087       	842.43353      	842.4303       	842.51855      	842.5602       	842.4359       	842.56024      	842.62335      	842.5219       	842.2577       	842.51636      	842.27826      	841.1814       	841.028        	841.70087      	842.4247       	842.3101       	842.2895       	842.2526       	842.23254      	842.2526       	842.1952       	842.2266       	842.2988       	841.8779       	841.65796      	841.67944      	
843.03613      	843.1057       	842.9863       	843.1241       	843.01337      	843.1163       	843.1591       	843.1056       	843.04266      	843.0829       	843.09546      	843.07184      	843.26184      	843.06384      	843.0003       	843.074        	842.962        	843.16534      	843.0936       	842.24036      	842.8861       	842.7304       	841.9269       	841.82574      	844.81824      	841.57446      	841.3808       	841.23444      	842.09436      	841.3689       	841.23157      	841.1426       	841.651        	841.16113      	841.1316       	841.1837       	841.8678       	841.1969       	841.1908       	841.26654      	841.49036      	841.26013      	841.30634      	841.39856      	841.56903      	841.3949       	841.42316      	841.5121       	841.62555      	841.7926       	841.5222       	841.6355       	841.666        	842.2189       	841.63696      	841.6592       	841.67474      	842.3961       	841.6437       	841.67975      	841.7708       	841.6925       	841.63745      	841.6387       	842.1741       	841.6803       	841.6606       	842.84406      	842.70416      	842.78577      	842.8927       	842.8385       	842.98883      	842.9805       	842.9339       	842.9054       	842.9297       	842.9058       	842.92426      	843.00885      	842.845        	842.8629       	842.957        	842.83716      	842.708        	842.88904      	842.85         	842.55273      	842.55914      	842.50006      	842.68823      	842.7307       	842.6772       	842.4629       	842.71         	842.6849       	842.6474       	842.5936       	842.22864      	842.1989       	
843.22766      	843.1042       	843.2302       	843.2716       	843.28876      	843.2431       	843.2653       	843.2735       	843.3149       	843.3209       	843.2639       	843.2419       	843.233        	843.20355      	843.2906       	843.38464      	843.1648       	843.232        	843.3555       	843.099        	842.864        	842.09094      	841.99274      	841.9866       	841.7637       	841.52625      	841.3676       	841.9597       	841.4716       	841.3137       	841.375        	841.5191       	841.31805      	841.28735      	841.55206      	841.46295      	841.3502       	841.3958       	841.50464      	842.043        	841.4301       	841.5141       	841.68646      	842.23804      	841.5257       	841.6744       	841.7493       	844.2506       	841.66705      	841.78375      	841.84186      	842.23285      	841.7511       	841.7646       	841.7921       	842.7155       	841.78064      	841.7589       	841.8053       	842.1427       	841.78876      	841.8048       	842.1892       	841.85364      	841.8072       	842.1397       	841.807        	841.79614      	843.28394      	842.92816      	843.02765      	842.97424      	843.07574      	843.1405       	842.80426      	842.8888       	842.98535      	843.09467      	842.87006      	842.96594      	842.96106      	842.8643       	842.9492       	842.80334      	842.87134      	842.7512       	842.7061       	842.87866      	842.79065      	842.7461       	842.7828       	842.77856      	842.7804       	842.8323       	842.6592       	842.2641       	842.2382       	842.6173       	842.65106      	842.2418       	
842.9433       	842.7755       	842.80774      	842.79224      	842.9841       	842.88837      	842.9315       	842.9694       	842.83594      	842.91113      	842.92816      	842.8633       	842.8811       	842.81287      	842.816        	842.9704       	842.6527       	842.86383      	843.03217      	842.64856      	842.8135       	842.8769       	841.42883      	841.3388       	841.41046      	841.1903       	841.11707      	841.3054       	841.0996       	841.0173       	841.82904      	841.08624      	841.02594      	841.0986       	841.56964      	841.10895      	841.0899       	841.2501       	841.78406      	841.14526      	841.225        	841.4046       	841.8949       	841.27466      	841.3926       	841.5039       	842.0051       	841.43054      	841.5452       	841.6127       	842.8356       	841.57587      	841.59607      	841.59875      	842.1864       	841.5556       	841.58276      	841.53094      	841.9548       	841.58795      	841.58093      	841.89185      	841.583        	841.5921       	841.5629       	842.15466      	841.5831       	841.64166      	842.7665       	842.80273      	842.7616       	842.81116      	842.91907      	842.7818       	842.7572       	842.40076      	842.8089       	842.8406       	842.5885       	842.75415      	842.7201       	842.5261       	842.5153       	842.7517       	842.2217       	842.3969       	842.6337       	842.72656      	842.61316      	842.449        	842.66766      	842.6215       	842.5859       	842.6606       	842.3523       	842.4421       	842.54565      	842.29114      	842.189        	842.2952       	
842.4031       	842.463        	842.4404       	842.3796       	842.4135       	842.36774      	842.4101       	842.3718       	842.389        	842.41986      	842.38245      	842.4589       	842.2856       	842.1978       	842.24585      	842.3097       	842.3085       	842.2568       	842.2748       	842.19867      	842.1189       	842.3651       	841.33276      	840.71265      	841.2255       	840.6694       	841.5139       	840.6367       	840.482        	843.7298       	840.5169       	840.4219       	840.45514      	840.5576       	841.9815       	840.7331       	840.47534      	840.5628       	840.68         	841.7935       	840.53156      	840.6941       	840.83453      	840.93066      	841.1392       	840.7968       	840.89136      	840.9512       	841.09045      	840.8896       	840.9775       	840.9495       	841.37036      	840.8915       	840.85266      	840.91895      	841.35815      	840.869        	840.83496      	841.77637      	840.9124       	840.87915      	841.6708       	840.8975       	840.831        	841.0155       	841.9967       	841.87305      	842.05237      	841.8988       	842.1426       	842.1423       	842.08795      	842.0436       	841.9789       	841.92865      	841.88715      	842.06244      	841.76794      	841.91986      	842.0169       	841.8567       	841.58563      	841.84247      	841.7692       	841.68524      	841.7186       	841.6935       	841.7266       	841.7467       	841.7881       	841.6978       	841.7988       	841.65045      	841.59595      	841.57446      	841.48145      	841.3141       	841.5078       	841.4325       	
842.64343      	842.5736       	842.5081       	842.6935       	842.6474       	842.7066       	842.65533      	842.7133       	842.67114      	842.73083      	842.6309       	842.6002       	842.49133      	842.4831       	842.615        	842.5693       	842.793        	842.5969       	842.5434       	842.50916      	842.7034       	842.5231       	842.5522       	842.1966       	842.2777       	841.956        	841.92065      	842.1308       	841.0821       	840.7548       	840.8647       	840.87866      	840.79926      	840.82935      	840.99115      	841.74225      	840.8827       	840.97925      	841.07654      	841.2421       	841.7068       	841.036        	841.1837       	841.3366       	841.4184       	841.59015      	841.2204       	841.351        	841.41986      	842.6          	841.3684       	841.358        	841.3448       	841.7823       	841.361        	841.29596      	841.2679       	842.1594       	841.3214       	841.31165      	841.8551       	841.38446      	841.3108       	841.92535      	841.334        	841.27606      	841.7441       	841.2856       	841.3828       	842.2239       	842.5269       	842.48254      	842.3597       	842.5598       	842.44586      	842.152        	841.14325      	841.0612       	841.9791       	841.0892       	841.0012       	840.9554       	841.6448       	840.96606      	840.9258       	841.42804      	840.91754      	840.8888       	842.33954      	842.1127       	842.0453       	842.2766       	842.18713      	841.9288       	842.014        	842.09235      	842.0056       	841.7161       	841.6695       	841.7194       	
841.768        	841.66003      	841.72504      	841.7721       	841.9031       	841.7803       	841.70605      	841.78577      	841.8271       	841.76013      	841.6354       	841.7519       	841.4918       	841.56836      	841.5651       	841.56354      	841.6381       	841.7115       	841.5646       	841.71277      	841.66174      	841.6008       	841.37244      	841.3193       	841.0879       	841.47455      	840.9473       	840.0238       	839.9567       	841.0748       	839.9541       	839.9521       	840.05493      	840.21704      	840.8562       	840.1546       	840.2741       	840.3974       	841.0318       	840.3067       	840.4234       	840.5638       	840.6992       	840.94885      	840.56976      	840.6615       	840.73004      	841.3137       	840.6992       	840.7161       	840.7497       	841.4942       	840.773        	840.71704      	840.6452       	841.52313      	840.71265      	840.64         	840.6736       	840.7185       	840.6967       	840.6469       	841.3853       	840.6523       	840.6227       	843.23425      	840.7058       	840.6864       	841.5856       	842.07007      	842.0647       	841.4096       	840.7398       	841.4081       	840.74945      	840.63965      	841.1464       	840.6731       	840.5769       	840.60864      	840.7354       	840.55835      	840.5449       	840.7864       	840.6099       	840.55115      	840.6198       	841.45483      	841.62976      	841.7832       	841.6632       	841.7464       	841.74194      	841.66724      	841.8772       	841.87524      	841.71216      	841.5178       	841.20807      	841.3183       	
841.5907       	841.4407       	841.5611       	841.5501       	841.47546      	841.54065      	841.5876       	841.4657       	841.4262       	841.6185       	841.3555       	841.33014      	841.19037      	841.34796      	841.16174      	841.227        	841.2601       	841.50006      	841.34106      	841.12177      	841.2436       	841.13245      	840.99066      	841.24554      	840.9742       	840.9106       	840.76575      	841.0525       	839.72003      	839.679        	840.1827       	839.7014       	839.7807       	839.9553       	840.3525       	839.8578       	839.96124      	840.13776      	840.4722       	840.0338       	840.1978       	840.3858       	840.5147       	840.25464      	840.3888       	840.5045       	840.5116       	842.2696       	840.5264       	840.52966      	840.48956      	841.0892       	840.55695      	840.4792       	840.66345      	840.6273       	840.53125      	840.49506      	841.255        	840.56445      	840.51965      	841.0393       	840.57104      	840.4923       	841.81305      	841.76996      	841.76587      	841.69574      	841.7476       	841.92426      	841.76605      	840.8681       	840.4469       	841.1314       	840.4439       	840.3471       	841.1521       	840.4154       	840.3104       	840.621        	840.33234      	840.27405      	840.27826      	840.8777       	840.2693       	840.256        	840.69073      	840.26306      	841.4245       	841.48047      	841.3235       	841.4831       	841.2726       	841.3418       	841.3994       	841.37634      	841.27924      	841.1462       	840.8717       	840.8684       	
847.5375       	847.02985      	846.97864      	847.07495      	847.35284      	847.20496      	847.12585      	847.0692       	847.01355      	846.998        	847.0152       	846.60004      	846.5466       	846.68976      	846.7005       	846.4936       	846.6272       	846.55505      	846.1605       	846.4607       	845.0094       	844.9055       	845.81415      	845.98663      	845.69165      	845.7079       	845.7533       	844.82336      	844.42505      	844.4509       	844.7804       	844.3585       	844.4229       	844.5976       	844.8421       	844.2963       	844.3601       	844.555        	844.75366      	844.293        	844.4228       	844.5049       	844.53217      	844.8385       	844.32574      	844.42096      	844.3929       	844.5827       	844.2927       	844.24506      	844.1809       	844.7359       	844.1575       	844.045        	843.8936       	844.23694      	843.86597      	843.74316      	843.8497       	843.749        	843.6431       	844.37427      	844.8077       	844.7499       	844.76276      	844.73047      	844.755        	844.7854       	844.5638       	844.64777      	843.46704      	843.2275       	843.612        	843.0876       	842.9606       	844.11554      	843.00287      	842.88855      	842.8415       	843.5126       	842.8065       	842.7563       	842.7156       	843.11426      	842.662        	842.63336      	842.7621       	843.5331       	843.12366      	843.6325       	843.3481       	843.63416      	843.5564       	843.731        	843.6887       	843.66797      	843.52875      	843.2357       	843.1689       	843.24567      	
845.4257       	845.3269       	845.40765      	845.31866      	845.4781       	845.7425       	845.4039       	845.59735      	845.49536      	845.36566      	845.3086       	845.31146      	845.32587      	845.36285      	845.19006      	845.3074       	844.0915       	843.91254      	845.1777       	844.8816       	844.9693       	845.2052       	844.8268       	845.13745      	845.1156       	844.9644       	844.7208       	844.8391       	843.96326      	843.85754      	843.9833       	844.73737      	844.0187       	844.1614       	844.3724       	844.59937      	844.25916      	844.3386       	844.5407       	844.96         	844.4564       	844.5995       	844.6899       	844.7532       	845.2105       	844.73346      	844.8001       	844.7486       	845.91925      	844.8471       	844.8493       	844.8119       	845.45984      	844.857        	844.7666       	844.685        	845.3417       	844.8839       	844.7944       	845.016        	844.862        	844.7753       	846.5971       	846.07214      	845.9983       	846.1735       	846.06476      	846.016        	845.9205       	846.24023      	844.94507      	844.8694       	845.37415      	844.9411       	844.82         	844.7976       	845.2272       	844.85645      	844.8191       	845.1321       	844.91565      	844.8819       	844.8687       	845.20593      	844.92163      	844.92096      	845.00446      	845.97375      	845.00696      	845.0358       	846.3622       	846.3902       	846.3288       	846.14844      	846.22894      	846.07086      	846.1111       	845.7944       	845.6596       	845.8529       	
842.56323      	842.3687       	841.4044       	844.1042       	841.4226       	841.7322       	842.4895       	842.6875       	842.55835      	842.61005      	842.5137       	842.5696       	842.4768       	842.50226      	842.4768       	842.7603       	841.22235      	841.3933       	841.22296      	841.25494      	842.33325      	842.1093       	842.1517       	841.0484       	842.13275      	842.3349       	842.3177       	842.05383      	842.1456       	841.1462       	841.2132       	841.3988       	841.6738       	841.9557       	841.54095      	841.6933       	841.8601       	842.38434      	841.6728       	841.85095      	841.9626       	842.08496      	841.9065       	841.95374      	841.9695       	842.20746      	841.9938       	842.0483       	841.9965       	842.0806       	842.045        	842.0344       	841.99506      	844.1703       	842.165        	842.0862       	842.0075       	843.4313       	842.11304      	842.2266       	842.3448       	842.08246      	843.50586      	843.0759       	842.985        	842.9633       	842.1497       	842.45764      	842.0813       	842.04755      	842.6741       	842.16754      	842.08704      	842.0652       	842.7966       	842.12115      	842.067        	842.05804      	842.5335       	842.1444       	842.1246       	842.1812       	842.53015      	842.1195       	842.1778       	842.51886      	842.1765       	842.2315       	842.30426      	842.571        	842.2599       	842.4625       	843.16766      	843.3506       	843.2972       	843.4502       	843.2577       	843.37964      	842.9988       	843.327        	
842.7164       	842.71484      	842.7194       	842.4896       	842.7422       	842.63806      	842.58734      	842.587        	842.8137       	842.32715      	842.3584       	842.2107       	842.1687       	842.3064       	842.5183       	842.1358       	842.3174       	842.0902       	841.9273       	841.7309       	841.9161       	841.8776       	841.9125       	841.9298       	842.1383       	841.66754      	841.65137      	841.6952       	841.0265       	840.67645      	840.89484      	841.11456      	840.8753       	841.0856       	841.2294       	841.50934      	841.1025       	841.26355      	841.43195      	841.2565       	841.2842       	841.3434       	841.3933       	841.9169       	841.35767      	841.37537      	841.3483       	841.55457      	841.39         	841.3526       	841.27936      	842.02954      	841.2894       	841.21844      	841.712        	841.27515      	841.11523      	840.9863       	841.6816       	840.9555       	841.0668       	841.0242       	840.9293       	841.3801       	840.97015      	840.9142       	842.72845      	840.9108       	840.85846      	841.6085       	840.88025      	840.791        	840.7392       	841.388        	840.8461       	840.7695       	840.789        	841.3805       	840.77954      	840.7146       	840.7406       	840.8113       	841.529        	840.6744       	840.71027      	840.769        	840.8333       	840.5159       	840.6042       	840.7418       	841.4885       	841.2434       	840.63855      	841.0652       	841.7089       	841.8235       	841.795        	841.5603       	841.39343      	841.8708       	
843.0139       	841.7253       	842.0226       	841.6899       	842.3561       	841.6603       	844.2931       	843.06616      	842.86584      	842.7628       	842.5309       	842.684        	842.7327       	842.4288       	842.7276       	842.58716      	842.3445       	842.5961       	842.3047       	841.19666      	841.5681       	841.1671       	841.52826      	841.1467       	841.49146      	841.1991       	842.297        	841.96216      	842.2678       	841.949        	842.43494      	841.3014       	841.4815       	841.7327       	841.8946       	842.2507       	841.72656      	841.8277       	841.91895      	842.1306       	841.9099       	841.91296      	841.8895       	842.12634      	841.8997       	841.9622       	841.9467       	842.03577      	842.76825      	842.8976       	842.7601       	842.32556      	841.8889       	841.8089       	842.4739       	841.8163       	841.7454       	843.20123      	842.5572       	841.776        	842.81384      	842.764        	842.9923       	842.84595      	842.2096       	841.67505      	842.2539       	841.6752       	841.61536      	842.36145      	841.6397       	841.5489       	841.564        	841.9945       	841.62054      	841.5276       	841.5614       	842.0408       	841.5361       	841.48016      	841.5551       	841.6555       	842.193        	841.4365       	841.4757       	841.53235      	841.9272       	841.5064       	841.5284       	841.5748       	842.88416      	841.4985       	841.5556       	843.20276      	841.564        	841.6286       	842.1855       	842.557        	842.6924       	842.8556       	
842.5426       	841.3954       	844.13214      	842.2543       	841.33215      	843.78906      	842.66266      	842.4695       	842.5179       	842.31354      	842.31573      	842.1982       	842.19055      	842.1278       	842.61145      	842.1283       	842.16046      	841.9936       	841.93365      	841.7881       	841.89124      	841.61554      	841.927        	841.12585      	840.7048       	841.7935       	841.74176      	840.79724      	842.6374       	841.2882       	841.0003       	841.2476       	841.46704      	841.7061       	841.3942       	841.4619       	841.6476       	841.74896      	841.9378       	841.6264       	841.67316      	841.67444      	841.67786      	841.6713       	841.66595      	841.65125      	842.62006      	842.679        	843.0722       	842.7539       	842.551        	841.6905       	841.6019       	841.9957       	841.5572       	844.3898       	842.6913       	842.3086       	842.7476       	842.38055      	842.4607       	842.54846      	842.73254      	842.345        	841.39655      	842.9073       	841.4005       	841.32715      	841.7452       	841.3367       	841.2814       	841.25055      	841.2884       	841.3379       	841.2281       	841.2394       	841.28754      	841.53284      	841.2064       	841.234        	841.3382       	841.8352       	841.1891       	841.29504      	841.37305      	841.5014       	841.42706      	841.28094      	841.37445      	841.4785       	841.98883      	841.30634      	841.3599       	841.4672       	841.64325      	841.385        	842.26434      	842.3183       	842.64557      	842.2035       	
843.3146       	843.269        	842.671        	843.7218       	842.6173       	845.2067       	843.5924       	843.74835      	843.661        	843.73773      	843.47644      	843.42017      	843.327        	843.4785       	842.95715      	842.1443       	843.4574       	843.1936       	843.1729       	843.097        	843.37683      	842.1765       	842.02277      	842.4521       	841.956        	842.9951       	843.122        	842.69507      	843.31445      	842.7825       	842.7754       	842.97406      	843.47504      	842.27106      	842.50476      	842.6298       	842.66266      	842.9063       	842.59576      	842.63635      	842.6127       	842.99445      	842.5601       	842.49976      	842.58777      	842.5317       	842.5222       	842.43713      	842.8839       	842.5115       	842.3959       	843.0592       	842.3856       	842.513        	843.3816       	843.6093       	843.5572       	843.2883       	842.9736       	843.2897       	843.20087      	843.1143       	842.01715      	842.0879       	842.04144      	841.93036      	841.95825      	841.9883       	841.84955      	841.8124       	842.4596       	841.817        	841.7656       	841.80817      	842.0442       	841.78345      	841.734        	841.80695      	841.8552       	842.3193       	841.69226      	841.7524       	841.82043      	841.93396      	841.6221       	841.6507       	841.7091       	841.8105       	842.35223      	841.5902       	841.6517       	841.7051       	841.9306       	841.6048       	841.67163      	842.6299       	842.31323      	842.49414      	842.7802       	842.64233      	
843.35803      	843.08295      	842.9677       	843.74316      	842.7935       	844.32544      	844.01245      	843.994        	843.84955      	844.048        	843.70245      	843.8817       	843.6504       	842.59766      	844.7613       	843.6651       	843.4265       	843.5187       	843.30865      	843.47876      	843.55707      	842.69763      	842.44916      	843.56055      	843.36914      	843.57654      	842.43933      	842.6032       	843.7545       	843.421        	843.3701       	843.3747       	843.8499       	842.9336       	843.1567       	843.7189       	843.1954       	843.3735       	843.3577       	843.3871       	843.34894      	843.37866      	843.35425      	843.4027       	843.41907      	843.31024      	843.2341       	843.91364      	843.38586      	843.2787       	844.01825      	843.37146      	843.23737      	843.5768       	843.2376       	843.3217       	843.22034      	843.09906      	843.748        	843.40625      	843.04846      	843.61774      	843.05457      	843.0306       	843.4329       	843.0354       	843.05176      	843.2374       	843.01074      	842.99927      	843.6853       	842.9781       	842.97296      	842.99713      	843.3981       	842.95996      	842.94104      	843.0251       	843.0978       	844.225        	842.9619       	843.0387       	843.13074      	843.203        	843.34515      	843.0107       	843.0735       	843.2246       	843.3822       	843.0116       	843.0455       	843.161        	843.56323      	843.0328       	843.07153      	843.1071       	843.69037      	843.1409       	843.13794      	843.1745       	
842.09375      	841.3086       	841.422        	841.293        	841.1952       	841.73804      	842.4272       	842.4092       	842.20996      	842.3458       	842.1363       	842.1147       	842.08685      	842.21985      	842.1337       	842.15656      	842.2208       	841.7109       	841.9004       	841.835        	841.92004      	842.17993      	841.94714      	842.0317       	841.67084      	841.64966      	840.98566      	841.16534      	841.5068       	841.27124      	841.47614      	841.68445      	841.46204      	841.6633       	843.12854      	842.72394      	841.66364      	841.7763       	841.8717       	841.77966      	841.8312       	841.73956      	841.99084      	841.84576      	841.7738       	841.6829       	842.47156      	841.7779       	841.6768       	842.5187       	841.80475      	841.709        	842.3808       	841.6832       	843.28326      	842.6637       	841.6116       	841.544        	841.94293      	841.4905       	842.0686       	841.5147       	841.4635       	842.08246      	841.48737      	841.4933       	842.07495      	841.4626       	841.52844      	841.5045       	841.42523      	841.45636      	841.98737      	841.53644      	841.5028       	841.50397      	841.6731       	841.7984       	841.5826       	841.6595       	841.7489       	842.1768       	841.5667       	841.63275      	841.6944       	841.8119       	841.8435       	841.5671       	841.7284       	841.77594      	842.3314       	841.6826       	841.69525      	841.7345       	842.36725      	841.7603       	841.7571       	841.88226      	842.57         	842.3705       	
842.1739       	842.0918       	841.5631       	842.0577       	841.50714      	842.89996      	842.6931       	842.5649       	842.4851       	842.3212       	842.41223      	842.4775       	842.1259       	842.2069       	842.17896      	842.2673       	842.0292       	841.93524      	840.9197       	841.9654       	841.96265      	841.7574       	841.8822       	841.97174      	841.9453       	841.40375      	841.0307       	841.5748       	841.0384       	841.30133      	841.62634      	841.2782       	841.48175      	841.6094       	842.20966      	841.77185      	841.55133      	841.59485      	842.4599       	841.5144       	841.482        	841.45953      	841.4985       	841.4047       	841.30316      	842.0748       	841.37213      	841.2617       	841.84576      	841.3406       	841.1982       	841.9592       	841.2737       	841.2737       	842.1798       	842.4795       	841.1462       	840.9755       	841.43787      	840.973        	840.912        	841.37317      	840.8828       	840.87634      	841.6045       	840.8956       	840.8659       	841.5898       	840.93274      	840.9089       	841.0276       	840.99         	840.9519       	840.9579       	840.9607       	841.5059       	840.9185       	840.9291       	840.98285      	841.1722       	840.8993       	840.9565       	841.026        	841.08636      	841.2742       	840.98236      	841.04535      	841.09534      	841.12006      	841.4862       	841.01276      	841.04596      	841.36285      	841.04407      	841.054        	841.0602       	841.2958       	841.475        	841.08746      	841.0897       	
843.4808       	843.4213       	843.60504      	843.4197       	843.42676      	844.39166      	844.9378       	844.3041       	844.4522       	844.4177       	844.1578       	844.2823       	844.26746      	844.09094      	844.17377      	844.01666      	844.211        	844.09753      	844.235        	844.1427       	843.9636       	843.7959       	844.0904       	844.0338       	843.434        	843.3024       	843.55164      	843.89856      	843.44305      	843.70575      	843.8376       	843.6558       	843.843        	844.516        	843.73895      	843.84125      	844.0622       	844.72235      	843.81635      	843.7927       	844.3569       	843.7717       	843.68176      	845.72864      	843.7183       	843.61926      	843.8471       	843.6846       	843.5536       	844.4222       	843.6367       	843.5009       	843.87634      	843.5278       	843.38763      	843.39154      	843.41516      	843.2631       	843.31964      	843.29596      	843.1748       	843.22864      	843.2064       	843.1583       	843.21625      	843.17944      	843.16547      	843.1552       	843.4443       	843.1071       	843.1276       	843.2126       	843.5167       	843.14355      	843.1793       	843.22943      	844.0108       	843.09906      	843.1907       	843.2372       	843.2927       	843.43445      	843.1151       	843.1939       	843.2302       	843.2613       	843.0356       	843.066        	843.13416      	843.1748       	843.55634      	843.0676       	843.0592       	844.11914      	843.0274       	843.0179       	842.98987      	847.1755       	843.54486      	843.01886      	
842.098        	842.0257       	842.0722       	843.13257      	843.4701       	843.3708       	842.9476       	843.12177      	843.0729       	842.83307      	842.9934       	842.9783       	842.86255      	843.0819       	842.7823       	842.96484      	842.7887       	842.8871       	842.8587       	842.9463       	842.6218       	843.0675       	842.62335      	843.0458       	842.3649       	842.1809       	842.46204      	842.542        	842.4398       	842.9675       	842.44794      	842.6911       	842.7731       	842.9675       	842.7357       	842.76495      	843.25946      	842.7921       	842.7299       	843.2507       	842.78516      	842.6901       	842.75165      	842.78094      	842.607        	842.5625       	842.9049       	842.5733       	842.5691       	842.7761       	842.5647       	842.52563      	842.64685      	842.50433      	843.0802       	842.5466       	842.38763      	842.82837      	842.44965      	842.31793      	842.8114       	842.415        	842.3959       	842.8232       	842.4118       	842.40625      	843.0634       	842.5108       	842.4831       	842.93494      	842.5499       	842.56354      	842.6036       	842.69617      	842.6563       	842.60974      	842.6966       	842.75085      	842.93585      	842.7324       	842.7898       	842.8346       	843.23694      	842.6992       	842.81195      	842.8458       	842.8974       	842.754        	842.8284       	842.8168       	843.92096      	842.7896       	842.78094      	844.30133      	842.78864      	842.78125      	842.793        	846.99304      	843.47925      	842.7935       	
841.4862       	841.46234      	842.64386      	842.66077      	842.55005      	842.5816       	842.4235       	842.4872       	842.4324       	842.5131       	842.09247      	842.3037       	842.4031       	842.22546      	842.1467       	842.087        	842.3024       	842.1319       	842.10736      	842.3779       	842.1229       	842.24036      	842.2273       	842.5805       	841.4884       	841.67883      	842.0368       	841.6814       	841.8832       	842.02594      	841.8433       	842            	842.4396       	841.98035      	841.9664       	842.55774      	841.9739       	841.8931       	842.23364      	841.913        	841.76825      	842.38226      	841.8171       	841.6557       	842.36206      	841.689        	841.538        	842.08246      	841.65106      	841.5264       	841.96375      	841.5763       	841.46716      	841.977        	841.5293       	841.42816      	842.0601       	841.44965      	841.35156      	842.1849       	841.39856      	841.3448       	841.76965      	841.40436      	841.3814       	841.62085      	841.4884       	841.4929       	841.5267       	841.8571       	841.5123       	841.53265      	841.55756      	841.95715      	841.5491       	841.6108       	841.6611       	842.00055      	841.5511       	841.70013      	841.726        	841.8301       	841.5608       	841.6741       	841.71875      	841.8047       	841.55316      	841.5824       	841.602        	842.2693       	841.5606       	841.5604       	842.1723       	841.5287       	841.4909       	841.84106      	841.5406       	841.494        	841.47076      	841.45386      	
843.0409       	842.8877       	842.8199       	842.7743       	842.9365       	842.6522       	842.7217       	842.73254      	842.6257       	842.59644      	842.5995       	842.57526      	842.5649       	842.5592       	842.6327       	842.4125       	842.5015       	842.48145      	842.4495       	842.8115       	842.7742       	842.3167       	842.52277      	841.7782       	842.0094       	842.1051       	842.01324      	842.19635      	842.61786      	842.1827       	842.29596      	842.6674       	842.2327       	842.25574      	842.55396      	842.1926       	842.5779       	842.25134      	842.11426      	842.7433       	842.1353       	841.9556       	842.62726      	841.99133      	841.8129       	842.61774      	841.87415      	841.83563      	841.982        	841.8037       	841.90247      	841.8522       	841.7012       	842.11816      	841.721        	841.6211       	843.0931       	841.6964       	841.5983       	841.9739       	841.63635      	841.5999       	841.85944      	841.6682       	841.6892       	842.0585       	841.6588       	841.7588       	841.8235       	842.06433      	841.7403       	841.8104       	841.9251       	841.80005      	841.8047       	841.8612       	841.9576       	842.09174      	841.87427      	841.9032       	841.92786      	842.55945      	841.8357       	841.8932       	841.9485       	841.9121       	841.8546       	841.8795       	841.90247      	842.1726       	841.8438       	841.7704       	841.8227       	841.79144      	841.7304       	841.6876       	842.06696      	841.77747      	841.709        	841.7086       	
842.6415       	842.61285      	842.4964       	842.42505      	842.3704       	842.29913      	842.28485      	842.2393       	842.2528       	842.3517       	842.19617      	842.1588       	842.0562       	841.9319       	842.321        	841.96375      	842.2836       	842.0651       	842.2149       	842.1898       	841.9571       	842.2213       	842.0712       	841.4125       	841.5855       	841.8796       	841.5984       	841.76697      	842.1667       	841.7115       	841.79144      	842.8534       	842.46027      	841.7432       	841.68176      	842.17847      	841.6431       	841.625        	841.6752       	841.48706      	842.0685       	841.5409       	841.317        	842.7308       	841.3897       	841.26337      	841.8014       	841.33777      	841.2387       	841.81226      	841.2556       	841.2363       	841.337        	841.2025       	841.67444      	841.2538       	841.12445      	842.49744      	841.1837       	841.1173       	841.7808       	841.13293      	841.1575       	841.68677      	841.1915       	841.2458       	841.91986      	841.2676       	841.36743      	841.83765      	841.36597      	841.3938       	841.898        	841.3724       	841.3951       	841.4545       	843.05383      	841.4547       	841.4739       	841.56085      	841.55566      	841.83374      	841.49536      	841.5254       	841.4794       	842.3386       	841.54175      	841.49097      	841.4459       	842.1061       	841.44604      	841.3749       	842.0111       	841.40027      	841.3686       	841.9228       	841.403        	841.338        	841.2844       	842.12946      	
842.99646      	842.7156       	843.07007      	842.7581       	842.97034      	842.8471       	842.82056      	842.8168       	842.79114      	842.7774       	842.7936       	842.7556       	842.6634       	842.8128       	842.49963      	842.7063       	842.8943       	842.7754       	842.8324       	842.4778       	842.777        	842.69855      	842.6171       	842.0612       	842.58246      	842.1271       	842.26355      	842.655        	842.2334       	842.3396       	842.39465      	842.6484       	842.30206      	842.4135       	842.79504      	842.1833       	842.3236       	842.22363      	842.0518       	842.5294       	842.016        	841.82104      	842.4954       	841.8675       	841.74084      	842.1868       	841.7263       	842.24603      	841.7888       	841.69214      	842.1942       	841.7132       	841.62915      	842.1645       	841.5842       	841.5638       	841.99805      	841.5352       	841.4813       	842.0169       	841.5166       	841.626        	842.0225       	841.5706       	842.7626       	841.58234      	841.66003      	842.18427      	841.6182       	841.84735      	841.6484       	841.7037       	841.79926      	841.82825      	841.75134      	841.7659       	841.88324      	841.67285      	841.7467       	841.71783      	841.7183       	842.3125       	841.7231       	841.76654      	841.7169       	842.4883       	841.70575      	841.6539       	841.6267       	842.28357      	841.6106       	841.5501       	842.3458       	841.5794       	841.5173       	841.46216      	842.25385      	841.569        	841.46747      	841.49084      	
841.77515      	842.6806       	842.8604       	842.7302       	842.9421       	842.69574      	842.5026       	842.96265      	842.5449       	842.6573       	842.56323      	842.7403       	842.56946      	842.4811       	842.7014       	842.7149       	842.52356      	842.807        	842.8312       	842.5502       	842.57965      	842.7133       	842.82715      	842.8686       	843.2358       	842.9436       	842.2385       	842.3099       	842.8185       	842.32465      	842.26373      	842.7689       	842.2351       	842.119        	842.5238       	842.0619       	842.40894      	842.0618       	841.8894       	842.4987       	841.8607       	841.69244      	842.3523       	841.7319       	841.8626       	841.8089       	841.655        	842.2096       	841.6829       	842.22394      	842.6059       	842.22144      	841.6481       	842.1061       	841.61755      	841.5905       	842.0137       	841.64844      	841.648        	841.9615       	841.65985      	841.72687      	842.02435      	841.6892       	841.84576      	842.3444       	841.8327       	842.07355      	841.82916      	841.9101       	842.90845      	841.9498       	841.9776       	842.17163      	841.9968       	842.00885      	842.2995       	842.00696      	842.05963      	841.9989       	842.3507       	842.0101       	842.0009       	841.963        	842.3486       	841.9887       	841.9088       	841.95544      	841.95905      	841.88074      	841.8277       	842.5915       	841.87103      	841.7848       	842.54193      	841.83167      	841.7567       	845.3572       	842.2761       	841.8319       	
845.4938       	841.73645      	842.1609       	841.69055      	842.07056      	842.5526       	842.8082       	842.73395      	842.67114      	842.5728       	842.8043       	842.6724       	842.6471       	842.5979       	842.4716       	842.7019       	842.64355      	842.8614       	842.5709       	842.6313       	842.68036      	842.59344      	842.96515      	842.80634      	843.03326      	842.73865      	842.0894       	842.2601       	842.99207      	842.64984      	842.0995       	841.92633      	842.5502       	841.9726       	841.778        	842.5553       	841.79974      	842.16833      	841.7651       	841.5473       	842.139        	841.5111       	841.43054      	841.7348       	841.4184       	841.80927      	841.423        	841.4288       	841.6383       	841.4014       	841.78357      	841.42395      	841.727        	841.4817       	841.4732       	842.095        	841.5075       	841.4704       	841.50287      	842.0264       	841.4603       	841.5615       	842.1661       	841.5465       	841.60876      	845.5638       	841.6467       	841.7042       	842.1098       	841.7311       	841.9023       	841.87506      	843.0919       	841.7999       	841.8439       	842.1671       	841.82605      	841.81744      	841.8046       	842.09015      	841.7898       	841.78516      	842.1446       	841.8697       	841.8285       	842.4151       	841.7493       	841.68726      	841.66156      	841.7242       	841.62885      	841.7577       	841.6513       	841.6459       	842.8181       	841.8572       	841.5986       	842.11285      	841.57153      	841.4973       	
841.90015      	841.82684      	841.9058       	842.09735      	841.8604       	842.9987       	842.89526      	842.413        	842.8829       	842.74524      	842.54663      	842.7994       	842.811        	842.94403      	842.8446       	842.7481       	842.766        	843.11255      	842.6875       	842.8528       	842.71606      	843.08386      	842.9075       	842.9107       	843.2588       	843.05695      	843.13245      	842.9799       	843.2793       	842.18726      	842.0541       	842.6218       	842.0111       	841.83246      	842.55347      	841.87885      	841.65845      	842.1555       	841.7032       	841.9424       	842.66125      	841.5766       	841.4219       	842.1315       	841.4785       	841.6188       	842.5812       	842.43646      	841.9922       	841.4567       	844.56226      	842.61914      	842.81696      	841.63776      	841.49384      	841.9877       	841.5026       	841.4864       	842.0726       	841.5199       	841.5807       	841.69135      	842.1751       	841.606        	841.8092       	841.61707      	841.6809       	842.0579       	841.73834      	841.82135      	842.6461       	842.63696      	842.89606      	842.88         	842.93567      	843.14813      	842.5616       	841.8567       	841.85297      	842.3935       	841.84937      	841.8046       	842.2321       	841.7909       	841.73236      	842.00745      	841.76697      	841.7023       	842.061        	841.6205       	843.25714      	843.0084       	842.83325      	842.51526      	842.8089       	842.89087      	842.90265      	842.80945      	842.7423       	842.8206       	
842.2032       	841.9923       	842.4353       	841.8997       	842.046        	842.35364      	841.95935      	842.3865       	842.70215      	842.8255       	843.1101       	843.003        	843.1013       	842.86395      	843.0156       	842.8095       	843.0362       	842.95715      	842.95026      	843.01794      	843.0509       	843.1263       	842.9206       	842.98773      	843.1999       	843.22046      	843.41223      	843.24445      	843.32574      	843.0918       	843.37866      	842.9684       	842.0198       	841.8118       	843.1658       	842.9669       	842.4532       	841.71686      	841.82965      	841.7247       	841.53723      	841.9202       	841.5304       	841.60046      	842.4304       	842.6353       	842.54         	841.54584      	844.06335      	841.5274       	843.10846      	842.5077       	842.6025       	842.5459       	842.5348       	841.76465      	841.65045      	841.7706       	842.1552       	841.69696      	841.83606      	842.2216       	841.79364      	841.9244       	841.7974       	841.88025      	842.85187      	843.19684      	842.6442       	843.2382       	843.01715      	843.12946      	842.9556       	843.00775      	842.8812       	842.6935       	842.40405      	841.99347      	841.9424       	842.5234       	842.0128       	841.9317       	842.6012       	841.95325      	841.9063       	842.45715      	841.8883       	841.9378       	841.85223      	841.7916       	843.1769       	843.1395       	842.95746      	843.213        	842.8027       	843.0113       	843.02905      	843.12683      	843.1391       	843.1999       	
841.1467       	841.35004      	841.1591       	841.24567      	841.314        	841.47943      	841.26764      	841.38367      	841.75476      	841.37103      	842.7102       	842.4537       	842.0922       	842.36487      	842.23004      	842.4105       	842.37805      	842.42926      	842.50476      	842.33765      	842.2484       	842.14856      	842.3236       	842.3522       	842.54987      	842.4952       	842.5826       	842.4145       	842.74896      	842.3819       	842.37036      	842.3139       	841.7877       	841.1475       	842.1173       	842.2797       	842.29517      	842.19525      	841.9474       	840.87085      	841.0556       	840.8701       	840.7362       	841.29114      	840.7743       	840.9877       	841.6898       	841.28217      	840.88794      	842.3493       	841.9935       	841.9472       	841.98346      	841.8512       	842.32587      	841.0378       	841.10486      	841.2157       	841.57837      	841.13965      	841.2793       	841.27844      	841.35095      	842.1192       	841.2532       	841.3394       	841.8931       	842.3272       	842.4898       	842.3837       	842.5217       	842.4655       	842.7484       	842.5508       	842.78613      	842.6387       	841.50336      	841.4473       	841.75494      	841.5128       	841.4303       	841.42865      	841.4929       	841.3943       	841.3555       	841.84973      	841.32434      	845.03937      	841.3393       	841.2606       	842.19073      	842.5085       	842.3915       	842.8343       	842.5562       	842.44434      	842.526        	842.6501       	842.5917       	842.92804      	
841.1804       	841.1222       	841.16223      	841.24835      	841.4843       	841.1759       	841.24274      	841.83044      	841.2296       	841.32654      	841.7689       	841.3343       	841.9721       	842.3883       	842.08655      	842.45154      	842.3786       	842.5274       	842.3858       	842.40906      	841.4511       	841.35144      	844.2198       	842.4985       	842.15424      	842.6102       	842.302        	842.65564      	842.3102       	842.28314      	842.2836       	841.9228       	842.17456      	841.9196       	842.1801       	842.03186      	840.8626       	840.6388       	841.36664      	840.62964      	841.0357       	840.65656      	840.7743       	840.6262       	840.63025      	841.10394      	840.64294      	840.8848       	841.52466      	840.68854      	841.3116       	841.8705       	841.6254       	841.89716      	840.8578       	840.89124      	841.03937      	841.1888       	840.9569       	841.0843       	841.41693      	841.0374       	841.185        	841.0053       	841.07446      	841.3663       	841.1111       	841.859        	842.09644      	841.21106      	842.1957       	842.38794      	842.1399       	841.67737      	841.16736      	842.9225       	841.21375      	841.1423       	841.81726      	841.1547       	841.0554       	841.85394      	841.09143      	841.0107       	841.2136       	841.06683      	841.00183      	841.6416       	840.9686       	840.9088       	841.50433      	840.8229       	842.24677      	842.2029       	842.10767      	841.8743       	841.9476       	842.0878       	842.49274      	842.18945      	
841.976        	841.3841       	841.526        	841.39734      	841.462        	841.69666      	841.3694       	841.3868       	842.0575       	841.4435       	841.4225       	841.8255       	841.4857       	841.52826      	842.704        	842.4438       	842.2765       	842.57294      	842.5937       	841.4044       	841.4223       	841.9866       	841.42224      	841.3585       	842.8017       	842.5543       	842.4889       	842.44604      	842.3456       	842.16693      	842.0713       	842.28265      	842.2077       	841.9336       	842.10516      	840.8633       	840.7196       	841.3066       	840.6406       	842.8231       	840.64526      	840.58093      	841.0423       	840.5964       	841.4633       	841.45465      	840.6498       	841.072        	841.75476      	841.9288       	841.86597      	841.9239       	840.80927      	840.85645      	841.7319       	841.5921       	842.00616      	840.90454      	840.9593       	841.92035      	840.9437       	841.03644      	841.35016      	840.9977       	842.88184      	841.0712       	841.49084      	841.10614      	841.2319       	842.1758       	842.4584       	842.4813       	842.13806      	841.64636      	841.15594      	841.4093       	841.1656       	841.06775      	841.87726      	841.0961       	841.0107       	841.4823       	841.0957       	840.97266      	841.0625       	840.9903       	840.9018       	841.60297      	840.9556       	840.95636      	841.135        	840.79944      	842.42584      	842.0598       	842.05176      	842.1595       	842.0294       	841.85864      	842.0148       	842.2698       	
842.6436       	842.1702       	842.45087      	842.1436       	842.1386       	842.1492       	842.628        	842.19476      	842.8676       	842.22974      	842.2284       	843.4248       	842.3837       	842.28577      	842.4774       	843.547        	843.3202       	843.2562       	843.3354       	843.57654      	842.22864      	842.14124      	843.5306       	842.1687       	841.9901       	842.6237       	843.03546      	843.0199       	843.0004       	842.9606       	842.694        	842.97864      	842.6524       	842.86884      	842.5429       	842.4882       	842.70184      	842.4524       	841.3685       	841.6355       	842.6002       	842.58954      	841.34283      	841.3708       	842.3428       	842.1262       	842.17035      	841.38336      	841.4968       	842.26636      	842.29987      	842.2614       	841.66956      	841.63245      	842.09436      	841.6271       	841.70245      	841.91565      	841.7888       	841.6908       	841.8278       	841.6898       	841.7184       	842.0106       	841.73834      	844.2562       	842.9838       	842.8207       	842.8495       	842.76733      	843.057        	843.1156       	841.832        	841.739        	842.4192       	841.7569       	841.67377      	842.1476       	841.6725       	841.6396       	841.9955       	841.6407       	841.5598       	842.13         	841.5234       	841.5917       	841.5554       	841.4985       	841.926        	841.43933      	841.9385       	841.4376       	841.47406      	842.7384       	842.584        	842.60095      	842.74615      	842.76587      	842.752        	842.69006      	
842.5873       	842.6296       	842.5768       	843.95013      	842.644        	842.59546      	844.2478       	843.9348       	843.6558       	842.74615      	842.5868       	843.2965       	842.6495       	842.6028       	843.5442       	843.8549       	843.9022       	844.04254      	843.7418       	842.6546       	842.56726      	843.21387      	842.5502       	842.5712       	842.84467      	842.4677       	842.2741       	843.4441       	843.3808       	843.6016       	843.4182       	843.27386      	843.0466       	843.4251       	843.4413       	841.9939       	841.872        	842.39594      	841.9237       	842.4478       	841.9401       	841.9813       	842.2765       	841.9919       	842.39215      	842.0456       	842.1542       	843.28577      	842.1601       	842.24634      	843.1445       	842.9683       	843.264        	843.23364      	843.3698       	842.34204      	842.41565      	842.63416      	842.3726       	842.4431       	842.64886      	842.6003       	842.4653       	843.67816      	843.59955      	843.5719       	843.41547      	843.7846       	843.40717      	843.5908       	843.72864      	843.39197      	843.8955       	843.2376       	842.48785      	842.68756      	842.51526      	842.3595       	843.19556      	842.443        	842.34534      	844.0035       	842.3512       	842.2614       	842.60095      	842.2819       	842.19507      	843.00024      	842.2041       	842.18225      	842.83234      	842.1403       	842.8392       	842.1745       	842.26624      	843.1628       	843.4879       	843.301        	843.48254      	843.5323       	
842.7571       	842.2208       	842.15344      	842.08246      	842.0179       	842.7545       	842.1771       	842.0655       	843.04517      	842.18933      	842.0912       	842.6688       	842.20734      	842.12994      	842.8542       	842.14777      	842.7064       	842.2239       	842.1172       	842.7146       	842.14105      	842.0074       	842.5065       	842.09247      	841.9229       	842.4369       	841.9981       	841.84796      	843.11633      	842.956        	843.1071       	842.7314       	842.726        	842.20514      	841.55927      	842.0502       	841.53516      	841.57104      	842.86523      	842.4378       	842.7276       	842.4807       	841.98895      	841.6208       	842.35925      	842.0081       	841.7123       	842.7392       	842.86694      	841.79004      	841.9552       	842.3907       	841.9612       	842.0954       	842.1659       	842.1187       	842.15247      	842.57855      	842.0692       	842.2177       	842.6402       	842.11005      	842.3774       	842.81647      	842.87585      	842.9862       	843.29614      	843.202        	842.6233       	842.2076       	844.879        	843.4049       	843.3689       	842.57855      	842.102        	842.3824       	842.15564      	842.0406       	842.55493      	842.05695      	841.94366      	842.8228       	842.05005      	841.94934      	842.8165       	842.03094      	841.976        	842.47327      	841.9726       	841.95807      	842.3825       	841.9591       	844.9183       	842.0188       	842.125        	842.8522       	843.0414       	843.23254      	843.3721       	843.57654      	
841.794        	842.4909       	841.7476       	841.62427      	842.16003      	841.78033      	841.67834      	842.0481       	841.80023      	841.7169       	841.83716      	841.87866      	841.7677       	843.0398       	841.86145      	841.7663       	842.4669       	841.78064      	842.2535       	841.81573      	841.6775       	842.06586      	841.7543       	841.53455      	842.0446       	841.68726      	841.4901       	841.46         	842.6394       	842.34186      	842.59283      	842.6286       	842.2679       	842.4931       	842.3222       	841.14606      	841.1827       	842.2686       	841.95734      	842.2528       	841.9706       	842.3063       	842.1124       	842.13794      	841.8593       	841.29565      	841.48773      	842.47485      	841.4562       	841.62823      	841.7895       	841.5974       	841.9604       	841.5956       	841.69495      	841.85016      	841.64484      	841.6689       	842.1065       	841.68945      	841.70966      	842.0113       	841.69714      	842.38434      	842.5374       	842.97437      	843.0646       	842.9653       	842.73834      	843.05505      	841.80884      	842.70764      	841.76196      	841.7628       	841.6878       	841.52515      	842.1887       	841.5878       	841.5611       	841.638        	841.4935       	841.44446      	842.1313       	841.4887       	841.426        	842.2422       	841.50104      	841.442        	842.139        	841.4695       	841.5257       	841.87726      	841.52576      	842.0942       	841.44836      	841.5936       	841.7972       	841.53455      	842.96875      	842.8744       	
842.4181       	842.4518       	842.31323      	843.27826      	842.48627      	842.3658       	842.29913      	842.8069       	842.3893       	842.2087       	843.04114      	842.4423       	842.3101       	842.7846       	842.33704      	843.7242       	842.7836       	842.27637      	842.93024      	842.3396       	842.1663       	842.5375       	842.2493       	842.06177      	843.91144      	842.05084      	841.89166      	842.8277       	843.0359       	843.13873      	842.7913       	843.0087       	842.63745      	842.9234       	842.69293      	842.4561       	842.6861       	842.0101       	841.62604      	842.1774       	842.6273       	842.8207       	842.6098       	841.8253       	842.06226      	841.84106      	842.3258       	841.8614       	842.1853       	841.9322       	842.0411       	842.6989       	842.0012       	842.0736       	842.79974      	842.0051       	842.0826       	842.864        	842.01996      	842.03754      	842.39215      	842.01575      	842.71375      	842.956        	843.28674      	843.11597      	843.207        	843.1963       	843.2465       	843.2545       	843.0433       	843.2037       	842.9133       	842.1507       	841.83203      	842.2963       	841.85156      	842.1246       	841.8817       	841.745        	842.3183       	841.7811       	841.66284      	841.75104      	841.76697      	841.6439       	841.66144      	841.8185       	841.5948       	841.84515      	841.6038       	841.62494      	841.89545      	841.6635       	842.0091       	841.6029       	843.1019       	843.1764       	843.061        	843.3122       	
843.1146       	843.5807       	843.1488       	842.981        	843.87274      	843.2126       	843.05774      	843.0225       	843.2751       	843.1156       	843.047        	843.57544      	843.1522       	843.6752       	843.1056       	844.54553      	844.3298       	843.12476      	843.0166       	843.61         	842.9905       	842.8702       	843.3645       	842.94507      	842.93134      	842.949        	842.77094      	842.81165      	843.57477      	843.87573      	843.5739       	843.77905      	843.8352       	843.6709       	843.9245       	843.6494       	842.78253      	842.7116       	843.5211       	843.431        	843.75824      	842.7624       	843.06696      	842.9941       	842.99146      	844.0655       	843.1462       	843.0987       	843.51013      	843.1398       	843.29517      	843.6586       	843.17706      	843.2473       	843.5604       	843.1905       	843.2177       	843.6322       	843.1817       	843.827        	843.11304      	843.1335       	844.1035       	844.20966      	844.2481       	844.3403       	844.25934      	844.22876      	844.31744      	844.2716       	844.1505       	844.1681       	844.11145      	844.0486       	844.2222       	842.92487      	842.76294      	843.25134      	842.8279       	842.75446      	843.56635      	842.74615      	842.7141       	843.4841       	842.7923       	842.77185      	843.2213       	842.75336      	842.76306      	843.2497       	842.7733       	842.8701       	843.33215      	842.77966      	842.9759       	842.74274      	843.97656      	844.05725      	844.15326      	844.28455      	
843.6405       	842.74915      	843.6631       	842.9746       	842.75         	842.6021       	843.5358       	842.82104      	842.653        	843.4867       	843.8927       	843.86884      	843.672        	842.72406      	843.93427      	843.8315       	844.1243       	843.99304      	843.65826      	842.672        	842.6415       	842.6823       	842.5196       	844.1485       	842.556        	842.44104      	843.6679       	842.45325      	842.36237      	843.6848       	843.68665      	843.4438       	843.4031       	843.19324      	843.35547      	843.4952       	843.09625      	843.17633      	843.36145      	843.41156      	843.403        	843.25916      	843.4985       	843.6147       	843.7894       	843.5804       	843.23474      	843.00195      	843.2483       	842.9838       	843.14026      	843.4003       	843.0347       	843.14996      	843.50903      	843.0499       	843.1926       	842.9783       	842.9329       	843.4401       	842.94446      	843.0953       	843.8533       	844.09265      	843.8956       	844.0345       	843.7536       	844.3129       	844.0452       	844.0604       	844.13446      	844.1275       	844.04         	843.9293       	843.6758       	843.99835      	843.15015      	842.639        	843.2958       	842.705        	842.59753      	843.3251       	842.73865      	842.8099       	842.74774      	842.7089       	843.04517      	842.74097      	845.32574      	844.0771       	843.8428       	843.8469       	843.88385      	844.0398       	843.1185       	842.74457      	843.1152       	843.19727      	842.78156      	845.99384      	
844.038        	844.7724       	843.9704       	843.73865      	843.6589       	844.3391       	843.7575       	843.6097       	844.1823       	843.74426      	844.67957      	845.1786       	844.72473      	843.7016       	844.81555      	844.9457       	844.62555      	843.608        	844.05634      	843.5498       	843.48926      	843.8656       	843.41705      	843.544        	843.43744      	843.3275       	843.483        	843.30493      	843.2539       	844.4354       	844.2774       	844.31415      	844.40234      	844.12396      	844.15625      	844.1572       	843.9978       	844.1963       	844.4021       	844.29364      	844.3717       	844.4255       	844.45905      	844.44336      	844.5821       	844.6035       	843.6075       	843.7174       	844.11725      	843.7213       	843.79694      	844.28845      	843.7065       	843.73047      	844.01636      	843.69617      	843.6151       	844.12427      	843.6078       	843.54486      	844.0995       	843.53424      	844.9975       	844.8395       	844.8982       	844.8683       	844.403        	844.4935       	844.7065       	844.74963      	844.889        	844.7835       	844.73315      	844.6276       	844.35864      	843.8718       	843.25696      	843.4242       	843.304        	843.2364       	843.5608       	843.1977       	843.23694      	843.51013      	843.17584      	843.94666      	843.1671       	843.1677       	843.77606      	844.504        	844.3565       	844.20514      	844.3788       	844.59973      	844.2362       	843.26575      	843.4082       	843.7585       	843.27014      	846.6024       	
843.89484      	844.4541       	843.88336      	843.73865      	843.6405       	844.36804      	843.8185       	843.6934       	844.4132       	843.8147       	844.4909       	843.88214      	843.809        	844.88416      	845.3206       	845.1659       	844.8757       	843.90375      	844.2797       	843.84375      	843.79596      	844.43365      	843.77844      	843.72894      	844.17926      	843.81213      	843.7402       	844.01404      	843.6855       	843.7281       	844.3964       	844.69586      	843.72174      	844.9849       	844.6927       	844.73773      	844.8613       	844.7563       	844.9351       	844.8443       	845.2009       	844.9933       	845.0751       	845.32184      	844.25757      	844.4808       	844.7214       	844.47266      	844.65045      	844.43494      	844.49677      	845.77747      	844.5088       	844.45795      	846.0885       	844.4948       	844.3785       	844.8266       	844.3764       	844.52496      	844.36523      	844.3093       	845.27496      	845.6135       	845.61127      	845.54535      	845.365        	845.6377       	845.5204       	845.6392       	845.58307      	845.6166       	845.58984      	845.16376      	845.7597       	844.92145      	844.1966       	844.36         	844.2086       	844.0909       	844.7731       	844.2139       	844.1765       	844.7692       	844.18256      	844.4          	844.2374       	844.22144      	845.48334      	845.28723      	845.18646      	845.45483      	845.26636      	844.30835      	844.8581       	844.82227      	844.4088       	847.5632       	844.668        	844.41595      	
842.65015      	841.66907      	842.41986      	841.8144       	841.6452       	842.7125       	841.8417       	841.7448       	842.0531       	841.86096      	841.75977      	842.37823      	841.8637       	843.1687       	843.214        	842.94135      	843.0201       	843.07574      	842.1954       	841.7955       	842.143        	841.8113       	841.80084      	841.85547      	842.10846      	841.8321       	841.8913       	842.3666       	841.833        	842.17285      	842.50037      	842.88904      	842.6536       	842.20416      	842.14716      	843.0056       	843.2011       	843.0849       	843.07806      	842.8694       	843.16046      	843.2997       	842.90076      	842.5863       	843.6483       	842.7465       	842.6563       	843.5902       	842.6523       	842.6865       	843.1726       	842.7187       	842.73596      	842.9862       	842.6062       	843.65845      	843.78894      	842.82007      	842.5058       	842.9592       	842.5088       	842.86957      	842.4994       	843.8904       	843.63434      	843.6768       	843.78876      	843.727        	843.89844      	843.84644      	843.8712       	843.8385       	843.82227      	843.83325      	842.9015       	842.4855       	842.9067       	842.50586      	843.26685      	842.547        	842.4922       	843.13794      	842.48804      	842.6189       	842.6181       	842.61847      	843.4378       	843.751        	843.5782       	844.0637       	844.0665       	844.0308       	843.79987      	843.871        	843.7208       	842.83636      	843.14355      	843.3837       	842.9523       	845.7855       	
842.2157       	841.4809       	841.4629       	841.6575       	841.46136      	841.3305       	842.1607       	841.4999       	841.4396       	842.0261       	842.9866       	842.90753      	842.5446       	842.82196      	842.54004      	842.62415      	842.5436       	842.57574      	841.4355       	841.42773      	841.88367      	841.35394      	841.45636      	842.2504       	841.2958       	841.37335      	841.5019       	841.7235       	841.34534      	841.57086      	841.664        	842.40436      	842.4979       	842.0615       	841.44055      	841.86237      	842.41394      	842.3534       	842.5649       	842.389        	842.5387       	842.2022       	842.6709       	842.8688       	842.721        	841.86523      	841.9656       	842.33325      	841.9153       	842.4234       	841.928        	841.89087      	842.27765      	841.80725      	841.76575      	842.5209       	842.97205      	842.6104       	842.33234      	841.69696      	842.14954      	841.6835       	842.57434      	842.7445       	842.73004      	842.64606      	842.83716      	842.45874      	842.6723       	842.78906      	843.00287      	842.6111       	842.80664      	842.57446      	842.8093       	842.7562       	841.4303       	841.3316       	841.725        	841.3436       	842.0079       	841.4218       	841.32556      	842.01495      	842.3448       	842.4137       	842.4298       	842.37085      	842.5494       	842.4011       	842.5836       	841.4926       	841.80475      	841.68524      	841.59485      	842.0765       	841.5944       	842.0956       	841.78284      	844.494        	
842.90106      	842.2908       	842.19653      	843.05054      	842.3373       	842.21497      	842.8767       	842.3086       	842.2605       	843.6706       	843.3724       	843.3975       	843.33655      	843.28394      	843.54816      	843.39325      	842.57         	842.3121       	843.3531       	842.1949       	843.0618       	842.1833       	842.2123       	842.2628       	844.087        	842.1467       	842.3158       	842.53864      	842.6605       	842.2654       	842.7606       	843.1859       	842.2995       	842.61975      	842.3009       	842.7979       	843.21027      	843.2937       	843.2305       	843.0713       	843.5345       	843.567        	843.65894      	843.44403      	843.9307       	843.6113       	842.7428       	844.3158       	842.6812       	842.793        	842.63153      	842.56976      	843.09204      	842.5075       	844.0706       	843.70087      	843.62897      	843.335        	843.48816      	843.43164      	843.2931       	843.47565      	843.32874      	843.73413      	843.3644       	843.3647       	843.46155      	843.3769       	843.39453      	843.4526       	843.4096       	843.60516      	843.51697      	843.3717       	843.4505       	843.6429       	842.4652       	842.08167      	842.2823       	842.02563      	841.9864       	842.60504      	842.0356       	842.7216       	843.07996      	842.90564      	843.1794       	843.3004       	843.0067       	843.2789       	843.26624      	842.85126      	842.1091       	842.4399       	842.1278       	842.69867      	842.48804      	843.87         	844.05664      	843.691        	
842.7607       	842.5565       	843.39197      	842.7096       	842.6054       	843.3193       	842.67786      	842.59955      	843.31055      	842.65027      	842.88855      	843.65265      	843.4605       	843.87085      	843.7105       	843.6557       	843.88025      	843.727        	843.77026      	843.76245      	842.7175       	842.7923       	842.9239       	842.9395       	842.69977      	842.85266      	843.20953      	842.70874      	842.8829       	843.0367       	843.2146       	842.8844       	843.4366       	842.849        	843.1622       	843.0945       	843.11725      	843.5782       	844.0522       	843.8629       	843.1846       	843.9481       	843.50085      	843.4964       	844.2426       	844.183        	844.3004       	843.29034      	843.2076       	843.6959       	843.20386      	843.69714      	844.26715      	844.4413       	843.0142       	843.03546      	843.9421       	842.8495       	844.1475       	844.2195       	843.5488       	843.9275       	843.86554      	844.3075       	843.85223      	844.0577       	843.8542       	844.06555      	844.1694       	843.9474       	844.1607       	843.9481       	844.2096       	844.02106      	843.9322       	844.00385      	843.8673       	843.6791       	844.02576      	843.97974      	844.011        	843.654        	843.9635       	843.67017      	843.9846       	843.9336       	843.89294      	843.6271       	843.95874      	843.76984      	842.838        	843.2367       	843.78815      	842.9068       	843.4506       	842.95703      	843.4177       	842.9991       	844.3816       	844.55774      	
842.77594      	842.7416       	843.53345      	842.8397       	842.73083      	842.8555       	842.862        	842.82196      	842.89935      	843.6733       	844.227        	843.68427      	843.8486       	843.9374       	843.9343       	844.02875      	842.904        	842.9372       	843.1383       	842.90295      	842.99304      	843.3464       	842.811        	842.98254      	843.12146      	843.58997      	842.9798       	843.1427       	843.32446      	843.62695      	843.14355      	843.34564      	843.679        	843.1835       	843.81635      	844.24945      	843.2462       	843.44055      	844.1899       	844.226        	843.3417       	845.8456       	844.2503       	844.0206       	844.4186       	844.41907      	844.66046      	844.3496       	843.50226      	843.3148       	844.3556       	844.6278       	844.33203      	844.41364      	844.06354      	844.4202       	844.38904      	844.33685      	844.135        	843.98645      	844.44464      	844.08014      	844.0449       	844.1595       	844.1243       	844.2433       	844.05035      	844.0983       	844.25195      	844.17535      	844.2811       	844.1745       	844.2132       	844.2977       	844.16956      	844.06354      	844.09143      	843.93286      	844.11536      	843.6798       	844.0564       	843.74084      	844.2357       	843.77545      	844.13153      	844.13385      	843.8421       	844.01074      	844.04596      	844.1072       	844.2936       	844.365        	844.39484      	843.35046      	843.4531       	843.5712       	845.6429       	843.4807       	846.07086      	844.6542       	
842.7643       	842.97925      	843.236        	842.82294      	842.79126      	843.00104      	842.9356       	842.83344      	843.0817       	843.8854       	844.2597       	843.90594      	844.1614       	844.3112       	843.97034      	843.8534       	843.8665       	844.0401       	844.2172       	843.8619       	843.0118       	843.1399       	843.28656      	843.7154       	843.1401       	843.28156      	843.51044      	843.26         	843.35223      	843.4643       	843.596        	843.3639       	843.4919       	843.8392       	843.44135      	844.70605      	843.45215      	843.5564       	843.983        	843.50946      	843.97504      	843.5155       	846.50366      	844.5159       	844.3656       	844.6461       	844.65765      	844.61664      	844.5762       	843.41113      	844.71606      	844.66656      	844.17224      	844.2357       	844.411        	844.35486      	844.602        	844.2594       	844.14655      	844.344        	844.1257       	844.2552       	844.0173       	844.1439       	844.5409       	844.17474      	844.13416      	844.0079       	844.3362       	844.2974       	844.16113      	844.22626      	844.4          	844.15234      	844.1986       	844.05133      	844.18823      	844.1887       	844.1345       	844.4599       	844.10406      	844.2253       	844.2678       	843.8647       	844.19         	844.1609       	844.1478       	844.24713      	844.1402       	844.41046      	844.3314       	844.4184       	844.3571       	844.657        	843.8285       	843.80383      	843.7656       	846.20056      	844.55786      	844.3708       	
842.24945      	841.93835      	842.01465      	842.186        	842.652        	842.02985      	842.04675      	842.15594      	842.69         	842.0474       	842.1518       	843.1113       	843.2369       	843.0961       	843.32196      	843.21124      	843.2285       	843.3905       	843.1654       	842.7515       	842.3568       	842.4664       	842.92847      	842.3733       	842.5395       	842.66547      	843.9283       	842.57214      	842.7636       	842.8508       	842.9643       	842.78784      	842.9596       	842.7444       	842.83044      	843.15796      	842.8801       	842.88617      	843.3991       	842.91595      	845.2572       	843.89606      	843.26984      	842.9926       	843.8571       	844.2269       	843.9977       	844.0216       	844.1051       	843.814        	843.8308       	843.8433       	843.68036      	843.88025      	843.9259       	843.8145       	843.83307      	843.65924      	843.6205       	843.85254      	843.46         	843.71576      	843.72925      	843.7572       	843.74945      	843.7727       	843.7784       	843.68665      	843.7493       	843.7369       	843.8722       	843.86         	843.8285       	843.6735       	843.87756      	843.548        	843.81384      	843.7685       	843.75226      	843.6335       	843.9148       	843.8983       	843.5486       	843.5856       	843.85486      	843.74554      	843.72327      	843.61725      	843.92566      	843.85516      	844.1041       	844.0642       	844.00287      	843.9388       	844.2031       	844.415        	844.5026       	844.43164      	844.282        	844.21747      	
841.7525       	841.4225       	841.4518       	841.56177      	841.72064      	842.006        	841.50867      	841.5745       	841.6658       	841.79364      	842.23047      	841.5919       	841.6878       	841.9508       	841.6197       	841.72614      	842.4234       	841.70795      	841.79987      	841.9606       	841.7724       	841.97565      	842.1181       	842.109        	841.982        	842.0898       	842.221        	841.97363      	842.1087       	842.1904       	843.27185      	842.1251       	842.20764      	842.6065       	842.1487       	842.5599       	842.17474      	842.2034       	842.70483      	842.15894      	842.63745      	842.1773       	842.5758       	843.4145       	843.26355      	843.2411       	843.2821       	843.2255       	843.246        	843.21747      	843.30505      	843.15515      	843.27844      	842.84204      	843.11273      	842.8093       	842.9231       	842.99896      	842.7653       	842.95483      	842.88837      	842.8649       	842.9718       	842.9053       	843.0691       	842.7485       	843.0889       	842.8715       	842.92737      	843.1368       	842.94525      	842.77014      	843.125        	843.0526       	843.04407      	843.09406      	842.8904       	843.17505      	843.04517      	843.06616      	843.0069       	842.9296       	843.0042       	843.05054      	842.9179       	842.8782       	842.92413      	843.0138       	843.1237       	843.1559       	843.3295       	843.2366       	843.2284       	843.3217       	843.0688       	843.58923      	843.734        	843.4239       	843.2113       	843.3757       	
841.56586      	841.8442       	841.9689       	842.21643      	841.61676      	841.75476      	841.79877      	842.01654      	841.6966       	841.73346      	841.8352       	841.9766       	842.3809       	841.7789       	841.9005       	842.0387       	842.9192       	841.89185      	841.99927      	842.0678       	843.43567      	841.96375      	842.1029       	842.1593       	842.39984      	842.10547      	842.1832       	842.2101       	842.8154       	842.2517       	842.2403       	842.10876      	842.5071       	842.2031       	842.2168       	842.2123       	842.17883      	842.6048       	842.2052       	842.13416      	842.718        	842.11566      	842.6472       	843.13367      	843.36         	843.30536      	843.17285      	843.3037       	843.17395      	842.97723      	843.23047      	843.1381       	843.45514      	842.93         	842.73535      	842.7441       	842.7872       	842.9241       	842.8453       	842.79254      	842.6446       	842.79987      	842.8266       	842.9173       	842.9026       	842.8506       	842.602        	842.9004       	842.87427      	842.9765       	842.98303      	842.9355       	842.91046      	843.04486      	843.02014      	842.87964      	842.9979       	843.0528       	843.1173       	842.833        	842.85474      	842.9493       	842.8976       	842.89154      	842.7291       	842.87994      	843.00037      	842.935        	843.0191       	842.99097      	842.99115      	843.05054      	841.915        	843.1345       	843.289        	843.49713      	843.703        	843.17523      	843.0082       	842.9874       	
841.5063       	841.79236      	841.91797      	842.2132       	841.5547       	841.6832       	841.8118       	841.9229       	842.00684      	841.69495      	841.8025       	841.89246      	842.1056       	841.7255       	841.89557      	842.02216      	842.69965      	841.8912       	842.0147       	842.10016      	842.2454       	841.9723       	842.08         	842.1498       	842.4931       	842.1036       	842.2656       	842.22845      	843.06067      	842.18225      	842.1543       	842.05414      	842.57623      	842.2056       	842.17804      	843.20447      	842.20404      	842.0489       	842.7792       	842.1217       	843.54663      	843.05365      	843.3346       	843.3191       	843.317        	843.0348       	843.18585      	843.1605       	843.2646       	843.0434       	843.33655      	841.803        	842.8575       	842.88153      	842.73676      	842.9742       	842.82043      	842.68646      	842.77496      	842.7551       	842.76886      	842.79584      	842.7589       	842.89264      	842.8856       	842.7299       	842.94855      	842.8678       	842.95087      	842.8966       	842.9267       	842.85223      	842.98865      	843.17444      	843.0655       	843.1519       	842.9769       	842.93774      	843.0767       	843.02466      	842.9262       	843.093        	842.88965      	842.91956      	842.8311       	842.92566      	843.02826      	843.15295      	843.04193      	843.1634       	842.98694      	843.2002       	843.15784      	843.35504      	843.6633       	843.337        	843.61304      	843.57227      	843.2948       	843.1793       	
846.0523       	841.63367      	841.8099       	841.87103      	842.2255       	841.4082       	841.53503      	841.7321       	841.8806       	842.4313       	841.6696       	841.72595      	841.83746      	841.9262       	842.8456       	841.78186      	841.89105      	841.9615       	841.9647       	842.0999       	841.8785       	841.97766      	842.00073      	842.72015      	842.01953      	842.0902       	842.05804      	842.5577       	842.07227      	842.03064      	841.90625      	842.73663      	842.1117       	841.93024      	842.12317      	842.0001       	841.87555      	842.50616      	841.8754       	841.939        	841.9182       	841.82465      	842.9758       	842.8513       	843.0433       	842.98346      	842.8779       	843.1642       	842.9584       	842.9925       	842.88837      	842.5354       	842.9001       	842.7278       	842.8565       	842.5169       	842.8735       	842.5603       	842.6137       	842.7349       	842.68616      	842.6032       	842.74896      	842.77057      	842.7667       	842.8067       	842.7621       	842.68054      	842.89343      	842.8606       	842.84216      	842.64886      	842.894        	842.80786      	843.0136       	843.04034      	842.88446      	843.0362       	842.7981       	843.0482       	842.77997      	842.8981       	842.8731       	842.8359       	842.9316       	842.8891       	842.99426      	842.93524      	842.871        	842.99176      	842.907        	843.22003      	843.2566       	843.41595      	843.168        	843.1195       	843.21216      	843.52924      	843.345        	843.3334       	
842.4186       	841.8733       	842.073        	842.2249       	842.2896       	842.2477       	841.9472       	842.0634       	842.1397       	842.2221       	842.3366       	842.0383       	842.2087       	842.2217       	842.2432       	842.747        	842.1585       	842.26355      	842.2594       	843.6907       	842.2353       	842.31836      	842.3072       	842.5787       	842.32623      	842.3415       	842.27484      	842.8467       	842.32465      	842.2288       	842.05914      	842.99097      	842.29364      	842.1437       	843.13513      	843.3788       	843.5442       	842.11365      	842.0976       	842.37164      	842.01654      	842.20087      	842.05707      	842.9789       	843.2228       	843.0035       	843.36774      	843.39355      	843.05804      	843.0391       	843.292        	842.9493       	843.07623      	843.0063       	842.78156      	842.4976       	842.5388       	842.6621       	842.91925      	842.87683      	842.65204      	842.74475      	842.8699       	842.7652       	842.9454       	842.8775       	842.90454      	843.0051       	842.9742       	842.94995      	842.74506      	843.12897      	843.0253       	842.92444      	842.9915       	843.2027       	842.9133       	843.04877      	843.03613      	842.982        	842.86255      	843.08923      	842.72437      	842.9626       	843.23016      	843.2079       	843.0782       	843.13763      	843.07196      	843.16296      	843.232        	843.25433      	843.2693       	843.2921       	843.27045      	843.2895       	843.4517       	843.29584      	843.39813      	843.1721       	
842.31024      	842.0735       	842.2115       	842.2943       	842.33264      	842.1073       	842.086        	842.21875      	842.29584      	842.2822       	843.00006      	842.17847      	842.2931       	842.3188       	842.289        	842.58405      	842.3351       	842.3945       	842.3646       	842.4024       	842.40564      	842.4426       	842.4312       	842.4889       	842.5199       	842.5085       	842.34827      	843.0631       	842.4964       	842.371        	842.1718       	842.91656      	842.4601       	842.26575      	842.9336       	842.3193       	842.1565       	843.43585      	842.2344       	842.1368       	843.3315       	842.2429       	842.20325      	843.1142       	843.3098       	843.38965      	843.2211       	843.0228       	843.3666       	843.13513      	843.18945      	843.05804      	843.0986       	842.9052       	842.96716      	843.2284       	842.8372       	843.1113       	842.9176       	843.0726       	843.0357       	843.029        	843.0974       	843.10364      	843.22064      	843.0929       	843.2013       	843.1726       	843.2917       	843.2401       	843.2833       	843.2646       	843.3725       	843.4042       	843.2972       	843.4272       	843.41504      	843.2812       	843.3653       	843.364        	843.26605      	843.003        	843.10645      	843.34094      	843.452        	843.3277       	843.3609       	843.33795      	843.5309       	843.33765      	843.5333       	843.62726      	843.7022       	843.538        	843.55914      	843.63086      	843.4851       	843.67285      	843.7315       	843.2714       	
841.9682       	842.2688       	842.23254      	844.08563      	842.0006       	842.11487      	842.18744      	842.1552       	842.40204      	842.03314      	842.1558       	842.15533      	842.1388       	842.29144      	842.1292       	842.21124      	842.2442       	842.1317       	842.1254       	842.21875      	842.2971       	842.2136       	842.08844      	842.8456       	842.2999       	842.2023       	842.0124       	842.23596      	842.2772       	842.0873       	841.90356      	841.71783      	842.6804       	842.08875      	841.8715       	842.6286       	842.0072       	842.20105      	841.97375      	841.92444      	843.2275       	843.2062       	842.9864       	842.9486       	843.0429       	843.06744      	843.09625      	843.143        	843.3144       	842.8076       	842.97296      	842.8995       	842.7937       	842.7151       	842.5691       	842.84973      	842.47894      	842.63196      	842.64075      	842.77094      	842.8031       	842.73474      	842.87787      	842.7975       	842.8063       	842.8802       	842.8601       	843.0269       	842.9938       	843.09344      	843.1708       	843.0902       	843.10547      	843.0696       	843.0611       	843.15137      	843.09515      	843.1238       	843.11365      	842.9618       	843.10004      	843.11884      	843.0636       	843.1321       	843.1751       	843.1591       	843.0269       	842.83777      	843.3418       	843.1988       	843.3226       	843.36597      	843.2536       	843.2385       	843.3243       	843.1588       	843.58386      	843.43713      	843.33777      	843.3284       	
843.0625       	844.43274      	842.81604      	842.97754      	842.94855      	842.8648       	843.2123       	842.8087       	842.90045      	842.93317      	842.8505       	844.3812       	842.93805      	842.9496       	842.906        	842.82654      	843.83997      	842.92584      	842.95325      	842.89075      	842.7255       	843.4955       	842.9648       	842.9132       	842.721        	842.96234      	842.9118       	842.72974      	842.55005      	842.4016       	843.2729       	842.6962       	842.441        	842.30695      	843.1148       	842.5407       	842.33405      	842.8382       	842.5528       	842.32434      	843.83527      	842.44885      	842.9535       	843.7062       	843.40717      	843.8824       	843.85443      	843.5866       	843.52045      	843.51324      	843.05273      	843.3848       	843.33203      	843.2253       	843.227        	843.292        	843.338        	843.19916      	843.2529       	843.1511       	843.2421       	843.453        	843.1534       	843.3274       	843.3098       	843.4622       	843.3751       	843.4107       	843.57263      	843.33704      	843.3983       	843.5302       	843.65344      	843.6501       	843.5674       	843.6306       	843.6021       	843.6518       	843.6212       	843.3194       	843.5739       	843.34106      	843.4457       	843.37994      	843.3695       	843.4776       	843.41864      	843.37396      	843.42224      	843.7013       	843.69037      	843.9236       	843.47723      	843.7426       	843.7269       	842.78937      	842.4198       	845.2175       	843.79156      	843.6996       	
843.4356       	842.96484      	842.9908       	842.8623       	843.14526      	842.88763      	842.9108       	842.89325      	842.82715      	843.6666       	842.9708       	842.9601       	842.8661       	842.7473       	844.50525      	842.9769       	842.99457      	842.88464      	842.6896       	842.53156      	843.6068       	843.00946      	842.892        	842.7313       	842.57605      	843.3349       	842.91296      	842.69586      	842.4958       	843.2409       	842.7556       	842.5808       	842.4371       	843.15393      	842.6836       	842.48334      	842.4251       	843.0253       	842.4942       	842.6378       	842.5742       	842.4304       	843.55945      	843.2638       	842.50867      	843.83844      	843.9067       	843.49695      	843.52966      	843.8138       	843.6247       	843.597        	843.6267       	843.5758       	843.6215       	843.4941       	843.4991       	843.5063       	843.4267       	843.52075      	843.65814      	843.7565       	843.4603       	843.6696       	843.6215       	843.7192       	843.7944       	843.8487       	843.92566      	843.8076       	843.99176      	843.92035      	843.95734      	843.8584       	843.89874      	843.99896      	844.24695      	843.8451       	843.7734       	843.7652       	843.94366      	843.8062       	843.87195      	843.9528       	843.93286      	843.98413      	844.0344       	844.0242       	844.0805       	844.21643      	844.1309       	844.269        	843.99615      	844.173        	843.3369       	842.9479       	845.87335      	843.33276      	842.92926      	842.9352       	
843.00836      	842.7312       	842.5281       	842.6313       	842.5628       	842.5956       	842.49536      	842.40436      	843.2335       	842.54584      	842.5479       	842.5365       	842.4015       	842.21326      	842.9913       	842.58453      	842.5339       	842.3545       	842.1713       	842.09125      	842.6224       	842.503        	842.3402       	842.16656      	842.181        	842.4838       	842.32605      	842.1748       	842.08734      	842.4179       	842.18207      	842.02466      	842.19086      	842.3106       	842.0974       	841.9565       	842.0186       	842.15515      	842.0356       	841.9965       	842.5725       	842.0403       	842.5866       	842.02795      	842.9767       	842.99426      	842.94727      	843.1305       	843.1106       	842.8877       	843.027        	843.0977       	842.20154      	841.9551       	842.8482       	843.1804       	842.9612       	843.057        	842.9884       	842.9547       	843.0553       	842.76117      	843.26306      	843.2617       	843.5209       	843.2334       	843.45905      	843.3354       	843.5231       	843.37726      	843.4336       	843.5543       	843.6378       	843.37213      	843.3336       	843.3776       	843.4876       	843.2947       	843.4619       	843.46967      	843.3759       	843.37665      	843.5882       	843.4885       	843.6634       	843.43054      	843.5945       	843.5012       	843.6941       	843.6519       	843.71204      	843.1801       	842.39166      	842.8356       	842.4841       	842.86755      	843.0819       	842.4542       	842.4845       	845.44867      	
843.5378       	844.2233       	843.5924       	843.4808       	843.3161       	844.18445      	843.4739       	843.51013      	843.39136      	843.2506       	843.558        	843.49927      	843.4941       	843.39154      	843.2132       	842.98676      	844.2401       	843.45496      	843.3303       	843.1231       	842.96783      	843.08765      	843.4085       	843.2312       	843.02277      	842.8771       	843.8354       	843.17957      	842.9813       	842.83405      	843.73755      	843.03894      	842.82623      	842.7282       	843.751        	842.8486       	842.7347       	842.71606      	843.237        	842.8649       	842.7223       	843.24506      	842.8034       	844.0383       	843.9374       	844.0489       	843.9812       	844.01733      	843.7881       	844.05505      	843.817        	842.7295       	842.7346       	842.9374       	842.72034      	843.5004       	842.65753      	843.6648       	843.87665      	843.76263      	843.71643      	843.6864       	843.6105       	843.9427       	843.71375      	843.9512       	843.9544       	843.9922       	844.10266      	843.9775       	843.9036       	844.02454      	843.9362       	844.1898       	844.06085      	843.8541       	843.9965       	844.115        	843.8834       	843.8906       	844.0077       	844.0514       	844.06354      	844.00134      	844.18494      	844.0339       	844.03455      	843.8601       	844.0491       	843.9538       	844.01355      	844.1845       	843.87274      	842.8424       	842.92175      	843.9314       	843.5674       	842.8466       	842.8505       	845.7161       	
843.6936       	843.93463      	843.85864      	843.6738       	843.5592       	844.0479       	843.89233      	843.7764       	843.6702       	843.5292       	844.40857      	843.91156      	843.7867       	843.58685      	843.446        	843.74567      	843.8624       	843.74036      	843.56586      	843.37115      	843.27515      	844.5354       	843.7717       	843.5831       	843.44574      	843.32263      	844.5585       	843.593        	843.3809       	843.2892       	843.9897       	843.4852       	843.34656      	843.2839       	843.61615      	843.4003       	843.27765      	843.3301       	843.42834      	843.7766       	843.3853       	843.8197       	843.37634      	844.59204      	844.388        	844.5548       	844.5465       	844.76263      	844.6091       	844.4905       	843.36536      	843.50696      	843.3721       	843.46136      	844.1464       	844.2355       	843.3433       	843.778        	843.3636       	844.40686      	844.5328       	844.3977       	844.6609       	844.287        	844.65985      	844.7481       	844.4417       	844.7512       	844.73785      	844.79535      	844.6491       	844.764        	844.48413      	844.7621       	844.55426      	844.9396       	844.81995      	844.89624      	844.5616       	844.74286      	844.7792       	844.822        	844.8816       	844.7727       	844.8762       	844.82745      	844.94183      	844.74817      	844.6698       	844.76996      	845            	843.7069       	843.7399       	844.25616      	843.6794       	844.83563      	843.78485      	843.6516       	843.89484      	846.7848       	
843.3561       	842.99225      	845.3624       	843.3544       	843.22644      	843.0319       	842.98566      	843.3662       	843.3096       	843.20496      	843.0569       	842.9091       	843.7761       	843.34534      	843.21216      	843.0446       	842.88635      	843.12445      	843.3662       	843.13776      	842.9788       	842.84155      	842.798        	843.67957      	843.1229       	842.9446       	842.8786       	842.917        	843.4236       	842.9683       	842.87195      	843.0852       	842.9766       	842.8408       	842.8532       	842.98566      	843.7721       	842.88367      	842.8722       	844.14655      	843.75323      	842.9459       	844.52344      	844.32434      	844.252        	844.0875       	844.17926      	844.042        	844.20483      	843.11523      	843.0343       	843.3525       	843.04645      	843.4799       	843.0883       	843.4808       	843.07965      	845.77405      	843.06213      	844.31165      	844.26843      	843.97235      	844.11163      	844.40814      	844.4067       	844.2558       	844.4706       	844.4791       	844.443        	844.5768       	844.43835      	844.3644       	844.5847       	844.4525       	844.49207      	844.57556      	844.6459       	844.68713      	844.45374      	844.594        	844.6415       	844.64075      	844.65717      	844.684        	844.6337       	844.6571       	844.7797       	844.7056       	844.9717       	844.86707      	844.9224       	843.63934      	843.5443       	844.0596       	843.6696       	843.60767      	844.268        	844.24994      	843.62897      	843.60004      	
843.8301       	843.97943      	843.73785      	843.5912       	844.6364       	844.0522       	843.90375      	843.69666      	843.5432       	844.6162       	843.959        	843.83746      	843.62244      	843.4323       	843.612        	843.85944      	843.69867      	843.51556      	843.38         	843.27673      	844.3386       	843.52856      	843.3891       	843.32294      	843.23694      	843.9225       	843.3763       	843.19055      	843.1459       	844.0245       	843.2666       	843.1708       	843.04         	843.3558       	843.1855       	843.11804      	843.11273      	843.3454       	843.21484      	843.087        	844.22845      	844.1737       	844.01733      	844.3425       	844.0562       	844.0781       	844.3119       	844.14526      	843.3962       	843.148        	843.59314      	843.0631       	844.4824       	843.0202       	844.08         	843.33887      	843.1035       	843.9473       	844.2064       	844.1419       	844.1247       	844.0774       	844.1588       	844.17316      	844.27515      	844.1582       	844.2589       	844.1475       	844.2637       	844.22876      	844.50366      	844.2327       	844.28754      	844.32776      	844.245        	844.22974      	844.2428       	844.21985      	844.10443      	844.1034       	844.203        	844.2516       	844.39716      	844.4352       	844.1202       	844.2901       	844.5776       	844.39624      	844.29956      	844.3155       	844.579        	843.2347       	843.1388       	843.80597      	843.2692       	843.1824       	843.2686       	843.84705      	843.1839       	843.1469       	
845.70483      	845.3497       	845.19727      	846.0858       	845.67065      	845.56647      	845.30725      	845.1885       	845.347        	845.6433       	845.5611       	845.3788       	845.1996       	845.10876      	846.34827      	845.51196      	845.34045      	845.1744       	845.1046       	845.2143       	845.4173       	845.2203       	845.10144      	845.09674      	845.1886       	845.7471       	845.11633      	845.07935      	845.1266       	845.56866      	845.0723       	845.03784      	845.0973       	845.73676      	845.0526       	845.00574      	845.0889       	845.26245      	845.3412       	845.01166      	845.26215      	845.91003      	846.2677       	846.3941       	846.09247      	846.33844      	846.3046       	846.11554      	846.16565      	846.2328       	845.9841       	846.028        	845.12585      	845.22723      	845.6495       	845.23315      	846.66144      	845.3017       	846.27527      	845.1364       	847.77936      	846.4202       	846.10486      	846.464        	846.4524       	846.2503       	846.2933       	846.5778       	846.2298       	846.473        	846.1458       	846.24713      	846.3541       	846.3702       	846.4259       	846.3268       	846.3982       	846.32294      	846.4645       	846.44476      	846.345        	846.4192       	846.40753      	846.18353      	846.33167      	846.5606       	846.4182       	846.43616      	845.35516      	845.38257      	845.25433      	845.17804      	846.23334      	845.2944       	845.20776      	845.24036      	845.8987       	845.27124      	845.2051       	845.2002       	
846.5748       	846.15826      	846.1889       	846.69305      	846.5782       	846.3851       	846.2192       	846.1231       	847.08203      	846.60706      	846.4739       	846.2565       	846.1403       	846.55396      	846.57434      	846.4028       	846.26636      	846.17816      	846.1617       	847.06085      	846.322        	846.21094      	846.1738       	846.28         	846.93884      	846.2985       	846.2425       	846.2731       	846.3067       	847.0145       	846.2126       	846.23376      	846.329        	846.6564       	846.221        	846.2724       	846.4093       	846.9622       	846.2786       	846.4146       	847.8736       	846.3655       	846.8473       	847.54663      	847.6057       	847.3076       	847.5178       	847.5702       	847.4447       	847.78735      	846.8359       	846.5313       	847.0229       	846.47955      	847.0421       	846.448        	846.6705       	847.3074       	846.4603       	847.37976      	847.54266      	847.4632       	847.524        	847.4641       	847.4619       	847.1835       	847.60925      	847.8979       	847.6185       	847.69666      	847.6604       	847.6143       	847.73035      	847.74677      	847.5318       	847.63477      	847.6728       	847.47955      	847.62036      	847.4607       	847.7601       	847.76654      	847.6956       	847.5677       	847.44574      	847.71         	847.5834       	847.64124      	847.65796      	847.4569       	846.47986      	846.4463       	847.00525      	846.57526      	846.48083      	846.94666      	846.594        	846.57         	846.5055       	846.50824      	
843.91754      	843.48285      	843.3463       	844.2765       	843.7738       	843.6212       	843.4731       	843.4293       	844.3895       	843.8538       	843.70337      	843.57214      	843.5104       	844.05023      	843.83954      	843.72296      	843.5488       	843.517        	843.6261       	843.83264      	843.68585      	843.5883       	843.7028       	843.7499       	844.1543       	843.72424      	843.6946       	843.74603      	843.89386      	843.96106      	843.7475       	843.7907       	843.96643      	844.34906      	843.7994       	843.9371       	844.08044      	844.6567       	843.8985       	843.9827       	844.79364      	844.02155      	844.1355       	844.78613      	845.0147       	845.2731       	845.2419       	845.3114       	845.3435       	845.29663      	845.1176       	845.47644      	845.601        	844.3199       	844.4019       	845.6443       	845.31726      	845.2465       	845.5287       	845.0997       	845.4753       	845.442        	845.32434      	845.4695       	845.5693       	845.68134      	845.66907      	845.77606      	845.7538       	845.7504       	845.7148       	845.7079       	845.71185      	845.7597       	845.8873       	845.85474      	845.5336       	845.914        	845.9848       	845.946        	845.8637       	845.82587      	845.9203       	845.78094      	845.8353       	846.0748       	845.959        	845.93787      	845.28375      	844.95825      	845.1143       	844.89056      	844.8751       	845.0667       	845.0272       	844.9387       	845.6605       	845.0727       	845.0502       	845.01184      	
841.7023       	842.0738       	841.9149       	841.7387       	841.5942       	841.6478       	842.0187       	841.8473       	841.7274       	841.6338       	841.63025      	842.35614      	841.77527      	841.64343      	841.6317       	841.6523       	842.46985      	841.7999       	841.64746      	841.6383       	841.6721       	842.2141       	841.6762       	841.6295       	841.66656      	841.7802       	841.9535       	841.60583      	841.6298       	841.7174       	841.9003       	841.9586       	841.6373       	841.79254      	841.9489       	843.2678       	841.72864      	841.8779       	842.012        	842.41364      	841.9161       	842.0193       	843.1586       	841.9789       	842.11725      	842.4509       	842.0968       	843.76         	843.0322       	843.3058       	842.9181       	843.0362       	842.88776      	842.1827       	842.44995      	842.3054       	842.2776       	842.462        	842.2125       	843.55426      	843.3492       	843.0317       	843.1469       	843.126        	843.4464       	843.33435      	843.3421       	843.46936      	843.25037      	843.2743       	843.4589       	843.35406      	843.31647      	843.27527      	843.3705       	843.3587       	843.35944      	843.46136      	843.3026       	843.58215      	843.33997      	843.43274      	843.4854       	843.28546      	843.65015      	843.6591       	843.3765       	843.5149       	843.806        	842.37427      	842.73804      	842.49976      	842.35345      	842.30035      	843.26666      	842.5306       	842.44946      	842.41364      	846.03094      	842.7982       	
842.127        	842.5598       	842.3578       	842.2334       	842.102        	842.65875      	842.4779       	842.286        	842.1607       	842.15375      	842.90686      	842.3301       	842.20703      	842.1263       	842.14844      	843.03455      	842.30133      	842.16705      	842.14905      	842.1884       	843.0576       	842.15814      	842.1388       	842.24054      	842.31146      	842.62683      	842.0795       	842.1568       	842.22064      	842.2991       	843.5228       	842.0494       	842.11926      	842.31805      	842.5117       	842.22565      	842.18524      	842.3336       	842.6983       	842.21545      	842.357        	843.75433      	842.2948       	842.4378       	842.8829       	842.3932       	842.5225       	842.8743       	842.4843       	843.7068       	843.75824      	843.7258       	843.54456      	843.08374      	842.4856       	843.0101       	842.3496       	842.50433      	842.9652       	842.48267      	843.66187      	843.4879       	843.3389       	843.4032       	843.3575       	843.5977       	843.36884      	843.5741       	843.185        	842.28033      	842.8225       	842.31415      	842.7455       	842.2151       	842.23663      	842.55927      	842.2054       	843.2685       	843.2727       	843.2525       	843.1598       	843.474        	843.6183       	843.3231       	843.3011       	843.26794      	843.6644       	843.63403      	843.55597      	843.62244      	843.0683       	842.3248       	842.2812       	842.77545      	842.3888       	842.30597      	843.77216      	843.4609       	842.602        	842.35425      	
843.3448       	844.014        	843.46277      	843.22894      	843.1327       	843.07874      	843.81213      	843.3507       	843.23114      	843.1595       	843.27386      	843.3339       	843.16516      	843.10126      	843.12537      	843.29395      	843.2408       	843.13745      	843.0927       	843.15027      	843.22906      	843.8808       	843.07196      	843.13904      	843.20154      	843.3183       	843.80774      	843.044        	843.1889       	843.3206       	843.5367       	843.2171       	843.12103      	843.24426      	843.3735       	843.54846      	843.05414      	843.21423      	843.35504      	843.6409       	843.192        	843.3098       	843.66016      	843.2346       	843.34906      	844.18915      	843.22766      	843.3523       	843.5321       	843.2853       	845.1328       	843.87305      	843.5723       	843.2458       	843.46313      	843.24243      	843.58563      	843.10034      	843.1897       	844.31586      	844.16046      	844.13293      	843.95667      	844.13336      	843.92535      	843.99274      	843.835        	844.07526      	843.16144      	842.9824       	843.3728       	842.90094      	846.35846      	842.87305      	842.81537      	843.4363       	842.8157       	842.7763       	843.3116       	842.71967      	843.7714       	843.9701       	843.95465      	843.9635       	843.76886      	844.0269       	844.18335      	843.8442       	843.95953      	843.60754      	842.8353       	842.84515      	843.47015      	842.8154       	842.7724       	843.2682       	842.8856       	842.8477       	842.82007      	846.1773       	
845.5657       	844.6482       	844.5215       	844.8792       	844.87897      	844.64874      	844.5726       	844.57214      	845.14886      	844.68915      	844.6217       	844.59015      	844.885        	844.71844      	844.6562       	844.60675      	844.6038       	844.9386       	844.62494      	844.62366      	844.62573      	844.6942       	844.8366       	844.5494       	844.6384       	844.72815      	844.8456       	845.01227      	844.59247      	844.72815      	844.8866       	844.98816      	845.2099       	844.64886      	844.7786       	844.8893       	844.985        	845.08636      	844.8021       	844.9112       	845.17566      	844.78735      	844.9231       	845.4063       	844.86127      	844.98645      	845.5577       	844.8969       	845.02704      	845.40424      	844.94727      	845.37006      	844.88196      	844.9952       	845.4044       	844.964        	845.29517      	844.8676       	845.0722       	844.8307       	846.9014       	845.86096      	845.9626       	845.7322       	845.80835      	846.3008       	844.72235      	844.78687      	845.0505       	844.69476      	845.17316      	844.65454      	844.59467      	845.00336      	844.5413       	844.5062       	844.95386      	844.4636       	844.42633      	844.80554      	844.3995       	844.87933      	844.3874       	845.4694       	845.7597       	845.7992       	845.54913      	845.8223       	845.8168       	845.5072       	844.525        	844.4821       	845.57947      	844.5413       	844.46136      	844.5138       	845.11005      	844.5873       	844.50433      	844.5116       	
844.3542       	845.1443       	844.32336      	844.2229       	844.2218       	844.95215      	844.3365       	844.22424      	844.2566       	844.5187       	844.37006      	844.2944       	844.2689       	844.2927       	845.631        	844.38403      	844.3241       	844.365        	844.40125      	844.8191       	844.3815       	844.41296      	844.49146      	844.5999       	845.1412       	844.4506       	844.5387       	844.64703      	844.75006      	844.3831       	844.53546      	844.71295      	844.80493      	844.82996      	844.61523      	844.71747      	844.7855       	845.47064      	844.6741       	844.7836       	844.8085       	844.9798       	844.7522       	844.85504      	845.37787      	844.83655      	844.93884      	845.3738       	844.9088       	845.26135      	844.8854       	844.9552       	845.4989       	844.98004      	845.9719       	844.87946      	844.9306       	845.4689       	844.88727      	845.2177       	844.8736       	844.8712       	845.3648       	844.872        	845.37946      	844.87335      	845.3866       	844.83466      	844.82574      	845.1941       	844.815        	844.7651       	845.3954       	844.7402       	844.70703      	845.77136      	844.70074      	844.67505      	845.5689       	844.6494       	844.6561       	845.9426       	845.01794      	844.6891       	846.1289       	845.78894      	845.986        	846.32477      	845.72614      	845.9844       	844.9206       	844.85657      	844.8525       	845.70355      	844.9342       	844.85736      	844.8192       	845.4205       	845.0547       	845.0024       	
844.29926      	843.51         	843.52246      	843.78156      	843.5144       	843.4556       	843.5458       	843.7258       	843.60394      	843.5234       	843.6061       	844.01917      	843.6256       	843.5936       	843.64966      	843.71906      	844.20044      	843.653        	843.6833       	843.72565      	843.7937       	844.0049       	843.6749       	843.7616       	843.8893       	843.9835       	844.2847       	843.8433       	843.9257       	843.9892       	844.0731       	843.7605       	843.9173       	844.0198       	844.01196      	845.5743       	843.9847       	844.04724      	844.05865      	844.7379       	844.0429       	844.15594      	844.1869       	844.35455      	844.1511       	844.2256       	844.2117       	844.2005       	844.21265      	844.4388       	844.18756      	844.23254      	844.5143       	844.1513       	844.31195      	844.1034       	844.1354       	845.3714       	844.09076      	844.1262       	845.4205       	844.124        	844.1394       	844.4257       	844.05896      	844.3542       	844.0059       	844.05084      	844.07947      	844.0904       	843.9901       	844.00977      	843.9552       	843.91345      	843.89703      	844.5611       	843.87067      	843.81287      	844.1856       	843.8191       	843.7862       	843.90234      	843.8236       	843.79297      	844.1427       	843.90375      	843.858        	845.2687       	845.2221       	845.0019       	844.00806      	844.0117       	844.5264       	844.06714      	844.0128       	844.14026      	844.5758       	844.0856       	844.00903      	844.0943       	
843.33856      	843.8651       	843.3353       	843.34155      	843.41534      	843.30164      	843.29987      	844.032        	843.3308       	843.3209       	843.3535       	843.9222       	843.36926      	843.39154      	843.4177       	843.48236      	845.2476       	843.4171       	843.4683       	843.54333      	843.62024      	844.76843      	843.4678       	843.5912       	843.6748       	843.7013       	844.0798       	843.5181       	843.69763      	843.7474       	843.74713      	843.8563       	843.65295      	843.7642       	843.8262       	843.7844       	844.099        	843.7919       	843.8521       	843.79205      	844.3389       	843.8392       	843.87274      	843.98444      	843.869        	843.9466       	843.9316       	844.222        	843.9418       	843.86847      	844.5344       	843.9075       	843.86285      	844.4189       	843.87366      	843.97327      	843.9509       	843.8593       	844.19604      	843.8104       	843.8297       	844.1025       	843.7966       	844.79144      	843.7718       	843.756        	844.3408       	843.74945      	843.6928       	844.19684      	843.71326      	843.66693      	844.5017       	843.6233       	843.5777       	843.5844       	843.9073       	843.5664       	843.52966      	844.31647      	843.54877      	843.5024       	843.52435      	844.28326      	843.5075       	843.4899       	843.7978       	843.66406      	843.6182       	844.15765      	843.7579       	843.669        	843.7115       	843.97253      	843.71234      	843.6557       	844.2704       	843.7977       	843.7472       	843.76575      	
847.97095      	843.80457      	844.5282       	843.9313       	844.2135       	843.9065       	843.8196       	843.9851       	843.87634      	843.84436      	843.8818       	844.04504      	844.23303      	843.9132       	843.9711       	844.01984      	844.80963      	843.9436       	843.996        	844.0397       	844.1025       	844.3554       	843.9824       	844.1012       	844.16675      	844.1472       	844.1481       	844.6519       	844.1772       	844.2312       	844.21606      	844.1146       	844.4314       	844.22925      	844.2616       	844.1634       	844.13245      	844.199        	844.2546       	844.197        	844.1173       	844.2057       	844.20734      	844.1415       	849.2627       	844.2633       	844.20215      	844.1676       	844.2475       	844.2129       	844.1074       	844.5067       	844.19995      	844.0738       	844.85         	844.1578       	844.05426      	844.79         	844.0758       	844.03314      	844.55835      	844.0442       	843.97266      	844.6728       	843.96625      	843.8704       	844.1874       	843.888        	843.80664      	843.9873       	843.8316       	843.80133      	843.7383       	844.2382       	843.7152       	843.70764      	843.82495      	843.7231       	843.6514       	843.62726      	843.8935       	843.57214      	843.5468       	843.5919       	843.6012       	843.565        	843.5524       	844.2949       	843.6394       	843.6008       	844.1137       	843.6806       	843.6148       	843.57605      	844.2063       	843.68         	843.62585      	843.57935      	847.66174      	844.4235       	
844.4082       	844.43463      	844.4301       	844.95953      	844.4629       	844.8496       	844.46313      	844.64734      	844.4612       	844.45807      	844.5564       	844.92584      	844.54126      	844.6168       	844.6537       	844.92474      	844.59674      	844.63477      	844.6999       	844.73413      	845.2448       	844.67456      	844.77234      	844.83356      	844.83093      	845.52893      	844.7836       	844.845        	844.85767      	844.8326       	844.9841       	844.81256      	844.879        	844.8692       	844.7418       	845.27936      	844.9101       	844.9027       	844.8206       	844.89557      	845.0097       	844.95905      	844.8461       	845.4141       	845.0085       	844.9593       	844.8305       	845.52606      	844.9841       	844.8854       	846.2836       	844.9183       	844.8451       	844.8079       	844.9078       	844.7948       	844.7764       	845.6127       	844.77856      	844.6817       	845.2892       	844.79         	844.7053       	845.7606       	844.72974      	844.68195      	844.6559       	845.0599       	844.6633       	844.626        	845.22125      	844.6659       	844.5852       	844.5484       	845.07904      	844.5582       	844.4955       	844.5582       	845.01526      	844.4452       	844.4218       	844.445        	844.9102       	844.422        	844.40454      	844.4496       	844.8177       	844.4517       	844.42944      	844.94763      	844.57574      	844.5248       	844.4794       	845.2171       	844.6542       	844.5967       	844.5349       	844.5286       	848.9679       	845.0403       	
844.5583       	844.6093       	845.01105      	844.59503      	845.39124      	844.56714      	845.5862       	844.6542       	844.92926      	844.6345       	844.6492       	845.1982       	844.7232       	844.74475      	844.8306       	845.43274      	844.7122       	844.7489       	844.8056       	844.8581       	845.63837      	844.95593      	844.977        	844.9583       	844.9343       	845.2003       	844.91345      	844.97644      	844.9892       	844.89233      	844.80994      	845.0726       	845.0273       	844.97235      	844.8367       	844.80115      	845.0665       	845.0445       	844.9241       	844.824        	845.18134      	845.0599       	844.93317      	844.8626       	845.1442       	845.0648       	844.8931       	845.4858       	845.1122       	844.96783      	844.957        	845.0817       	844.9884       	844.8588       	845.32526      	844.9441       	844.8154       	845.35785      	844.888        	844.77124      	845.9375       	844.90356      	844.8422       	844.75366      	845.19305      	844.8396       	844.7184       	844.75574      	844.8497       	844.788        	844.69934      	844.695        	844.8397       	844.74817      	844.6466       	844.7737       	844.9512       	844.6696       	844.62305      	844.67084      	845.1201       	844.61145      	844.62006      	844.61005      	845.1854       	844.62604      	844.5977       	844.6105       	845.42633      	844.7107       	844.6713       	844.61127      	845.08813      	844.7419       	844.6923       	844.7022       	844.7385       	845.5499       	844.83264      	844.80286      	
846.03455      	844.4402       	844.8562       	844.5731       	844.03937      	845.1989       	845.22687      	845.0606       	844.9733       	844.1634       	844.2252       	844.761        	844.18         	844.3191       	844.38306      	845.0133       	844.31354      	844.35913      	844.43646      	844.43585      	844.9464       	844.43207      	844.45514      	844.46423      	844.39343      	845.7108       	844.5264       	844.58075      	844.54596      	844.43585      	844.50793      	844.623        	844.6175       	844.51245      	844.33997      	845.2207       	844.6735       	844.5802       	844.4267       	844.5143       	844.74475      	844.6055       	844.3894       	844.50745      	844.80475      	844.649        	844.49567      	844.94916      	844.7475       	844.6178       	844.45886      	845.3131       	844.5867       	844.39636      	845.4375       	844.5572       	844.3871       	846.08276      	844.5632       	844.4892       	844.3972       	844.9163       	844.5485       	844.45795      	844.3759       	845.01685      	844.593        	844.51306      	844.43304      	844.60425      	844.5727       	844.5435       	844.47205      	844.42004      	844.6244       	844.4912       	844.4617       	844.4407       	845.27277      	844.422        	844.44226      	844.45325      	844.9411       	844.4418       	844.4231       	844.4213       	844.4267       	845.2931       	844.47125      	844.4479       	844.4763       	844.68195      	844.5353       	844.5055       	844.4852       	845.30725      	844.6078       	844.58954      	844.5647       	844.56995      	
845.16504      	845.411        	845.1775       	844.1126       	846.6231       	845.3779       	845.01605      	844.1452       	844.4857       	844.1692       	844.265        	844.3881       	844.8852       	844.34155      	844.37134      	844.3912       	844.4161       	844.334        	844.44135      	844.4237       	844.3895       	844.31146      	844.45715      	844.43134      	844.49133      	844.4229       	844.248        	844.0482       	843.9325       	844.91614      	844.52356      	844.3906       	844.2177       	844.04956      	845.22876      	844.471        	844.29565      	844.0956       	844.12854      	844.5849       	844.3988       	844.173        	844.4632       	844.60535      	844.4071       	844.2063       	844.3783       	844.60736      	844.39         	844.1757       	845.33136      	844.4605       	844.244        	844.1161       	845.28503      	844.3508       	844.17786      	844.12537      	844.4283       	844.3087       	844.17084      	844.12335      	845.20355      	844.3493       	844.2816       	844.20416      	845.07874      	844.4014       	844.3559       	844.25616      	844.25415      	844.70984      	844.3354       	844.30414      	844.27344      	844.8487       	844.286        	844.239        	844.2317       	844.2648       	844.77374      	844.1771       	844.1807       	844.20667      	844.60974      	844.16644      	844.14984      	844.16565      	844.2226       	844.8886       	844.24945      	844.1815       	844.16266      	844.84863      	844.31573      	844.25415      	844.19635      	844.1296       	848.539        	845.02856      	
844.69434      	844.9472       	844.6718       	844.6265       	844.6884       	844.5773       	844.13306      	843.8064       	844.0794       	843.86664      	843.91644      	844.56836      	843.9156       	844.02637      	844.0393       	843.97504      	844.6276       	844.0432       	844.0619       	844.05963      	843.9557       	843.86255      	844.6097       	844.1189       	844.07465      	843.89703      	843.75354      	843.64075      	844.70746      	844.1836       	844.0012       	843.7988       	843.6387       	844.91833      	844.14136      	843.9603       	843.733        	843.5813       	845.4679       	844.1942       	843.9623       	843.7642       	843.8378       	844.32336      	844.0626       	843.82544      	843.85486      	844.309        	844.04254      	843.85925      	843.8418       	844.1822       	843.9796       	843.8548       	843.8168       	844.16986      	843.97845      	843.84766      	843.7394       	844.49316      	844.05786      	843.96204      	843.8485       	843.80695      	845.04724      	844.07965      	843.95325      	843.8776       	843.9425       	844.1104       	844.0764       	844.058        	843.9731       	844.15485      	844.1002       	844.0107       	843.97815      	843.98785      	844.99536      	843.98926      	843.9898       	844.0167       	844.02124      	844.5343       	843.9523       	843.9763       	843.9827       	844.2157       	844.1042       	844.0354       	843.9877       	843.9775       	844.21875      	844.1273       	844.0777       	844.04395      	844.3272       	844.55383      	844.15845      	844.14954      	
844.72473      	844.6476       	844.87195      	844.5699       	844.514        	844.24097      	843.77966      	843.88025      	844.3906       	843.8626       	843.9603       	844.1944       	843.879        	843.9553       	843.9485       	843.931        	843.84503      	844.61676      	843.9872       	843.99426      	843.94183      	843.76605      	843.65405      	843.61975      	844.0596       	844.02155      	843.88385      	843.71844      	843.5642       	843.6644       	843.9008       	843.76373      	843.57574      	843.41394      	843.43207      	843.9426       	843.6918       	843.48145      	843.3082       	843.6098       	843.9645       	843.7115       	843.477        	843.4179       	844.1173       	843.7755       	843.5473       	843.40173      	844.34564      	843.79333      	843.5231       	843.38324      	844.2256       	843.7362       	843.51953      	843.43585      	843.87427      	843.737        	843.57574      	843.49475      	843.4195       	844.0733       	843.68134      	843.5895       	843.4522       	843.44934      	844.20386      	843.72626      	843.6095       	843.57605      	843.5136       	844.09467      	843.7304       	843.63293      	843.60126      	843.6543       	843.95087      	843.6253       	843.6295       	843.62036      	843.6217       	844.2216       	843.55426      	843.55316      	843.5536       	843.6942       	843.61804      	843.6276       	843.5347       	843.52704      	844.14703      	843.71594      	843.6331       	843.5575       	843.5387       	844.0447       	843.6924       	843.6742       	843.63464      	843.60156      	
844.8184       	844.7763       	844.9652       	844.7243       	844.7477       	844.9398       	843.82355      	843.9273       	844.4186       	843.89594      	844.0052       	844.7805       	843.9915       	844.01135      	844.00336      	843.9694       	843.957        	844.0323       	844.07465      	843.9999       	843.9176       	843.74316      	843.6303       	844.5026       	844.05536      	843.9161       	843.74097      	843.5944       	843.57434      	844.0395       	843.8738       	843.673        	843.56775      	843.5462       	844.03156      	843.75543      	843.53296      	843.419        	844.10535      	844.0442       	843.82263      	843.59515      	843.5937       	844.0966       	843.82886      	843.6256       	843.7107       	844.0375       	843.85016      	843.6646       	843.77014      	843.97516      	843.7729       	843.62695      	843.56433      	844.2753       	843.8258       	843.72455      	843.6611       	843.71606      	843.99524      	843.8315       	843.7529       	843.705        	843.77344      	843.97815      	843.8988       	843.7828       	843.7575       	844.07086      	843.9985       	843.9096       	843.84827      	843.83453      	844.0686       	843.90814      	843.88873      	843.88385      	843.8979       	843.9224       	843.85583      	843.794        	843.7919       	843.8047       	843.9812       	843.8157       	843.804        	843.7623       	843.77356      	844.5039       	843.8816       	843.8652       	843.81287      	843.9029       	843.9597       	843.9488       	843.8676       	843.80835      	843.835        	843.7692       	
844.89417      	844.5935       	845.0267       	844.6777       	844.9807       	843.8375       	844.2689       	843.86725      	843.9948       	844.4566       	843.9323       	843.99866      	844.20886      	843.9015       	843.89325      	843.9574       	843.8466       	843.72864      	844.5416       	843.8808       	843.8067       	843.7465       	843.59314      	843.42096      	845.25696      	843.7312       	843.54486      	843.3565       	843.2346       	843.4698       	843.51855      	843.3191       	843.13043      	843.0939       	843.932        	843.45776      	843.16785      	843.0879       	843.04816      	843.98254      	843.3958       	843.22943      	843.10657      	844.5192       	843.4837       	843.2693       	843.1942       	844.1151       	843.36584      	843.2393       	843.17584      	844.1292       	843.3464       	843.2458       	843.1537       	843.9912       	843.42554      	843.2971       	843.2763       	843.2545       	843.8468       	843.41125      	843.3454       	843.2767       	843.2725       	844.0517       	843.4886       	843.43823      	843.40106      	843.3482       	843.9721       	843.5401       	843.49084      	843.46606      	843.4649       	843.9788       	843.5304       	843.5176       	843.4651       	843.4731       	843.99994      	843.4635       	843.3991       	843.4476       	843.48157      	844.3366       	843.48334      	843.502        	843.4696       	844.0188       	843.65         	843.6071       	843.6106       	843.59125      	844.0084       	843.70013      	843.6238       	843.6032       	843.5559       	843.5271       	
844.4111       	844.2757       	843.828        	843.8815       	844.24164      	843.1674       	843.2995       	843.4975       	843.27673      	843.45825      	843.3334       	843.4079       	843.41406      	843.9675       	843.3074       	843.3101       	843.2334       	843.10376      	842.9849       	843.73785      	843.2943       	843.1819       	843.0604       	842.88116      	842.77856      	844.01324      	843.0658       	842.9125       	842.73114      	842.6839       	843.6735       	842.81537      	842.637        	842.6205       	843.2989       	842.9587       	842.7219       	842.6146       	842.58716      	843.474        	842.949        	842.75494      	842.641        	844.0514       	843.0104       	842.7804       	842.72516      	843.8502       	842.864        	842.7268       	842.7034       	843.41113      	842.9404       	842.8267       	842.7397       	843.3544       	842.9547       	842.8415       	842.82855      	842.81635      	843.70544      	843.03876      	842.9364       	842.8409       	842.87463      	843.12244      	843.0753       	843.0038       	842.9477       	842.8685       	842.9392       	843.0483       	843.00525      	842.90027      	842.86334      	842.96545      	842.9708       	842.8861       	842.8761       	842.8818       	842.9075       	843.16504      	842.81714      	842.78394      	842.8272       	843.0665       	842.9249       	842.8469       	842.8644       	842.9008       	843.66797      	842.9689       	842.96155      	842.8831       	842.8736       	843.4011       	843.04987      	842.98004      	842.9623       	842.92474      	
844.0678       	843.32294      	843.552        	843.3214       	843.46063      	843.79175      	843.45306      	843.5671       	843.9726       	843.4997       	843.56024      	843.52454      	843.4228       	844.04047      	843.50104      	843.4654       	843.39246      	843.2112       	843.0265       	843.17786      	843.55566      	843.4583       	843.28503      	843.1173       	843.0049       	843.4384       	843.2761       	843.0967       	842.9756       	842.9794       	843.76         	843.01434      	842.92584      	842.9521       	843.5134       	842.971        	842.83685      	842.83606      	843.47         	843.21326      	842.9991       	842.87555      	844.0023       	843.2551       	843.0357       	842.95764      	843.60547      	843.1224       	843.0255       	843.0898       	843.3146       	843.1334       	843.0752       	843.1149       	843.9841       	843.29895      	843.1618       	843.1296       	843.1998       	843.4016       	843.2678       	843.2222       	843.2587       	843.2894       	844.2048       	843.3015       	843.2693       	843.21936      	843.30145      	843.3816       	843.3235       	843.2882       	843.2512       	844.0456       	843.32904      	843.273        	843.279        	843.2716       	844.10614      	843.2355       	843.2429       	843.22516      	843.25696      	843.6869       	843.23535      	843.2516       	843.25024      	843.2377       	844.1015       	843.32294      	843.2794       	843.2267       	843.16534      	843.8886       	843.4092       	843.391        	843.3139       	843.2808       	843.234        	843.2108       	
843.583        	842.5335       	843.98596      	842.518        	842.6845       	843.07465      	842.6081       	842.6959       	842.7211       	843.12494      	842.7354       	842.71936      	842.70844      	842.539        	842.6882       	842.753        	842.6917       	842.5477       	842.4026       	842.3061       	842.244        	842.3662       	842.72003      	842.54266      	842.37604      	842.2784       	842.3023       	842.89453      	842.3444       	842.29944      	842.27246      	842.35046      	842.7496       	842.2406       	842.2005       	842.33563      	843.1476       	842.3397       	842.1492       	842.18567      	847.43225      	842.50793      	842.31476      	842.2506       	848.0546       	842.5141       	842.3446       	842.2974       	843.3814       	842.48395      	842.37494      	842.3349       	842.72894      	842.5537       	842.4899       	842.4236       	842.45435      	842.9746       	842.5408       	842.4763       	842.4671       	842.51556      	843.20874      	842.6311       	842.61334      	842.5937       	842.5771       	843.405        	842.70306      	842.6491       	842.6334       	842.7856       	842.6917       	842.69275      	842.68677      	842.65094      	842.95776      	842.7522       	842.6778       	842.62897      	842.703        	842.8058       	842.64746      	842.63086      	842.65985      	842.6428       	842.68286      	843.2895       	842.75934      	842.708        	842.7275       	842.7363       	843.3256       	842.86847      	842.8442       	842.80664      	842.7487       	842.7366       	842.7203       	842.71155      	
843.4509       	843.445        	842.94244      	842.5292       	842.6586       	842.87695      	842.5977       	842.5912       	842.94214      	842.5601       	842.6152       	842.51685      	842.3551       	842.2571       	842.58813      	842.47906      	842.35425      	842.1367       	841.9952       	841.95593      	842.0001       	842.89386      	842.3686       	842.1979       	842.0399       	841.9936       	842.0677       	842.61554      	842.0103       	841.9396       	842.02637      	842.55756      	841.9652       	841.91345      	842.0485       	842.18335      	841.9556       	841.82227      	841.8036       	841.94366      	842.7826       	841.97955      	841.8819       	841.8874       	842.48956      	842.0175       	841.9259       	841.98694      	842.47986      	842.0564       	842.042        	841.9948       	842.55426      	842.0922       	842.04034      	842.08734      	842.18646      	842.1286       	842.10535      	842.1077       	842.0445       	842.14264      	842.1695       	842.1244       	842.1194       	842.0943       	842.3915       	842.2641       	842.25433      	842.13385      	842.0886       	842.2862       	842.25305      	842.1986       	842.19366      	842.1725       	842.3764       	842.18945      	842.1664       	842.18097      	842.2194       	842.2817       	842.20984      	842.08685      	842.08496      	842.1546       	842.155        	843.03357      	842.2359       	842.1615       	842.1521       	842.1651       	842.30927      	842.32916      	842.28906      	842.20483      	842.1725       	842.14954      	842.0792       	842.0958       	
843.89954      	844.0016       	843.81537      	843.7694       	842.8847       	842.9558       	843.1562       	842.9044       	842.9034       	843.5531       	842.90466      	842.8668       	842.7978       	843.1428       	842.83405      	842.6901       	842.5227       	842.3777       	842.30554      	843.51495      	842.72406      	842.52155      	842.3762       	842.302        	842.2944       	842.70776      	842.3108       	842.25916      	842.31476      	842.3835       	844.18024      	842.1981       	842.2028       	842.2995       	842.53894      	842.20123      	842.1059       	842.1554       	842.3484       	842.99634      	842.24817      	842.1696       	842.207        	843.0524       	842.34796      	842.2315       	842.2507       	842.7538       	842.3584       	842.32385      	842.3352       	842.9073       	842.413        	842.35144      	842.35834      	842.5647       	842.41754      	842.37494      	842.371        	842.44543      	842.60657      	842.4476       	842.47864      	842.46655      	842.3809       	843.1416       	842.5471       	842.46515      	842.42065      	842.43713      	843.18256      	842.5748       	842.5233       	842.49805      	842.47864      	843.0585       	842.53033      	842.4762       	842.4735       	842.49677      	844.0931       	842.47845      	842.444        	842.4316       	842.4651       	842.5267       	842.57135      	842.49176      	842.4635       	842.4874       	842.5007       	843.04846      	842.68445      	842.58215      	842.55963      	842.5266       	842.4912       	842.43335      	842.39716      	842.4118       	
844.8497       	844.02936      	843.7624       	843.99445      	843.669        	844.7288       	843.6842       	843.6995       	844.3281       	843.68384      	843.6058       	843.85944      	843.6772       	843.5897       	843.49713      	843.2955       	843.3691       	843.6105       	843.4436       	843.2333       	843.0858       	843.0355       	843.0854       	843.653        	843.1618       	843.1102       	843.0891       	843.0763       	843.2357       	843.8165       	843.039        	843.03094      	843.1201       	843.25757      	843.47595      	842.8736       	843.03424      	843.1752       	843.4194       	842.88715      	842.9102       	842.9655       	843.4227       	842.93835      	842.88416      	843.05475      	843.08636      	843.0143       	842.9685       	843.09045      	843.9141       	843.0541       	843.0205       	843.02747      	843.70483      	843.0336       	842.9778       	843.01         	843.08075      	843.7853       	843.08105      	843.0846       	843.058        	843.0185       	843.80914      	843.1337       	843.0992       	843.0566       	842.97815      	843.3352       	843.1277       	843.0649       	843.0048       	843.00867      	843.8235       	843.08276      	843.0146       	843.03265      	843.04254      	843.5945       	842.9697       	842.9782       	842.9576       	842.9589       	843.01733      	843.02136      	842.94696      	842.9532       	842.9368       	842.9413       	843.50055      	843.06714      	843.0486       	843.017        	842.9775       	842.94226      	842.8903       	842.9288       	843.4707       	843.0752       	
845.13605      	846.4659       	844.0776       	845.2598       	845.39594      	844.07526      	844.1087       	844.62665      	844.14734      	844.0797       	844.04004      	844.1142       	844.0012       	843.8518       	843.6943       	843.7588       	843.92505      	843.8098       	843.6416       	843.47         	843.4789       	843.5751       	844.5066       	843.6695       	843.5221       	843.50323      	843.5531       	843.7109       	844.298        	843.5307       	843.55493      	843.69464      	843.8331       	843.94727      	843.47485      	843.5899       	843.8367       	843.4215       	843.3939       	843.4476       	843.7425       	843.5612       	843.4706       	843.46674      	843.69495      	843.6256       	843.552        	843.543        	843.8635       	843.66406      	843.63116      	843.63995      	843.74536      	843.8469       	843.6887       	843.67175      	843.7409       	843.82214      	844.44617      	843.7776       	843.78973      	843.7637       	843.73175      	844.21246      	843.83777      	843.7709       	843.7639       	843.7523       	844.7143       	843.8753       	843.82104      	843.7894       	843.7614       	844.23346      	843.82465      	843.8017       	843.78406      	843.81226      	844.292        	843.7618       	843.7685       	843.7867       	843.84265      	844.32495      	843.74976      	843.7894       	843.82715      	843.82715      	844.00946      	843.9198       	843.8825       	843.8671       	843.83954      	843.83746      	843.8519       	844.37036      	843.9944       	843.91516      	843.8262       	843.85815      	
844.33844      	843.1836       	843.33386      	843.71277      	844.37683      	844.44495      	843.1692       	843.16907      	843.7963       	843.18384      	843.08234      	844.0196       	843.11536      	843.00433      	842.8365       	842.6992       	843.8897       	843.02313      	842.82513      	842.69135      	842.6741       	842.72864      	842.84406      	843.3058       	842.70825      	842.7348       	842.8223       	842.9049       	843.5504       	842.7588       	842.82605      	842.9014       	843.1809       	843.20715      	842.7359       	842.84485      	843.02045      	842.7103       	842.7256       	842.8161       	848.0697       	842.7712       	842.7167       	842.80005      	843.4364       	842.88696      	842.8482       	842.9223       	842.94727      	842.92883      	842.9466       	843.19366      	843.06696      	843.01733      	843.0344       	843.09576      	843.4737       	843.0586       	843.1105       	843.1356       	843.1366       	844.09515      	843.16003      	843.1752       	843.11597      	843.1098       	844.0929       	843.2663       	843.211        	843.1513       	843.0894       	844.01166      	843.2081       	843.2155       	843.21454      	843.4379       	843.22906      	843.20306      	843.2028       	843.21375      	843.5541       	843.2151       	843.20184      	843.1905       	843.2179       	843.24243      	844.1741       	843.2395       	843.2616       	843.27954      	843.2386       	843.24536      	844.0764       	843.352        	843.3259       	843.3134       	843.2647       	843.2328       	843.23956      	843.2562       	
843.51294      	843.5898       	843.01733      	843.06085      	843.94135      	844.2447       	843.55707      	842.926        	843.41986      	842.9174       	842.8551       	843.20996      	842.7636       	842.6211       	843.18915      	842.7832       	842.5202       	842.40625      	842.3233       	843.07385      	842.5048       	842.423        	842.30707      	842.36676      	842.42505      	842.8811       	842.2562       	842.3769       	842.4599       	842.635        	843.0534       	842.37854      	842.4817       	842.74963      	842.69116      	842.27094      	842.37366      	842.6178       	842.2164       	842.25287      	842.3698       	842.70087      	842.3304       	842.2977       	842.3219       	842.9961       	842.3842       	842.3697       	842.7709       	842.4903       	842.42         	842.48315      	843.3406       	842.5195       	842.5495       	842.5585       	842.56866      	842.8975       	842.5348       	842.59735      	842.5657       	842.49713      	843.2306       	842.6142       	842.58356      	842.54047      	842.4849       	843.281        	842.6282       	842.5827       	842.5212       	842.4805       	843.02563      	842.559        	842.52747      	842.4825       	842.72534      	842.46576      	842.426        	842.4306       	842.43494      	842.52765      	842.47235      	842.4212       	842.4142       	842.4525       	842.47064      	842.70966      	842.51685      	842.45416      	842.4547       	842.4742       	842.44403      	842.41565      	843.37946      	842.55035      	842.52997      	842.484        	842.4401       	842.43445      	
843.6109       	843.5133       	844.7451       	845.0092       	844.05334      	843.45715      	843.91626      	843.4528       	844.84564      	843.815        	843.3329       	843.78876      	843.33215      	843.18005      	843.6651       	843.23785      	843.03644      	842.9169       	843.0977       	843.1366       	842.9531       	842.87463      	842.8532       	842.92377      	844.05066      	842.8142       	842.81323      	842.87317      	843.00385      	843.3174       	842.80756      	842.90594      	843.36743      	842.7474       	842.85785      	843.2852       	842.7201       	842.80304      	842.95795      	842.73315      	842.6946       	842.74603      	843.45544      	842.77747      	842.7035       	842.77893      	843.19086      	842.8119       	842.81744      	843.60376      	842.90875      	842.87067      	842.9068       	843.7327       	842.89185      	842.9688       	842.9667       	843.0976       	842.9492       	842.95874      	842.9157       	842.91516      	842.89465      	843.32904      	842.98303      	842.9335       	842.9053       	843.04944      	843.0351       	842.9916       	842.9567       	843.51044      	842.95886      	842.8896       	842.84937      	843.87976      	842.8753       	842.807        	842.82153      	842.9258       	842.9885       	842.8275       	842.7568       	842.77826      	842.7811       	843.5463       	842.82196      	842.80505      	842.8047       	842.7772       	842.7998       	842.9013       	842.96277      	842.8456       	842.84924      	842.80206      	842.7584       	842.7458       	842.7299       	842.74976      	
844.08856      	844.9301       	845.0342       	845.0211       	845.09094      	844.135        	843.94604      	843.6575       	843.7313       	843.6565       	843.56195      	843.5573       	843.6117       	843.46094      	843.2792       	843.16315      	843.9689       	843.3575       	843.1296       	843.12933      	843.15796      	843.2861       	843.2086       	843.12683      	843.1221       	843.232        	843.3425       	843.9558       	843.20496      	843.2972       	843.4742       	843.69763      	843.2701       	843.36743      	843.6111       	843.2321       	843.3014       	843.74084      	843.1435       	843.22003      	843.41156      	843.22565      	843.17487      	843.32086      	843.2611       	843.2268       	843.3363       	843.63385      	843.33527      	843.3258       	843.66656      	843.33813      	843.37067      	843.4316       	843.7353       	843.4225       	843.4758       	843.4265       	843.76953      	843.4922       	843.48987      	843.41644      	843.4078       	843.6277       	843.5691       	843.5051       	843.44916      	843.4239       	844.2442       	843.5068       	843.44055      	843.83356      	843.5085       	843.43164      	843.3909       	843.528        	843.4021       	843.3714       	843.33746      	843.36536      	843.8528       	843.3092       	843.2958       	843.30597      	843.34644      	843.3626       	843.9327       	843.3538       	843.3597       	843.34564      	843.3626       	843.3087       	843.7587       	843.44104      	843.399        	843.335        	843.2849       	843.26227      	843.2506       	843.233        	
845.5573       	845.67535      	845.59406      	845.7688       	845.04926      	844.30035      	845.5312       	845.6308       	845.0269       	844.17773      	846.9164       	844.13275      	844.00134      	845.96985      	844.00903      	843.8611       	843.6645       	843.6712       	843.936        	843.75806      	843.6765       	843.6458       	843.7455       	844.02924      	843.6279       	843.6549       	843.7438       	843.94635      	844.14716      	843.6426       	843.75903      	844.0192       	843.51794      	843.61725      	843.7524       	844.0315       	843.5274       	843.6223       	844.0107       	843.4707       	843.48956      	843.61975      	843.8028       	843.5948       	844.2172       	843.6107       	843.60736      	844.3137       	843.638        	843.6387       	844.40436      	843.6605       	843.7129       	843.76697      	844.03735      	843.6552       	843.70746      	843.6918       	843.8369       	843.73804      	843.7579       	843.762        	843.7021       	843.65454      	844.0944       	843.73285      	843.6684       	843.6325       	844.43164      	843.74866      	843.6755       	843.6351       	844.1943       	843.6649       	843.5917       	843.56946      	844.00433      	843.5354       	843.49384      	843.503        	843.4999       	843.6314       	843.4551       	843.4308       	843.4506       	843.50366      	843.5208       	843.68097      	843.5191       	843.52277      	843.49615      	843.506        	843.5199       	843.4938       	843.9985       	843.5427       	843.50977      	843.49426      	843.4711       	843.4806       	
