# www.neaspec.com
# Scan:	 	AFM
# Project:	 	20251007_PS
# Description:	 	
# Date:	 	10/07/2025 11:26:44
# Scanner Center Position (X, Y):	[µm]	49.99	50.01	 
# Rotation:	[°]	0	 	 
# Scan Area (X, Y, Z):	[µm]	5.000	5.000	0.000
# Pixel Area (X, Y, Z):	[px]	100	100	1
# Averaging:	 	1	 	 
# Integration time:	[ms]	5	 	 
# Laser Source:	 	4.5-15 µm nano-FTIR laser
# Detector:	 	R
# Target Wavelength:	[µm]	7.502	 	 
# Demodulation Mode:	 	Fourier
# Tip Frequency:	[Hz]	241,340.500	 	 
# Tip Amplitude:	[mV]	45.700	 	 
# Tapping Amplitude:	[nm]	83.227	 	 
# Modulation Frequency:	[Hz]	0.000	 	 
# Modulation Amplitude:	[mV]	0.000	 	 
# Modulation Offset:	[mV]	0.000	 	 
# Setpoint:	[%]	79.75	 	 
# Regulator (P, I, D):	 	4.206850	8.625812	1.000000
# Tip Potential:	[mV]	0.000	 	 
# M1A Scaling:	[nm/V]	0.426	 	 
# M1A Cantilever Factor:	 	1,000	 	 
# Q-Factor:	 	487.4	 	 
# Version:	 	2.1.11536.0
828.78125      	829.9867       	829.7021       	829.62964      	829.8443       	829.88477      	829.89655      	829.8611       	829.7861       	829.4773       	828.9739       	829.20056      	829.4234       	829.27435      	829.1905       	829.3272       	832.9073       	829.2376       	829.30426      	829.57806      	829.25903      	829.30676      	829.26575      	830.66003      	829.22327      	829.2638       	829.20953      	829.1186       	829.4862       	829.2888       	829.1749       	829.0543       	828.88324      	828.7306       	829.8653       	829.06354      	828.8277       	828.5922       	828.88434      	829.1123       	828.8635       	828.6073       	828.49536      	829.5826       	828.9617       	828.76825      	828.62683      	828.9799       	830.2093       	830.1899       	830.17926      	830.10767      	830.14056      	830.3985       	830.2354       	829.9061       	830.22437      	830.0338       	830.03876      	829.76434      	830.11597      	830.2272       	829.75726      	828.8346       	828.829        	830.0846       	829.9073       	829.9219       	830.02924      	829.9994       	830.2712       	829.86725      	830.1595       	829.94214      	829.9677       	830.22754      	830.19293      	830.1          	829.154        	829.1029       	829.1898       	829.1335       	829.1169       	829.6109       	829.1804       	829.0892       	829.7571       	829.164        	829.0837       	829.57434      	829.13965      	829.0006       	829.5863       	829.0879       	828.98016      	830.30994      	830.58386      	830.58276      	830.34656      	830.4067       	
829.79755      	829.7849       	830.0159       	829.68274      	829.935        	829.9325       	829.88464      	829.87305      	829.9912       	829.6972       	829.4464       	829.1045       	829.2842       	829.4028       	829.41125      	829.2857       	829.3873       	829.59076      	829.3577       	829.3777       	829.3236       	829.75366      	829.3111       	829.30365      	829.214        	830.50476      	829.3241       	829.29236      	829.22687      	829.0475       	829.68274      	829.2216       	829.07007      	828.83356      	828.6373       	829.59924      	828.9925       	828.78314      	828.53784      	828.4456       	829.8153       	829.001        	828.7226       	828.52747      	828.49304      	829.83295      	828.9345       	828.7776       	829.7379       	830.1985       	829.7359       	830.3177       	830.0052       	830.1884       	830.0606       	830.10187      	830.2286       	829.79395      	829.7636       	829.8757       	829.9122       	830.24426      	828.922        	828.82043      	829.2614       	829.1183       	829.95874      	829.9752       	830.1233       	830.00903      	829.8321       	830.11005      	830.026        	830.19464      	829.74207      	828.9521       	829.00616      	829.50934      	828.98785      	828.96936      	829.6427       	829.071        	829.03235      	828.89465      	829.4031       	829.02966      	828.93494      	828.8535       	829.4376       	828.98395      	828.85156      	829.8089       	829.0043       	828.84375      	830.3129       	830.2327       	830.25104      	830.29895      	830.05756      	830.11755      	
830.05475      	829.79584      	830.0453       	830.17017      	830.0317       	830.21686      	830.13763      	829.8129       	830.27075      	830.23047      	830.22894      	829.2991       	829.5254       	829.62036      	830.0033       	829.496        	829.55853      	830.7044       	829.5094       	829.5574       	829.539        	830.0637       	829.5064       	829.4794       	829.4309       	830.1471       	829.55786      	829.46265      	829.3175       	829.1771       	830.088        	829.4102       	829.23645      	828.99023      	828.8252       	829.3985       	829.22766      	828.973        	828.71155      	828.66113      	828.70953      	829.20435      	828.9937       	828.78796      	828.6927       	829.5427       	829.0114       	828.85803      	829.2452       	829.8087       	830.3671       	830.044        	830.1605       	829.989        	830.0728       	830.42487      	830.131        	829.9664       	830.1161       	829.9049       	830.23676      	829.8658       	829.5829       	829.02185      	830.21234      	830.1801       	830.11786      	830.3236       	830.1614       	830.1559       	830.1519       	830.369        	830.38293      	830.13995      	829.9629       	830.27625      	829.2937       	829.5102       	829.1676       	829.14813      	829.06384      	829.70483      	829.1722       	829.13586      	830.0647       	829.1749       	829.10815      	829.1413       	829.2423       	829.1229       	828.99457      	829.80676      	829.11847      	828.977        	830.38763      	829.0989       	829.0032       	830.47394      	830.05334      	830.2699       	
830.185        	830.2672       	830.32227      	830.4833       	830.3705       	830.4696       	830.54626      	830.37396      	830.5261       	830.5124       	830.3765       	829.8596       	829.7232       	829.836        	829.972        	829.77203      	829.8583       	830.2052       	829.7721       	829.8853       	829.82043      	830.4213       	829.78784      	829.7971       	829.7026       	830.4016       	829.7937       	829.67224      	829.53705      	829.4103       	830.41003      	829.5837       	829.3788       	829.186        	829.061        	830.2285       	829.3482       	829.11383      	828.96545      	828.9324       	829.87305      	829.3392       	829.111        	829.019        	829.0755       	829.48083      	829.2353       	829.09125      	830.2578       	830.33813      	830.21216      	830.3385       	830.41833      	830.461        	830.4277       	830.1839       	830.52856      	830.51294      	830.0604       	830.49774      	830.2267       	830.34045      	830.2524       	830.4638       	830.1139       	830.2354       	830.51666      	830.2765       	830.5609       	830.4593       	830.5011       	830.55927      	830.4586       	830.5847       	830.63116      	830.5606       	830.7395       	830.8489       	830.3349       	829.49274      	829.41724      	829.6855       	829.5374       	829.44586      	829.4076       	829.84155      	829.48016      	829.3816       	831.0409       	830.86676      	829.8151       	829.39294      	829.2893       	830.43976      	830.57086      	830.6762       	830.44836      	830.62463      	830.6644       	830.71326      	
830.50055      	830.5038       	830.4395       	830.6144       	830.57983      	830.63605      	830.6482       	830.792        	830.67224      	830.67426      	830.77734      	830.7737       	830.79517      	830.64136      	830.97504      	829.85736      	830.0141       	830.2679       	829.93414      	830.0141       	829.9308       	829.9173       	829.90594      	830.2566       	829.9232       	829.7995       	829.6938       	829.9486       	829.7614       	829.6402       	829.4689       	830.18286      	829.6585       	829.38745      	829.2208       	829.2347       	829.6428       	829.3818       	829.1989       	829.1026       	829.8442       	829.35156      	829.17444      	829.8815       	829.4154       	829.2216       	829.2833       	830.39606      	830.2494       	830.27344      	830.2539       	830.4898       	830.53876      	830.4686       	830.3761       	830.45715      	830.52185      	830.77405      	830.56586      	830.428        	830.3375       	830.541        	830.4776       	830.5209       	830.4848       	830.5995       	830.68945      	830.6017       	830.7359       	830.5749       	830.6849       	830.7024       	830.7934       	830.63824      	830.76715      	830.9988       	830.829        	831.02435      	830.78406      	830.6938       	829.699        	829.6293       	830.05865      	829.7061       	829.55524      	830.0688       	829.70496      	829.5586       	830.64777      	829.614        	829.5497       	830.5233       	830.84314      	830.9196       	830.736        	830.9122       	830.7245       	830.9355       	830.7154       	830.6094       	
830.4267       	830.3567       	830.44244      	830.42944      	830.5665       	830.54755      	830.57196      	830.67957      	830.6532       	830.6444       	830.69977      	830.73083      	830.69586      	830.6163       	830.71515      	830.93713      	830.59155      	830.722        	830.65326      	831.0424       	830.6345       	830.663        	829.82947      	829.7719       	830.6695       	829.8135       	829.69305      	829.55316      	830.0313       	829.62885      	829.443        	829.20734      	829.0728       	830.03064      	829.44366      	829.17487      	829.0339       	829.79987      	829.3034       	829.04944      	828.98425      	829.9022       	829.1469       	829.08167      	829.62726      	829.2772       	829.19165      	830.82477      	829.30176      	829.28613      	830.3189       	830.3519       	830.41956      	830.5341       	830.40454      	830.5226       	830.4977       	830.6816       	830.5602       	830.5709       	830.34216      	830.4785       	830.47174      	830.43445      	830.4944       	830.7333       	830.5979       	830.6739       	830.6764       	830.6642       	830.6553       	830.63434      	830.63214      	830.77997      	830.9574       	830.712        	830.7969       	830.8305       	830.7868       	830.76324      	830.8856       	830.32214      	829.5798       	829.48724      	830.29944      	829.5797       	829.4623       	830.2944       	829.50616      	829.4934       	830.28516      	830.70636      	830.73914      	831.0358       	830.8333       	830.49274      	830.5712       	830.7062       	830.54285      	830.50934      	
830.7802       	830.50543      	830.62036      	830.6947       	830.80005      	830.8499       	830.87067      	830.89813      	830.9166       	830.89655      	830.9576       	830.97003      	830.9749       	830.919        	831.03455      	831.0325       	831.0032       	830.9457       	830.9892       	831.0688       	830.9846       	830.99835      	831.04553      	829.9929       	829.90204      	829.7613       	831.13715      	829.87756      	829.7284       	829.54584      	829.34766      	829.77673      	829.4971       	829.3193       	829.1892       	829.98706      	829.42377      	829.25446      	829.11005      	830.0452       	829.3026       	829.1666       	829.60876      	829.26984      	829.2105       	830.23926      	830.54175      	829.311        	829.2924       	830.34125      	830.5769       	830.44867      	830.6081       	830.42523      	830.63257      	830.6026       	830.5452       	830.65424      	830.87274      	830.3761       	830.53674      	830.61255      	830.6865       	830.7605       	830.50946      	830.73004      	830.726        	830.7458       	830.91174      	830.6663       	830.792        	830.9488       	830.8342       	830.91223      	830.9685       	830.95447      	830.9775       	830.71295      	831.01697      	831.0099       	830.83594      	830.27386      	829.67413      	829.5986       	830.3505       	829.69244      	829.5388       	830.3895       	829.66614      	829.61237      	829.89075      	829.5855       	831.0827       	830.5157       	830.96265      	830.8054       	830.82135      	830.71906      	830.4899       	830.58746      	
831.1263       	830.9317       	831.10187      	831.14575      	831.26         	831.16693      	831.25946      	831.3708       	831.3653       	831.4757       	831.40265      	831.35376      	831.3817       	831.3851       	831.37366      	831.4223       	831.2676       	831.36755      	831.4925       	831.38806      	831.3771       	831.4226       	831.25446      	831.4514       	831.54846      	830.3181       	830.1784       	830.05817      	830.503        	830.05426      	829.857        	829.6442       	829.6383       	830.2128       	829.761        	829.53973      	829.49603      	829.92834      	829.5895       	829.40247      	830.79816      	830.4696       	830.0801       	829.51404      	829.9763       	830.5287       	830.88837      	830.30273      	829.5941       	829.637        	830.6854       	830.66406      	830.7615       	830.7909       	830.333        	829.76294      	829.83777      	830.86786      	830.9857       	830.7395       	830.99603      	830.81793      	830.8125       	830.9734       	830.87244      	830.99347      	830.85657      	831.1293       	830.8907       	831.07654      	831.13794      	830.98376      	831.07196      	831.01306      	831.15234      	831.23505      	831.2058       	831.14215      	831.31647      	831.2068       	831.11066      	831.2687       	831.24225      	830.6966       	829.91534      	829.7484       	830.49634      	829.85144      	829.7291       	830.4749       	829.8121       	829.6827       	830.24384      	829.6853       	830.6926       	831.41833      	830.906        	830.92175      	830.69824      	830.7618       	
831.448        	831.29156      	831.46686      	831.4462       	831.3669       	831.5753       	831.5462       	831.5846       	831.6585       	831.7084       	831.6588       	831.73785      	831.5823       	831.55035      	831.68945      	831.595        	831.5803       	831.7327       	831.7493       	831.6973       	831.57526      	831.64087      	831.4082       	831.6031       	831.7101       	831.7237       	831.53217      	831.58246      	831.61945      	830.8191       	830.25726      	830.03455      	829.9121       	830.6709       	829.9177       	829.8103       	829.71423      	830.6354       	829.84705      	829.69226      	829.73035      	830.75726      	830.82007      	831.01294      	830.9772       	830.96265      	831.1837       	830.64557      	829.84705      	829.88385      	830.8895       	830.7081       	831.078        	831.02313      	831.1685       	831.23804      	830.835        	831.0494       	831.1278       	831.0547       	831.22906      	831.2278       	830.975        	831.22974      	831.2271       	831.2337       	831.2685       	831.2744       	831.29095      	831.4339       	831.48444      	831.29266      	831.52606      	831.42535      	831.4779       	831.4784       	831.5268       	831.52576      	831.5362       	831.40784      	831.5101       	831.4158       	831.50977      	831.47437      	831.40454      	831.4931       	831.29205      	830.1088       	830.00885      	831.26135      	831.3944       	831.2731       	831.27747      	831.253        	831.42914      	831.2702       	831.17847      	831.1319       	831.03625      	831.01605      	
831.32544      	831.56793      	831.3516       	831.70386      	831.7149       	831.74524      	831.756        	831.79236      	831.81836      	831.8099       	831.87604      	831.95245      	831.733        	832.0097       	831.7028       	831.8916       	831.99084      	831.823        	832.0114       	831.71277      	831.99207      	831.80365      	831.8471       	831.7001       	831.648        	831.7732       	831.7685       	831.7367       	831.7702       	831.67         	831.032        	830.34863      	830.1758       	830.93353      	830.1882       	830.0071       	829.98816      	830.9005       	830.0976       	829.9718       	830.9556       	831.296        	831.0299       	830.9186       	831.09485      	831.3669       	831.1067       	831.02057      	830.1243       	830.1511       	832.19434      	831.08954      	831.1093       	831.3765       	831.25574      	831.53284      	831.2693       	831.38403      	831.4756       	831.4503       	831.3549       	831.17645      	831.3896       	831.1246       	831.2982       	831.50964      	831.428        	831.5151       	831.58606      	831.7639       	831.53796      	831.55493      	831.50885      	831.6786       	831.58374      	831.67         	831.62976      	831.6931       	831.6161       	831.70013      	831.59094      	831.54205      	831.71783      	831.5899       	831.64636      	831.5826       	831.4224       	831.2379       	831.4562       	831.4547       	831.49554      	831.41296      	831.4199       	831.4534       	831.4749       	831.4556       	831.1285       	831.2524       	831.29156      	831.07117      	
831.5274       	831.40497      	831.4697       	831.6416       	831.67084      	831.71136      	831.6886       	831.77435      	831.8231       	831.86316      	831.8415       	831.6887       	831.7052       	831.88696      	831.76587      	831.7751       	831.7198       	831.9198       	831.78235      	831.82385      	831.7659       	831.60095      	831.4758       	831.7405       	831.78735      	831.77435      	831.8689       	830.4729       	830.2747       	830.11945      	830.858        	830.25574      	830.0465       	830.5371       	830.0435       	829.8901       	829.94006      	830.0664       	829.9102       	829.911        	831.3556       	831.0435       	830.9876       	830.8753       	831.05994      	831.1633       	831.1393       	831.09796      	830.5928       	830.04895      	830.1692       	830.54486      	830.11975      	830.2676       	830.51587      	830.2602       	830.4469       	830.2161       	830.2657       	830.5691       	830.29626      	830.33655      	830.7948       	830.3038       	831.4804       	831.60925      	831.414        	831.5573       	831.4449       	831.96         	831.46783      	831.55005      	831.6688       	831.564        	831.5139       	831.6006       	831.62585      	831.65247      	831.5655       	831.6201       	831.65875      	831.5416       	831.5612       	831.5484       	831.6166       	831.3974       	831.40204      	831.5471       	831.3447       	831.2285       	831.19495      	831.423        	831.43854      	831.4354       	831.44965      	831.305        	831.185        	831.23834      	831.1031       	830.9949       	
831.60516      	831.4915       	831.65405      	831.71655      	831.7087       	831.76215      	831.64197      	831.78906      	831.81024      	831.80133      	831.74146      	831.7689       	831.75757      	831.88934      	831.8944       	831.7913       	831.6865       	831.668        	831.80273      	831.7962       	831.78424      	831.5764       	831.6488       	830.55475      	831.5876       	831.90173      	830.5169       	830.3313       	830.93915      	830.2289       	830.0065       	833.9568       	830.1907       	830.03784      	830.65955      	830.04114      	829.92584      	830.08246      	830.05005      	829.9235       	830.4169       	830.96515      	830.9476       	830.9115       	830.8479       	830.47925      	829.9711       	830.1469       	829.9856       	830.0576       	830.2374       	830.4661       	830.2372       	830.2927       	830.5761       	830.2278       	830.24646      	830.5722       	830.27045      	830.28644      	831.1773       	830.29895      	830.3604       	830.6318       	830.3841       	830.3763       	831.32056      	831.46387      	831.9031       	831.7168       	831.5027       	831.46906      	831.4809       	831.59576      	831.50977      	831.5814       	831.5829       	831.7817       	831.5797       	831.8264       	831.4728       	831.45667      	831.4773       	831.54565      	831.41394      	831.4991       	831.33527      	831.4845       	830.9876       	831.3573       	831.547        	831.2771       	831.3665       	831.1644       	831.46606      	831.277        	831.17346      	831.06384      	830.97894      	830.82056      	
831.81415      	831.66736      	831.7904       	831.76044      	831.81244      	831.80676      	831.82526      	831.83264      	831.8245       	831.80884      	831.87244      	831.8714       	831.764        	831.9449       	831.9042       	831.8991       	831.8209       	831.6243       	832.0187       	831.7705       	831.7969       	831.6861       	831.64087      	831.84796      	831.4655       	831.91833      	831.4574       	830.40295      	830.4057       	830.3409       	830.10974      	830.79333      	830.1862       	830.02563      	830.38324      	830.0226       	830.07434      	830.02997      	829.9968       	831.2307       	831.0294       	831.0338       	831.2017       	830.881        	830.82336      	830.1144       	830.1809       	830.4681       	830.1428       	830.263        	830.58765      	830.2817       	830.35645      	830.5202       	830.63794      	830.3562       	830.37317      	830.917        	830.40436      	830.449        	830.5338       	830.54095      	830.47815      	830.6373       	830.4525       	830.5099       	830.88196      	830.4127       	831.82336      	831.7457       	831.67444      	831.66736      	831.62024      	831.75946      	831.64813      	831.81635      	831.5574       	831.78796      	831.63         	831.64453      	831.6935       	831.4281       	831.56775      	831.6063       	831.5482       	831.3393       	831.32904      	831.5042       	831.3486       	831.4229       	831.43823      	831.2434       	831.087        	831.49         	831.3708       	831.29114      	831.2067       	830.8796       	830.80884      	830.96783      	
831.7255       	831.7849       	831.6685       	831.7403       	831.7687       	831.88086      	831.9444       	831.9463       	831.9954       	831.88995      	831.85675      	831.89734      	831.94214      	831.9457       	831.9635       	831.80554      	831.7356       	831.8461       	831.8971       	831.7115       	831.7271       	831.612        	831.90564      	831.755        	831.4459       	831.37177      	831.269        	831.7744       	831.0914       	831.42456      	831.4223       	831.2542       	831.4476       	830.1797       	830.0228       	831.35846      	831.10364      	831.11005      	831.2376       	830.902        	830.9545       	831.05804      	830.1239       	830.1454       	830.4845       	830.1849       	830.25934      	830.4195       	830.6101       	830.3526       	830.568        	830.40015      	830.4939       	830.5938       	831.1143       	830.53455      	830.52875      	831.4967       	830.4849       	830.47766      	830.4671       	830.7804       	830.5229       	830.6102       	830.73285      	830.4677       	831.54095      	830.463        	830.44293      	831.9359       	831.556        	831.7358       	831.7574       	831.5957       	831.6928       	831.7667       	831.6334       	831.50684      	831.54285      	831.6098       	831.52246      	831.5707       	831.4906       	831.4893       	831.5439       	831.4562       	831.45886      	831.14185      	831.45245      	831.26746      	831.488        	831.35504      	831.3434       	831.2755       	831.4054       	831.2511       	831.20276      	830.9652       	830.7995       	830.9547       	
831.8866       	831.7929       	831.93665      	831.931        	832.15955      	832.1088       	831.95905      	832.2242       	832.08954      	832.0606       	832.0709       	832.0345       	832.0144       	832.18463      	832.0635       	832.0834       	831.8987       	831.97064      	831.8753       	831.9505       	831.9276       	831.9473       	831.7376       	831.6243       	831.69403      	831.678        	831.72235      	831.55707      	831.7551       	831.6527       	831.42944      	831.30664      	830.281        	830.1244       	830.12604      	830.20746      	830.10443      	830.0702       	830.7512       	830.12964      	830.15356      	830.27374      	830.5859       	830.2406       	830.35266      	830.91394      	830.30786      	830.4548       	831.17847      	830.38635      	830.5403       	830.9275       	830.47925      	830.55566      	830.6325       	831.20514      	830.55756      	830.5479       	831.29156      	830.5713       	830.5251       	830.76636      	830.55396      	830.51276      	831.0137       	830.5481       	831.2487       	830.52905      	830.8942       	831.8707       	831.71155      	831.7283       	831.7856       	831.75586      	831.86273      	831.7724       	831.74634      	831.7803       	831.786        	831.72845      	831.77057      	831.70996      	831.36206      	831.5603       	830.49976      	830.363        	830.33344      	830.84216      	831.26495      	831.4387       	831.1646       	831.5521       	831.3524       	831.5855       	831.5767       	831.15204      	831.0395       	831.0567       	831.1578       	830.8564       	
832.1337       	831.9356       	832.1595       	832.1957       	832.2349       	832.05865      	832.22         	832.2236       	832.197        	832.14935      	832.2538       	832.2294       	832.1315       	832.21655      	832.2154       	831.9937       	831.8898       	831.9922       	832.0821       	831.9613       	832.14636      	831.96643      	831.9417       	831.9792       	831.8262       	831.80725      	831.805        	831.36584      	831.5875       	831.55084      	831.5722       	831.4054       	831.6039       	831.4011       	831.5049       	830.28406      	830.2268       	830.28033      	830.6663       	830.31506      	830.40765      	830.62933      	830.38904      	830.48083      	830.5944       	831.026        	830.54944      	830.6698       	830.7623       	830.912        	830.7126       	830.8365       	831.3649       	830.791        	830.9254       	830.7892       	830.75745      	830.74255      	831.3015       	830.7784       	830.71204      	831.36786      	830.75433      	831.58325      	830.7562       	830.7185       	831.34546      	830.7158       	833.44824      	831.9605       	831.91565      	831.8644       	831.9863       	832.04297      	831.98175      	831.9156       	831.8691       	831.85583      	831.83484      	831.87946      	831.6939       	831.73645      	830.579        	830.50287      	830.5974       	831.5419       	831.6442       	831.6686       	831.34827      	831.1403       	831.6479       	831.4711       	831.36566      	831.28876      	831.55383      	831.76184      	831.4792       	831.1398       	831.1881       	831.1887       	
832.15955      	832.1077       	832.11176      	832.17896      	832.1256       	832.29333      	832.18933      	832.16266      	832.18024      	832.1426       	832.17285      	832.0873       	832.106        	832.05707      	832.0985       	831.8086       	831.90924      	832.01526      	832.015        	831.9516       	831.9579       	831.9374       	831.91364      	831.7929       	831.80774      	831.7276       	831.7237       	831.74994      	831.4935       	831.5211       	831.49036      	831.4264       	830.72864      	830.2281       	830.2485       	830.8255       	830.2535       	830.3346       	830.4554       	830.75397      	830.42786      	830.55896      	830.86035      	830.5064       	830.63043      	830.764        	831.84204      	830.6531       	830.80005      	830.8926       	831.4541       	830.85034      	830.89624      	831.26965      	830.8942       	830.8796       	831.3969       	830.864        	830.8683       	831.0776       	830.8472       	831.02405      	830.8139       	830.76733      	834.3073       	830.81506      	830.7516       	831.13745      	830.7724       	831.9342       	831.838        	831.974        	831.98254      	831.86646      	832.0021       	831.91296      	831.8546       	831.76276      	831.77893      	832.059        	831.54755      	831.88617      	831.6972       	830.50616      	830.4548       	831.6247       	830.5011       	830.46423      	831.09906      	831.8189       	831.3733       	831.47766      	831.46625      	831.71094      	831.69714      	831.49524      	831.43414      	831.30597      	831.2831       	831.29         	
832.2751       	832.2524       	832.1638       	832.17035      	832.29504      	832.28546      	832.35925      	832.23755      	832.2742       	832.17474      	832.32074      	832.17554      	832.13226      	832.1017       	832.0323       	831.7781       	832.0133       	831.7978       	832.08044      	832.1055       	831.9538       	831.934        	831.8616       	831.839        	831.7683       	831.7372       	831.67194      	831.5116       	831.6358       	831.2989       	831.42505      	831.46234      	830.67883      	830.26306      	830.35474      	830.8308       	830.41187      	830.475        	830.641        	831.84753      	830.482        	830.6104       	830.9058       	830.63965      	830.7216       	830.8224       	831.1565       	830.7936       	830.87067      	830.96716      	831.3954       	830.8981       	830.9502       	831.48254      	830.8845       	831.23865      	830.9177       	830.85034      	831.5487       	830.8585       	830.80914      	831.281        	830.8079       	831.1721       	830.8161       	830.7522       	831.96625      	831.7968       	832.1764       	831.92676      	832.1275       	831.94226      	832.00287      	831.9723       	831.9692       	831.9024       	831.81635      	832.0439       	830.75903      	830.63794      	831.76086      	831.5287       	831.6941       	830.65076      	830.53455      	831.12885      	830.50134      	830.47095      	831.1595       	831.54895      	831.46106      	831.7569       	831.5006       	831.6475       	831.8028       	831.64136      	831.36945      	831.33307      	831.53217      	831.46326      	
832.3995       	832.4066       	832.3194       	832.39465      	832.4144       	832.34375      	832.0604       	832.3845       	832.49915      	832.2592       	832.37274      	832.36646      	832.1314       	832.13477      	832.3496       	831.9438       	831.8827       	831.95306      	832.1907       	832.2057       	832.20465      	831.9537       	831.7464       	831.63367      	831.82355      	831.5976       	831.4789       	831.81         	831.43823      	831.52606      	831.4415       	831.55273      	830.39984      	830.3819       	830.6604       	830.43353      	830.51953      	830.7409       	835.379        	830.5564       	830.7324       	830.9033       	831.1706       	830.8369       	830.96375      	831.0156       	831.57446      	830.9351       	831.02795      	831.0628       	831.67065      	831.07086      	831.0912       	831.68024      	831.05896      	831.04         	832.29193      	831.02545      	830.9681       	830.98956      	830.9857       	830.91986      	830.9862       	830.93616      	830.8581       	831.44147      	832.28625      	831.744        	831.9989       	831.98047      	831.9364       	831.8995       	832.2174       	832.13776      	832.15125      	831.9613       	832.1241       	831.2436       	830.76855      	830.8189       	830.8097       	830.6687       	830.7431       	830.6985       	830.59283      	830.7477       	830.62024      	830.55963      	830.53723      	831.69336      	831.704        	831.80457      	831.6302       	831.26825      	831.72076      	831.69403      	831.4281       	831.35394      	831.5911       	831.1409       	
832.305        	832.3047       	832.0084       	832.24976      	832.2945       	831.9474       	832.0543       	832.0082       	832.1983       	832.2909       	832.24274      	832.0634       	832.2252       	832.05237      	831.8561       	831.7705       	831.9145       	831.94763      	832.20154      	831.9434       	831.81665      	831.74         	831.7132       	831.1472       	831.7204       	831.68787      	831.7317       	831.79407      	831.4261       	831.5061       	831.4008       	830.92413      	830.2608       	830.7553       	830.3168       	830.40857      	830.57837      	830.8401       	830.5052       	830.66077      	830.79913      	831.328        	830.7706       	830.87537      	831.2515       	830.835        	830.92163      	831.00525      	831.2679       	830.99054      	831.03314      	831.5107       	831.0039       	831.015        	831.37146      	831.0058       	830.92175      	831.5891       	830.892        	830.85406      	831.1734       	830.86035      	831.2729       	831.81335      	832.2705       	831.84973      	831.8796       	832.08307      	832.0912       	831.9055       	832.089        	831.9861       	831.9474       	831.9254       	832.0312       	831.86554      	831.54254      	830.6804       	830.54974      	831.0818       	830.5929       	830.5883       	831.039        	830.54175      	830.528        	831.12396      	830.49976      	830.4794       	831.08307      	830.4897       	831.59656      	831.6813       	831.1487       	831.6899       	831.66376      	831.6598       	831.56995      	831.49817      	831.12573      	831.04877      	
832.09985      	832.09515      	831.93677      	832.01086      	832.0128       	831.8902       	831.8456       	831.7722       	832.0173       	832.0477       	832.09216      	831.92975      	831.81836      	831.6621       	831.5512       	831.8124       	831.89496      	831.96216      	831.62585      	831.788        	831.70404      	831.49384      	831.064        	831.41205      	831.5716       	831.5536       	831.55145      	831.59503      	831.4778       	831.06976      	831.3903       	831.2362       	831.1505       	830.16394      	830.2814       	830.4747       	830.93616      	830.44324      	830.599        	830.7638       	830.85876      	830.6634       	830.8116       	831.191        	830.76184      	830.8246       	830.86066      	831.3839       	830.90326      	830.9326       	832.1595       	830.9456       	830.94086      	831.54095      	830.93207      	830.91766      	831.46875      	830.9141       	830.9049       	831.9184       	832.0833       	831.87866      	831.9922       	831.7138       	831.8672       	831.8679       	832.214        	832.04785      	831.9115       	832.00916      	832.0753       	831.8014       	831.85016      	831.1221       	830.64813      	830.64886      	830.8639       	830.57916      	830.52075      	830.92126      	830.60547      	830.52704      	830.915        	830.54565      	830.45483      	830.6262       	830.50916      	830.45984      	830.4855       	831.0885       	831.58484      	830.52954      	830.5709       	831.4202       	831.41046      	831.51306      	831.8945       	831.5226       	831.1267       	831.1277       	
831.9332       	832.02057      	831.6547       	831.86523      	831.8256       	831.8743       	831.8021       	831.8388       	831.8854       	831.74414      	831.8738       	831.9252       	831.5387       	831.52765      	831.35187      	831.5151       	831.73645      	831.55554      	831.45874      	831.42505      	831.53406      	831.1957       	831.08484      	830.9109       	831.0622       	831.06964      	831.0911       	831.3154       	831.1908       	831.00165      	830.9109       	831.1413       	831.11646      	830.9283       	830.9697       	830.8856       	831.24554      	830.386        	830.5619       	830.9408       	830.5485       	830.66614      	831.2347       	830.62463      	830.7196       	830.96643      	830.6822       	830.76996      	830.7429       	831.32294      	830.82916      	830.80707      	831.3399       	830.8046       	831.42126      	830.7133       	831.12494      	830.7294       	830.74536      	831.6059       	831.6855       	831.84143      	831.78625      	831.5819       	831.77014      	831.86694      	831.5039       	831.58826      	831.805        	831.7692       	831.4612       	831.65594      	830.50934      	830.36615      	830.3705       	830.48315      	830.36523      	830.2911       	830.5196       	830.4109       	830.2936       	830.2738       	830.5613       	830.2436       	830.2689       	830.327        	830.7418       	830.25854      	830.2826       	830.7104       	830.23083      	830.4049       	831.0165       	831.4235       	831.33         	831.30664      	831.3894       	831.2578       	830.9716       	831.1567       	
832.1536       	832.17004      	832.01184      	832.1858       	831.9798       	831.9493       	832.0163       	832.0964       	832.014        	832.04034      	832.0957       	831.8272       	831.98413      	831.553        	831.44434      	831.6566       	831.887        	831.7673       	831.5739       	831.5147       	831.54224      	831.3849       	831.42804      	831.07056      	831.1513       	831.3639       	831.2909       	831.23596      	831.50195      	831.0556       	831.16986      	831.2921       	831.3161       	831.26306      	831.14575      	831.0918       	831.36694      	831.4199       	831.6054       	831.44073      	830.74255      	830.86926      	831.305        	830.82153      	830.94855      	831.1933       	830.9186       	830.9483       	831.22095      	832.1503       	831.80927      	832.0831       	831.9144       	832.32336      	831.7676       	830.8573       	831.9493       	830.823        	831.6733       	832.05133      	832.0189       	831.9401       	831.89453      	831.8486       	831.6972       	831.8659       	831.8651       	831.8251       	831.9054       	831.85254      	831.83344      	831.87866      	831.64417      	830.6041       	830.48914      	830.4436       	830.92145      	830.5043       	830.4656       	830.4307       	830.77747      	830.4515       	830.42865      	830.4581       	831.3854       	830.41907      	830.44446      	830.53864      	831.0317       	830.413        	830.4905       	830.7777       	830.4212       	831.289        	831.62         	831.5674       	831.5091       	831.514        	831.17316      	831.2803       	
832.71875      	832.218        	832.3707       	832.45465      	832.6344       	832.50946      	832.3698       	832.447        	832.5939       	832.3285       	832.3393       	832.3265       	832.23535      	832.27966      	832.0985       	832.2104       	832.1532       	832.17584      	832.0489       	832.0117       	832.13196      	831.6427       	831.6759       	831.7154       	831.8777       	831.6598       	831.96         	831.4184       	831.89734      	831.7412       	831.6552       	831.93036      	831.58264      	831.52563      	831.6472       	831.8744       	831.9864       	831.0961       	831.3509       	831.50946      	833.33215      	831.33746      	831.45337      	831.4802       	831.4413       	831.7709       	831.4985       	831.469        	831.5023       	832.44183      	832.71783      	832.31866      	831.8916       	831.4418       	831.46216      	832.3803       	831.43225      	831.44196      	832.3585       	832.42993      	832.3548       	832.37683      	832.2614       	832.2844       	832.0194       	832.32556      	832.06665      	831.9796       	832.20575      	832.1847       	831.94525      	830.9934       	833.8915       	830.93414      	830.9095       	830.88513      	831.1943       	830.9127       	830.8431       	830.838        	830.8929       	831.3663       	830.8009       	830.82623      	830.89984      	831.1944       	830.751        	830.8104       	830.9359       	831.12573      	830.7811       	830.8019       	830.9934       	831.6999       	831.9417       	831.62537      	831.7153       	831.69543      	831.67883      	831.74963      	
833.0694       	832.7981       	832.7728       	832.7728       	831.74286      	832.94507      	832.6271       	832.6612       	833.012        	832.8634       	832.62195      	832.6524       	832.6724       	832.751        	832.57684      	832.31866      	832.68976      	832.70404      	832.5321       	832.28723      	832.41254      	832.18774      	832.18854      	832.41315      	832.3847       	832.29236      	832.29596      	832.309        	832.20105      	832.0885       	832.33563      	832.09534      	832.15955      	832.03375      	832.14624      	832.2687       	832.6085       	832.1469       	832.5649       	832.0642       	831.8171       	831.9372       	832.0995       	831.84216      	831.89734      	831.9312       	831.93805      	832.09406      	831.98157      	832.4479       	832.5931       	832.8892       	832.9001       	833.03906      	833.12067      	833.02435      	831.8481       	832.1028       	832.68164      	832.93677      	832.7304       	832.7693       	832.70044      	832.67224      	832.4952       	832.566        	832.6752       	832.53973      	832.5551       	832.72015      	832.58374      	832.3722       	831.4577       	831.40375      	831.34314      	831.63416      	831.44275      	831.33685      	831.3865       	831.3938       	831.7685       	831.3753       	831.3977       	831.4426       	831.55365      	831.29114      	831.3759       	831.45386      	831.5328       	831.61584      	831.37427      	831.4674       	831.70514      	831.3991       	831.45087      	832.4098       	832.22485      	832.2825       	832.4291       	832.30475      	
832.96625      	832.62366      	832.7807       	832.5937       	832.59753      	832.84106      	833.00525      	832.89417      	832.8573       	832.7275       	832.5697       	832.5974       	832.56287      	832.5206       	832.39734      	832.57184      	832.41364      	832.4694       	832.46655      	832.1901       	832.20966      	831.93585      	832.16016      	832.36633      	832.2231       	832.24475      	832.222        	832.19226      	832.0641       	832.256        	832.19525      	832.2413       	832.2473       	832.1091       	832.3571       	832.3349       	832.24146      	832.6999       	832.4653       	832.69165      	831.93207      	831.9869       	831.9864       	832.47144      	832.0481       	832.03973      	832.5409       	833.06866      	832.85657      	833.2842       	832.964        	832.91516      	833.1543       	833.0012       	833.0395       	832.8474       	833.0423       	832.92413      	833.1415       	832.8443       	832.6996       	832.8291       	832.72235      	832.6395       	832.8496       	832.6074       	832.5091       	832.85925      	832.5984       	832.8726       	832.7276       	832.8598       	831.54236      	831.56573      	831.5322       	831.94165      	831.5395       	831.5315       	831.556        	832.21906      	831.4831       	831.51227      	831.596        	831.6657       	832.1824       	831.5524       	831.6234       	831.7358       	831.902        	831.5502       	831.5739       	831.67535      	832.0137       	831.5723       	831.6321       	831.6853       	832.48425      	832.4901       	832.4027       	832.4553       	
833.0022       	832.7858       	832.7066       	832.4975       	832.8827       	832.7434       	832.5544       	832.8354       	832.9411       	832.89087      	832.7606       	832.5375       	832.71326      	832.77924      	832.69055      	832.56616      	832.5995       	832.6137       	832.66626      	832.21454      	832.3238       	832.43036      	832.1269       	832.2517       	832.53284      	832.51953      	832.48425      	832.2289       	832.31824      	832.50415      	832.3854       	832.377        	832.31604      	832.4961       	832.60535      	832.7234       	832.74945      	832.92096      	832.9442       	832.9437       	833.14716      	832.95844      	832.23785      	832.1354       	833.93256      	832.14886      	832.09534      	833.3327       	833.4671       	832.97         	833.1211       	833.2617       	833.0387       	833.16547      	833.0948       	833.10895      	833.06165      	833.1725       	833.0824       	833.1989       	832.9649       	832.78784      	832.6451       	832.3259       	831.7102       	832.28455      	833.0188       	832.92487      	831.6917       	832.07025      	832.75653      	832.10114      	831.6433       	831.7913       	831.6832       	831.66724      	831.6659       	832.2359       	831.65045      	831.67737      	831.70734      	831.7794       	831.92         	831.6599       	831.738        	831.79987      	831.90735      	832.15857      	831.69336      	831.7877       	831.85614      	832.3354       	831.72614      	831.762        	831.9476       	831.80865      	831.77386      	831.7648       	831.9022       	834.5546       	
833.17993      	831.81024      	834.4525       	831.77203      	832.2645       	831.77454      	832.2575       	833.0118       	832.8689       	832.84766      	832.6903       	832.51764      	832.88696      	832.5082       	832.7031       	832.5719       	832.5785       	832.43677      	832.5374       	832.3331       	832.4547       	832.4647       	832.0514       	832.37134      	832.3692       	832.34094      	832.35095      	832.4347       	832.5362       	832.126        	832.19574      	832.38153      	832.4512       	832.512        	832.59094      	832.6579       	832.9212       	833.1184       	833.09094      	833.06415      	833.16144      	833.07385      	833.1257       	833.3587       	833.0524       	832.16864      	832.1364       	832.89087      	833.0766       	833.0676       	832.9643       	833.1367       	833.0053       	832.298        	831.986        	833.01953      	833.3937       	832.919        	833.07715      	832.9675       	832.93207      	832.86487      	832.9269       	833.16736      	832.45966      	831.69714      	832.0411       	831.7385       	832.5169       	831.7291       	831.70734      	832.14545      	831.7325       	831.76337      	832.38153      	831.7859       	831.7249       	831.7587       	832.2491       	831.6464       	831.7223       	831.7503       	831.8507       	831.9516       	831.71985      	831.8101       	831.86676      	832.1737       	831.7484       	831.82043      	831.8246       	832.96576      	831.7794       	831.78894      	831.8689       	832.17786      	831.776        	831.75574      	831.76917      	831.9016       	
833.0343       	832.9399       	831.70807      	832.9516       	832.7504       	832.64154      	832.8075       	832.66266      	832.91437      	832.5901       	832.5976       	832.54266      	832.5287       	832.32837      	832.3708       	832.6184       	832.31415      	832.5111       	832.13837      	832.47595      	832.34436      	832.4198       	832.4015       	832.0775       	832.1852       	832.31976      	832.3339       	832.206        	831.4833       	831.70465      	831.98865      	831.6702       	832.02466      	831.83453      	831.91693      	832.8447       	832.7041       	832.9278       	832.96625      	833.0688       	832.92377      	832.893        	833.03845      	832.97253      	833.10443      	833.19196      	833.1286       	833.12427      	832.8611       	833.2175       	832.70575      	832.91705      	832.9268       	832.49384      	832.83435      	833.12396      	833.3059       	833.0331       	832.95245      	832.86066      	832.7273       	832.7577       	832.9703       	832.49243      	832.92346      	831.97955      	831.5938       	832.2468       	831.6124       	831.5765       	832.93494      	831.6553       	831.66254      	831.68854      	832.1019       	831.6377       	831.66644      	831.74713      	832.22363      	831.67773      	831.7461       	831.80035      	831.8372       	831.66174      	831.73016      	831.8321       	831.8744       	832.9063       	831.7657       	831.85406      	831.86615      	831.865        	831.7398       	831.7963       	831.77435      	832.4413       	831.7227       	831.7322       	831.7092       	831.66754      	
832.9442       	833.23865      	832.87604      	832.8487       	832.7584       	832.9806       	833.0665       	832.8567       	832.9855       	832.7542       	832.79944      	832.7854       	832.6279       	832.59906      	832.8072       	832.5618       	832.5434       	832.55835      	832.57574      	832.4608       	832.5235       	832.55115      	832.42285      	832.3323       	832.4417       	832.42896      	832.45044      	831.6198       	832.1803       	831.66925      	831.9534       	832.2566       	832.36414      	832.0293       	832.1864       	832.57135      	832.22235      	832.4833       	833.09985      	833.1642       	833.0107       	833.3054       	833.31793      	833.1364       	832.1674       	832.57623      	832.1878       	832.0512       	832.487        	832.06146      	832.2991       	833.0937       	833.43066      	833.1266       	833.38873      	833.06604      	833.4007       	833.2359       	831.9044       	831.7687       	832.1806       	831.7422       	831.68616      	832.23395      	831.67426      	832.2167       	831.67145      	831.7003       	831.73206      	831.71136      	831.9534       	831.7174       	831.71967      	831.75854      	832.0561       	831.7561       	831.83484      	831.82153      	832.51074      	831.76984      	831.85876      	831.8837       	832.0272       	831.7398       	831.8333       	831.9192       	831.9288       	832.3171       	831.81354      	831.9127       	831.94885      	832.4912       	831.7947       	831.80597      	831.7726       	832.2559       	831.8227       	831.77856      	831.73114      	831.7147       	
833.6494       	833.08795      	833.3385       	833.1413       	833.3568       	833.1842       	833.32385      	833.18445      	833.08813      	833.09863      	832.9094       	833.04156      	833.0573       	832.94714      	832.9767       	832.777        	832.95306      	832.84375      	832.90466      	832.7815       	832.8263       	833.06195      	832.762        	832.8588       	832.8619       	832.52344      	832.8661       	832.06506      	832.29065      	832.62897      	832.26965      	832.45044      	832.84625      	832.4855       	832.5792       	832.95807      	832.5928       	832.686        	832.60126      	832.542        	833.07715      	832.5583       	832.91534      	833.5267       	832.5176       	833.9032       	833.43616      	833.59564      	833.2708       	833.68835      	833.293        	832.2766       	833.9464       	833.1673       	833.38794      	833.40204      	833.162        	832.12415      	831.98315      	832.5909       	832.0318       	831.996        	832.5458       	831.93317      	832.3148       	831.9629       	832.0289       	832.4183       	832.0116       	832.4252       	832.02826      	832.4768       	832.01355      	832.0554       	832.4103       	832.0729       	832.15125      	832.1925       	832.50433      	832.112        	832.1938       	832.25836      	832.46136      	832.21735      	832.24023      	832.2358       	832.6144       	832.179        	832.1963       	832.19165      	832.7778       	832.14465      	832.13464      	832.49457      	832.1016       	832.0605       	832.06323      	832.5026       	832.0599       	832.0101       	
832.9687       	832.81354      	833.05444      	833.1641       	833.18274      	833.1122       	833.0403       	832.86884      	832.9745       	832.90717      	832.9046       	832.95404      	832.8126       	832.815        	832.7854       	832.86523      	832.6962       	832.7101       	832.82104      	832.7038       	832.70734      	832.5658       	832.89136      	832.59546      	832.9106       	832.7861       	832.56903      	832.06445      	832.1609       	832.5187       	832.191        	832.4053       	832.9316       	832.44037      	832.5526       	833.0784       	832.5603       	832.5199       	833.9241       	833.4363       	833.40027      	832.68695      	832.3239       	833.4031       	833.4833       	833.21375      	833.2042       	833.6009       	833.21747      	833.1338       	833.28186      	833.1775       	832.68616      	833.052        	833.07916      	833.3922       	833.02057      	832.1658       	831.9594       	831.8864       	832.05237      	831.904        	832.01746      	831.99146      	831.9278       	832.44965      	831.94763      	831.9909       	832.5208       	831.98663      	832.3867       	831.9558       	832.0148       	833.0331       	832.0388       	832.10895      	832.1354       	832.41364      	832.06824      	832.1295       	832.19574      	832.19653      	832.32355      	832.13855      	832.1862       	832.1563       	832.8227       	832.1601       	832.2001       	832.1744       	832.99243      	832.15375      	832.1515       	832.10126      	832.58624      	832.0576       	832.0224       	831.96606      	836.1674       	832.40845      	
833.63275      	833.62854      	833.61414      	833.54425      	833.558        	833.51996      	833.2936       	833.7875       	833.2852       	833.39636      	833.3928       	833.13464      	833.4301       	833.2841       	833.37506      	833.0938       	833.11414      	833.17584      	833.05536      	833.32947      	833.0928       	833.56635      	833.2705       	833.11707      	833.0905       	833.18164      	833.2226       	833.5183       	832.50415      	832.6814       	833.31976      	832.708        	832.857        	832.8429       	833.2376       	832.82166      	833.2551       	833.7734       	832.7709       	833.0989       	832.79156      	832.5736       	832.98157      	832.56866      	833.2927       	833.57776      	833.713        	833.3736       	833.4657       	833.6329       	833.506        	833.5411       	833.404        	833.1602       	833.48505      	833.49915      	833.484        	832.1531       	832.06946      	832.59143      	832.099        	832.02985      	832.3817       	832.0432       	832.09906      	832.33344      	832.0902       	832.3906       	832.12103      	832.29016      	832.07947      	832.1905       	832.37335      	832.19244      	832.25323      	832.3516       	832.2887       	832.28094      	832.3066       	832.3969       	832.4986       	832.3126       	832.35065      	832.2841       	832.918        	832.29065      	832.3412       	832.30133      	832.81903      	832.2764       	832.2425       	832.2712       	832.2153       	832.1859       	832.1113       	832.5876       	832.1654       	832.10034      	832.07855      	832.0613       	
833.988        	833.8044       	834.0113       	833.8141       	833.9008       	833.9863       	833.8863       	833.99475      	833.6695       	833.7953       	833.7074       	833.6845       	833.79034      	833.7056       	833.80365      	833.71216      	833.6059       	833.6973       	833.75806      	833.76074      	833.90466      	833.6017       	833.67395      	833.71265      	833.63666      	833.8149       	833.92804      	833.9974       	833.8636       	834.1234       	833.6806       	833.35126      	833.51294      	833.53644      	833.3744       	833.4873       	834.23706      	834.1973       	834.45245      	834.25543      	833.61707      	834.00006      	833.12726      	833.0743       	833.95764      	833.91205      	833.7909       	834.22504      	833.77435      	833.80566      	833.8606       	833.9833       	833.7823       	833.696        	833.9314       	833.9608       	833.67896      	833.9336       	833.99115      	833.02893      	832.5614       	832.5553       	833.0407       	832.5548       	833.20795      	832.6019       	832.65436      	832.8863       	832.7257       	833.2234       	832.7649       	833.1813       	832.72         	833.2641       	832.7853       	832.843        	833.3681       	832.8472       	832.9197       	832.9786       	832.88385      	832.89465      	832.91144      	832.8992       	833.5463       	832.91656      	832.8772       	832.83484      	833.5243       	832.83264      	832.77234      	833.36676      	832.79047      	832.74194      	832.697        	833.13324      	832.68463      	832.62305      	832.58466      	836.2496       	
834.18835      	834.2771       	834.42285      	834.17523      	833.9259       	834.48346      	834.3685       	834.1071       	834.20514      	834.04095      	834.25885      	833.98236      	833.9446       	834.0787       	834.1925       	834.09985      	834.0183       	833.9508       	834.17163      	834.2219       	834.16705      	834.2825       	834.2325       	834.12067      	834.113        	834.23004      	834.28546      	834.2181       	834.7016       	834.2789       	833.6315       	833.69574      	834.23596      	833.73596      	833.66516      	834.64496      	834.724        	834.5232       	834.85443      	834.7103       	834.5785       	834.6238       	834.477        	833.8819       	833.8015       	834.28766      	834.277        	834.1169       	833.74677      	833.8896       	834.139        	834.2154       	834.043        	834.12665      	834.0183       	833.9358       	834.1288       	834.45386      	833.02216      	832.97363      	833.4097       	833.0013       	832.99274      	833.47095      	832.9647       	833.0637       	833.4534       	833.1151       	833.32654      	833.0743       	833.29846      	833.2419       	833.2675       	834.41516      	834.0182       	833.5829       	833.1804       	833.70844      	833.20764      	833.21344      	833.2151       	833.503        	833.26373      	833.20776      	833.5251       	833.218        	833.19476      	833.5969       	833.1949       	833.15717      	833.6148       	833.1261       	833.06433      	833.9396       	834.2786       	834.3832       	834.3863       	834.33307      	834.4952       	833.9726       	
834.19586      	834.2826       	834.4813       	834.1351       	834.1918       	834.39984      	834.34644      	834.2755       	834.08984      	834.34125      	834.03094      	834.23785      	834.46027      	834.31726      	834.22797      	834.09485      	834.19446      	834.2258       	834.2556       	834.18854      	834.22473      	834.34045      	834.41895      	834.2222       	834.36597      	834.17535      	834.4604       	834.5811       	834.3873       	834.69867      	834.6145       	834.5391       	834.67096      	834.8792       	834.56256      	834.71967      	834.627        	834.64703      	834.6169       	834.8135       	834.76855      	834.6706       	834.6272       	834.2682       	834.44867      	834.598        	833.827        	834.0576       	834.039        	834.2226       	834.1365       	834.27563      	834.2846       	834.3153       	834.306        	834.2086       	834.4242       	834.3157       	834.0411       	833.62274      	833.2343       	833.2191       	833.54944      	833.2172       	833.30035      	833.753        	833.3302       	833.87836      	834.3199       	833.43494      	833.50867      	833.8608       	834.78235      	834.5484       	834.3854       	834.6221       	834.40027      	834.8643       	834.4993       	834.55884      	834.75         	833.8224       	833.67163      	833.6927       	833.90656      	833.62         	833.665        	833.82776      	833.5124       	833.7843       	834.38226      	833.3844       	834.3273       	834.73285      	834.6729       	834.5051       	834.4759       	834.6078       	834.7934       	834.47626      	
833.00165      	833.00574      	833.11273      	833.49567      	833.843        	834.0792       	833.9414       	833.5344       	833.1824       	833.6339       	833.89557      	834.29974      	833.85406      	833.91693      	834.16223      	833.89545      	834.1835       	833.89984      	834.0687       	834.1656       	834.2597       	834.23804      	834.1931       	834.2504       	834.2911       	834.17194      	834.2845       	834.5067       	834.15564      	834.4535       	834.49115      	834.45056      	834.2458       	834.59607      	834.1427       	834.3469       	834.2842       	834.4438       	834.3126       	834.23663      	834.2578       	834.28015      	834.1493       	834.3122       	833.9023       	834.0004       	833.72565      	833.9001       	833.5771       	834.0173       	833.91656      	833.9192       	834.0359       	833.8852       	833.86804      	834.00775      	833.8864       	834.0186       	833.8616       	833.8486       	833.83264      	833.831        	832.9208       	833.0977       	833.03845      	833.0055       	833.96313      	832.9788       	833.0958       	833.99445      	833.92847      	834.16254      	834.0035       	834.2347       	834.30035      	834.20056      	834.06226      	834.3884       	834.0834       	834.2841       	834.295        	833.95447      	834.4939       	833.125        	833.06836      	833.5768       	833.0934       	833.055        	833.8753       	834.1286       	833.38055      	832.9698       	834.2943       	834.0089       	834.20215      	834.06055      	834.0587       	833.92017      	833.8976       	834.02747      	
833.66986      	833.3051       	833.5138       	833.2275       	833.31824      	833.53906      	833.30817      	833.43097      	834.09973      	833.3047       	833.42926      	833.9438       	834.08856      	834.08716      	834.20764      	834.1108       	834.3684       	834.21686      	834.1602       	834.3331       	834.1445       	834.4681       	834.362        	834.4653       	834.1442       	834.6094       	834.2693       	834.1275       	834.28125      	834.775        	834.47394      	834.2077       	834.3881       	834.31775      	834.4083       	834.37274      	834.50714      	834.4169       	834.04974      	834.2917       	834.3564       	834.3098       	834.1731       	833.7142       	834.0905       	833.97095      	833.66504      	833.85785      	833.72687      	833.85834      	833.816        	833.74695      	833.89325      	833.7656       	833.90393      	834.01575      	833.9322       	833.9609       	833.95593      	833.59656      	833.5409       	833.3076       	832.96515      	833.14606      	833.88403      	833.0077       	833.09705      	833.71265      	833.9296       	834.0271       	834.07745      	834.2655       	834.19696      	834.3034       	834.0074       	834.4042       	834.2104       	834.3506       	834.0001       	834.42914      	833.9876       	834.4352       	833.21735      	833.20984      	833.2509       	833.2301       	833.12305      	834.29364      	833.94666      	833.18054      	833.3188       	833.78345      	834.2265       	834.0536       	834.01953      	834.1758       	834.1133       	834.12976      	833.75903      	834.03815      	
833.49194      	833.76         	833.5055       	833.609        	834.16077      	833.62933      	833.64905      	834.0401       	833.58606      	833.6933       	834.1038       	833.65076      	833.9224       	834.3842       	834.44403      	834.77496      	834.5473       	834.6178       	834.56537      	834.3829       	834.6962       	834.7649       	834.5646       	834.8291       	834.48566      	834.89294      	834.65857      	834.6775       	834.6285       	834.5567       	834.8429       	834.52515      	834.7966       	834.69525      	834.5702       	834.70306      	834.58997      	834.32355      	834.46716      	834.44086      	834.6285       	834.3962       	834.09595      	834.2487       	834.1645       	833.8266       	834.23364      	834.018        	833.8777       	833.9814       	834.13763      	834.0358       	834.2323       	834.0915       	834.2765       	834.2125       	834.1476       	834.12506      	834.2065       	834.1363       	833.89856      	834.02563      	834.3318       	834.0694       	834.23346      	834.1186       	834.10394      	833.91644      	834.3135       	834.2026       	834.26685      	834.46216      	834.7139       	834.33655      	834.4374       	834.58655      	834.651        	834.6651       	834.5407       	835.0411       	834.4187       	833.4581       	833.37476      	833.9989       	833.34143      	833.3274       	833.94434      	833.4847       	833.85535      	833.37866      	833.3161       	833.873        	833.45123      	835.8603       	834.51855      	834.44977      	834.2325       	834.4423       	834.21387      	834.29877      	
833.4044       	833.9853       	833.47046      	833.5116       	834.00494      	833.481        	833.51886      	833.7849       	833.5227       	833.5509       	834.0347       	833.5943       	833.9024       	833.6371       	833.8365       	834.36664      	834.7673       	834.6259       	834.67         	834.6341       	834.79626      	834.66235      	834.7116       	834.6197       	834.6296       	834.6292       	834.6423       	834.69403      	834.5167       	834.7149       	834.6036       	834.5196       	834.4733       	834.4827       	834.5302       	834.37524      	834.4522       	833.13904      	834.16705      	834.12085      	834.336        	834.20825      	834.1481       	833.9144       	833.8403       	833.96344      	833.9218       	833.856        	833.84155      	833.9099       	833.8581       	834.1274       	834.1272       	833.83734      	834.19885      	834.0562       	834.1106       	833.9453       	834.0709       	834.3395       	833.93286      	834.03033      	834.1719       	834.1565       	834.1322       	834.1899       	834.2312       	834.10345      	834.2214       	834.4215       	834.30695      	834.55676      	834.58344      	834.3929       	834.6458       	834.53796      	834.4442       	834.4118       	834.66235      	834.6991       	833.52826      	833.4589       	833.85895      	833.5016       	833.3913       	834.0206       	833.365        	833.3061       	833.69476      	833.2821       	833.4193       	834.29425      	834.3893       	834.4036       	834.3931       	834.42926      	834.3637       	834.4846       	834.2595       	834.3508       	
838.1368       	833.3774       	833.6381       	833.4241       	833.4431       	833.4858       	833.3509       	833.4053       	833.6217       	833.4553       	833.4096       	834.1101       	833.4501       	834.5362       	833.51434      	834.69617      	834.3439       	834.7275       	834.4778       	834.71497      	834.62964      	834.5612       	834.6754       	834.5263       	834.67786      	834.25433      	834.3319       	834.5657       	834.6318       	834.2721       	834.24176      	834.4911       	834.328        	834.142        	834.30414      	834.0534       	834.1275       	834.03033      	833.93726      	834.0625       	834.186        	834.02246      	833.5639       	833.67957      	833.6523       	834.0201       	833.48016      	833.733        	833.89215      	833.4895       	833.9831       	833.6712       	833.9656       	833.95465      	833.8779       	833.7416       	833.9365       	833.93207      	833.59143      	833.9251       	833.85126      	833.8067       	833.91736      	833.6695       	833.0233       	834.22296      	834.25104      	834.0609       	834.44055      	833.9502       	834.3874       	834.15265      	834.4815       	834.54944      	834.39355      	833.6888       	833.2644       	834.1198       	833.2044       	833.12585      	833.50165      	833.1186       	833.0665       	833.1998       	833.04486      	833.2428       	833.10754      	832.9817       	833.5217       	833.0242       	832.945        	833.4896       	832.97406      	833.4538       	832.9602       	833.98425      	834.08466      	834.2861       	833.9179       	834.3152       	
833.92664      	833.6706       	833.3835       	833.4039       	834.0788       	833.4567       	833.42126      	833.8313       	833.4176       	834.82416      	834.56226      	834.7584       	834.08466      	833.50104      	833.9064       	833.4885       	834.6663       	834.7334       	834.6744       	834.651        	834.6198       	834.5938       	834.2451       	834.1722       	833.5001       	833.41693      	834.0966       	833.40485      	833.2908       	833.89         	834.6571       	834.2515       	834.19727      	834.128        	834.3525       	834.0342       	834.0144       	833.9095       	833.87274      	833.9013       	833.84937      	833.6804       	833.88696      	833.2468       	833.027        	833.4703       	833.7613       	833.7565       	833.73627      	833.762        	833.7464       	833.767        	833.8799       	833.8648       	833.8544       	834.08075      	833.7691       	833.6033       	833.99536      	833.9296       	834.0512       	834.0198       	834.0133       	834.14636      	834.1342       	834.2458       	834.11224      	834.07623      	834.3255       	834.238        	834.245        	834.5859       	834.2577       	834.3975       	834.26337      	834.5599       	834.1427       	834.4775       	834.46234      	834.4352       	834.221        	834.3217       	833.2001       	833.0856       	833.60065      	833.08997      	833.10114      	833.09436      	833.0153       	833.70087      	833.03064      	833.05896      	833.10736      	833.07196      	833.1928       	832.98865      	834.18384      	834.0149       	834.4719       	834.3987       	
833.578        	833.5684       	833.52277      	833.8898       	833.5554       	834.31195      	833.6308       	833.6211       	835.03625      	834.67175      	834.6366       	834.86285      	834.4693       	834.0524       	833.5108       	836.00464      	833.5995       	833.81635      	834.7142       	834.8877       	833.6716       	833.9208       	833.58704      	833.43195      	833.93256      	833.4672       	833.34076      	833.8461       	833.38324      	833.2494       	834.4644       	834.32355      	834.5805       	834.1405       	834.28235      	834.0485       	833.7458       	834.02637      	833.28326      	832.8341       	834.12573      	832.77515      	832.75854      	833.3904       	833.2849       	833.01086      	833.7694       	833.843        	833.7966       	833.8688       	833.5856       	833.7754       	834.08325      	833.36884      	833.05676      	833.4925       	833.0883       	833.1863       	833.47626      	833.1348       	833.24603      	833.4872       	833.23535      	834.2423       	834.3442       	834.3594       	834.1564       	834.162        	834.34125      	834.3502       	834.2559       	834.5107       	834.43445      	834.6184       	834.4784       	834.21704      	834.452        	834.39246      	834.2298       	834.07166      	833.1395       	833.1751       	833.427        	833.0583       	833.3629       	833.1772       	833.0398       	833.7608       	833.0937       	833.01746      	833.3464       	832.98785      	833.1407       	833.0254       	832.995        	833.4909       	832.921        	832.9606       	835.85767      	834.2506       	
835.3004       	833.9385       	834.51086      	833.97363      	833.8944       	834.67065      	833.9459       	833.89264      	834.4724       	833.9499       	837.0149       	834.9759       	833.9898       	833.8665       	834.4259       	833.8806       	834.4245       	835.56573      	835.222        	835.2992       	834.35254      	833.8757       	834.26917      	833.8818       	833.7348       	834.57837      	833.7483       	833.5722       	834.129        	833.5981       	833.43726      	834.45056      	834.5014       	834.5944       	834.34204      	834.68195      	834.4088       	834.2911       	834.18756      	834.085        	834.41724      	834.16315      	834.00195      	833.7167       	834.30426      	834.3142       	834.1458       	834.62415      	834.2636       	834.38196      	834.36316      	834.31866      	833.58563      	833.5728       	834.0463       	833.6065       	833.74316      	834.07465      	833.7054       	833.94714      	833.6224       	833.71387      	834.1244       	833.67944      	836.10657      	834.72095      	834.6886       	834.8095       	834.7565       	834.81506      	834.71576      	834.87366      	834.81244      	833.74805      	834.0416       	834.7687       	834.8178       	834.8772       	834.27136      	833.5826       	833.543        	834.33636      	833.51526      	833.4795       	833.7494       	833.455        	833.3691       	834.23254      	833.4347       	833.38806      	834.0396       	833.41956      	833.7515       	833.4547       	833.4319       	833.6741       	833.4067       	833.5064       	834.82776      	834.68414      	
835.0866       	834.7582       	833.95087      	833.6862       	834.5092       	833.8531       	833.762        	834.29565      	833.7929       	833.6526       	833.96246      	833.96313      	833.65656      	833.6127       	834.2249       	833.65875      	835.0486       	834.82263      	834.9194       	834.8903       	834.70734      	833.68945      	833.6581       	833.9475       	833.5264       	834.4485       	833.5862       	833.40375      	834.1133       	833.4486       	833.27454      	834.3398       	834.54584      	834.48773      	834.2259       	834.44244      	833.982        	834.3837       	834.01324      	834.04956      	833.73706      	833.9452       	834.0612       	833.832        	833.9722       	834.11         	834.31714      	833.5857       	833.3549       	834.44196      	834.3817       	834.2223       	834.49097      	833.5399       	833.5622       	834.21204      	834.6617       	833.69574      	833.62976      	836.505        	833.64         	833.7157       	834.6327       	834.55304      	834.7167       	834.31836      	834.5089       	834.7302       	835.0261       	834.8888       	834.8575       	834.79895      	834.8273       	833.77136      	833.6962       	834.3622       	834.5192       	834.89056      	833.64075      	834.23596      	833.6025       	833.436        	833.869        	833.5143       	833.4194       	834.0338       	833.5028       	833.40027      	833.7309       	833.4996       	833.4442       	833.6217       	833.4474       	833.45074      	833.82214      	833.4752       	833.47107      	836.4941       	833.9492       	833.4643       	
837.4882       	833.61035      	834.21246      	833.69916      	833.55695      	834.33435      	833.6719       	833.53894      	834.2337       	833.7132       	833.55994      	834.36804      	833.64         	833.7712       	833.72925      	833.76556      	833.71216      	834.84894      	834.8601       	834.7797       	834.18524      	833.5371       	833.66315      	833.5794       	833.44293      	833.7956       	833.48004      	833.3098       	834.1876       	833.34674      	833.1752       	833.725        	834.29144      	834.0905       	833.99115      	834.37555      	834.42914      	833.98535      	834.0587       	833.90796      	834.1256       	833.89703      	834.0113       	833.8552       	834.1722       	834.11316      	833.62396      	833.5906       	833.91785      	834.12665      	833.49536      	833.7366       	833.5372       	834.33875      	833.98303      	833.65845      	834.34863      	833.6614       	833.69037      	834.1342       	833.7263       	833.77484      	834.212        	834.57074      	834.8554       	834.5671       	834.8454       	834.5728       	834.8881       	834.829        	834.5898       	834.9765       	834.8981       	834.5843       	834.28845      	835.04224      	833.75433      	833.48236      	834.718        	833.89874      	833.4137       	833.5309       	833.503        	833.3866       	834.3651       	833.42084      	833.363        	833.8813       	833.41174      	833.37897      	833.88995      	833.3981       	833.5934       	833.45154      	833.4398       	833.74976      	833.39935      	833.46844      	836.58386      	833.9928       	
834.1615       	834.1602       	833.6042       	833.4807       	834.01685      	833.61975      	833.4469       	833.6552       	833.6357       	833.4351       	833.40405      	833.7183       	833.43207      	834.68463      	834.5766       	834.86554      	834.3913       	834.7268       	834.6012       	834.835        	834.5647       	833.45667      	833.3014       	833.8129       	833.2963       	833.3974       	833.31616      	833.2017       	833.3132       	833.2028       	833.07947      	833.20465      	833.936        	834.1078       	834.1508       	834.12573      	833.91254      	834.0242       	834.0311       	833.5772       	832.90204      	833.9004       	833.71985      	834.09705      	834.1954       	833.89325      	833.85223      	834.1917       	833.9813       	833.686        	833.4691       	834.2725       	834.45715      	833.5401       	833.88086      	833.4877       	833.54987      	833.9472       	833.5629       	833.7589       	833.6764       	833.52014      	834.37866      	834.49567      	834.50903      	834.61194      	834.6918       	834.6111       	834.45386      	834.8057       	834.4399       	834.92194      	834.5407       	834.6894       	834.81354      	834.1937       	834.6399       	834.32837      	834.3904       	834.4078       	833.319        	833.1776       	833.8424       	833.2136       	834.026        	833.2233       	833.1677       	833.67426      	833.213        	833.5411       	833.27795      	833.7821       	834.5653       	834.59375      	834.31067      	834.5553       	834.4193       	833.6366       	833.2904       	833.82214      	
834.0231       	833.50354      	833.8812       	833.6731       	833.50464      	834.07166      	833.57         	833.43195      	834.7839       	834.5183       	834.8854       	833.5727       	835.79956      	834.7651       	834.4823       	834.585        	834.7549       	834.9444       	834.5927       	834.78394      	834.8076       	834.4945       	834.2826       	833.3092       	835.8666       	833.2501       	833.7538       	833.1794       	833.1214       	834.47363      	834.05005      	834.1798       	834.0254       	834.1752       	833.994        	834.01404      	834.0326       	834.09106      	834.21747      	833.76733      	833.7728       	834.06647      	834.0849       	833.97327      	834.06714      	833.9424       	834.26575      	834.4404       	834.4747       	834.28015      	834.38727      	834.42474      	833.639        	833.6947       	833.8778       	833.636        	834.14856      	833.69543      	834.27893      	834.6778       	833.91656      	833.722        	834.5227       	834.7358       	834.72406      	834.74615      	834.6459       	834.67554      	834.7884       	834.4696       	834.7826       	834.71124      	834.73566      	834.83466      	834.56354      	834.8063       	834.73627      	834.5751       	834.7112       	834.4853       	833.3698       	833.25616      	833.88477      	833.32965      	833.8389       	833.2757       	833.81934      	833.3054       	833.82776      	833.3355       	833.7709       	834.30994      	834.5365       	834.4845       	834.5914       	834.579        	834.0935       	833.48956      	833.6476       	836.17633      	
833.3191       	834.0406       	833.27875      	833.0772       	834.012        	833.25366      	833.11163      	833.8066       	833.16296      	833.25006      	834.349        	834.1376       	834.4169       	834.1915       	833.98376      	834.15533      	834.13306      	834.2781       	834.2633       	834.04266      	834.0068       	834.38574      	834.2884       	832.95746      	832.8942       	833.252        	832.8108       	832.89777      	833.02765      	832.781        	833.36255      	833.5186       	834.0064       	833.9593       	833.9145       	833.68097      	833.7345       	833.7052       	833.87897      	833.80365      	833.8226       	833.64886      	833.6328       	833.7829       	833.8936       	834.0235       	834.05994      	834.12946      	833.973        	834.2973       	834.16547      	834.59644      	833.85095      	834.0808       	833.7933       	833.4464       	833.9932       	833.4428       	833.9756       	834.6855       	834.54504      	834.36707      	834.3041       	834.4584       	834.41626      	834.56604      	834.3828       	834.3101       	834.1976       	834.2872       	834.33374      	834.537        	834.46936      	834.5289       	834.67474      	834.6013       	834.45056      	834.1544       	834.5307       	833.1998       	833.0608       	833.72754      	833.1251       	833.1977       	833.08594      	833.1627       	833.2515       	833.0518       	833.807        	834.08844      	833.1162       	834.2585       	834.4532       	834.09894      	834.4669       	834.4976       	834.3691       	833.5941       	833.23047      	834.64636      	
833.5305       	832.9474       	833.85803      	833.1143       	832.9774       	833.3912       	833.1696       	832.9403       	833.939        	834.4545       	834.42664      	833.8037       	832.9151       	833.5641       	832.95447      	833.5021       	833.93665      	834.0187       	833.9478       	834.054        	833.88763      	834.3439       	833.9926       	833.8002       	833.3711       	832.809        	832.7322       	833.20056      	832.6685       	832.72473      	833.2204       	832.6687       	833.2051       	833.9058       	833.66156      	833.6102       	833.7471       	833.6467       	833.67523      	833.79565      	833.7987       	833.60706      	833.71783      	833.70856      	833.9789       	833.67584      	833.9348       	834.0492       	834.12164      	834.0671       	834.05084      	834.3778       	834.1413       	833.6582       	833.3943       	834.44293      	833.3284       	833.40594      	834.0824       	834.35474      	834.3412       	834.2757       	834.48206      	834.2061       	834.34827      	834.24         	834.40814      	834.339        	833.9884       	834.3079       	834.4311       	834.3884       	834.2973       	834.455        	834.3803       	834.1826       	834.4922       	833.94653      	834.00714      	832.9774       	832.94727      	833.5685       	832.9675       	834.0967       	833.4054       	832.9115       	833.44867      	832.89716      	833.18945      	833.7229       	832.9472       	833.32916      	834.00586      	833.99426      	834.1093       	834.2071       	834.3353       	833.42664      	833.17474      	835.85144      	
834.04285      	833.1925       	834.5351       	833.3792       	833.113        	834.4724       	833.29034      	833.1063       	833.7257       	833.2094       	833.24963      	834.4109       	834.268        	833.98364      	834.2408       	834.2259       	834.0541       	834.2662       	834.32153      	834.05597      	834.26337      	834.35254      	834.10846      	833.4482       	832.9603       	833.15234      	832.88794      	832.9384       	833.33356      	832.9014       	832.9739       	833.6764       	834.00745      	833.892        	833.7963       	834.02893      	833.86743      	833.6575       	833.9149       	834.1214       	833.72394      	834.1249       	834.08655      	834.02075      	834.14996      	834.5042       	833.6644       	833.47034      	833.9773       	833.47943      	834.3536       	833.5089       	834.2361       	833.5247       	833.928        	834.6321       	833.49164      	834.1695       	834.56824      	834.50073      	834.655        	834.7409       	834.20825      	834.48395      	834.4591       	834.1913       	834.36255      	834.5805       	834.25256      	834.38043      	834.46216      	834.40735      	834.486        	834.5227       	834.4493       	834.5142       	834.4397       	834.04987      	834.4726       	833.1386       	833.0424       	833.6621       	832.9934       	833.5346       	833.0226       	833.2896       	833.07574      	833.0358       	833.69244      	833.92847      	833.91705      	833.98987      	834.36316      	834.2425       	834.4062       	834.45074      	834.28235      	834.204        	833.70984      	833.4799       	
833.5969       	834.74475      	834.46625      	833.3708       	833.2755       	834.1646       	834.31177      	834.33844      	834.7434       	834.5582       	834.60376      	834.4325       	834.5077       	834.4146       	834.5266       	834.54114      	834.5336       	834.28754      	834.334        	834.2939       	834.44         	834.4176       	834.36646      	834.3145       	834.069        	834.712        	833.1995       	833.2323       	833.4644       	833.14984      	833.21716      	834.0191       	834.1275       	834.20856      	834.17554      	834.206        	834.393        	834.14905      	834.18585      	834.3801       	834.2991       	834.32336      	834.5818       	834.29193      	834.7819       	834.4576       	834.3429       	834.6367       	834.7029       	833.8069       	834.4742       	834.782        	834.3883       	834.0276       	833.86224      	833.806        	834.99066      	834.7452       	834.9928       	834.9862       	834.7551       	834.8432       	834.7536       	834.95245      	834.6507       	834.7325       	834.802        	834.70715      	834.81         	834.4856       	834.525        	834.70544      	834.4148       	834.7895       	834.8369       	834.67505      	834.50073      	834.503        	834.1073       	833.30145      	833.71747      	833.27954      	833.7024       	833.3145       	834.2992       	833.2835       	833.28937      	834.11334      	834.34094      	834.4405       	834.1523       	834.5684       	834.237        	834.49207      	834.8825       	834.47         	834.43646      	833.8736       	833.57025      	836.012        	
833.4221       	833.27454      	833.4132       	833.23724      	833.21497      	834.33325      	834.1023       	834.50226      	834.3014       	834.50885      	834.69495      	834.37335      	834.2701       	834.3046       	834.3561       	834.31586      	834.2019       	834.333        	834.28485      	834.248        	834.44165      	834.3583       	834.20807      	834.07513      	834.1308       	833.1529       	833.2117       	833.8199       	833.1087       	833.2363       	834.2079       	833.9291       	834.29224      	834.0541       	834.2614       	834.4745       	834.16675      	834.38245      	834.1822       	834.4784       	834.4498       	834.4671       	834.42883      	834.6029       	834.71625      	834.62305      	834.67395      	834.6543       	834.6858       	834.8154       	834.856        	834.8741       	834.7524       	834.85455      	833.7772       	834.98724      	834.8343       	834.7553       	835.1199       	834.6998       	834.8232       	834.65717      	834.39606      	834.5075       	834.87994      	834.6107       	834.65234      	834.77954      	834.4417       	834.7177       	834.38293      	834.8351       	834.7291       	834.6437       	834.6435       	834.5105       	834.59924      	834.76575      	834.56195      	834.2939       	834.5544       	834.32965      	834.35803      	834.4562       	834.6097       	834.30994      	834.48364      	834.35         	834.30524      	834.4639       	834.68054      	834.3727       	834.5453       	834.8432       	834.939        	834.83563      	834.8292       	834.13715      	833.8468       	835.8263       	
833.7626       	833.0087       	833.7448       	833.1075       	832.94684      	834.0185       	834.244        	834.1944       	834.3115       	834.28156      	834.31714      	834.054        	834.1567       	834.1816       	834.13837      	834.17474      	833.9704       	834.17163      	834.138        	834.0007       	834.3507       	834.03784      	833.79407      	833.97375      	833.4284       	833.12964      	833.2411       	833.5667       	833.136        	833.2731       	833.64844      	833.275        	833.4607       	833.81244      	834.18195      	834.03613      	834.1328       	834.0824       	834.3481       	834.365        	834.6682       	834.38477      	834.3354       	834.53485      	834.5814       	834.714        	834.55554      	834.7429       	834.7421       	834.6695       	834.7617       	834.949        	834.6532       	834.8622       	834.7034       	834.87524      	834.67615      	834.4632       	834.61646      	834.65125      	834.48914      	834.52014      	834.54034      	834.4173       	834.33856      	834.34973      	834.4364       	834.56116      	834.38965      	834.3613       	834.48676      	834.35767      	834.5869       	834.4425       	834.564        	834.47766      	834.4726       	834.5013       	834.46344      	834.24506      	834.30634      	834.4547       	834.2146       	834.1406       	834.2779       	834.28314      	834.1305       	834.49744      	833.9937       	834.1632       	834.4353       	834.43066      	834.3695       	834.4886       	834.57556      	834.5416       	833.82526      	833.42         	835.9688       	833.92126      	
832.9714       	832.8531       	833.6872       	832.9008       	832.83716      	833.15326      	832.99176      	832.8898       	834.0099       	834.0468       	834.17346      	833.8902       	833.89886      	834.26245      	833.91406      	834.29126      	834.1395       	834.09344      	834.23303      	834.0017       	834.18933      	834.1149       	834.37897      	833.0554       	833.1428       	833.2229       	833.639        	833.15497      	833.2862       	833.8541       	834.11884      	833.2695       	833.45184      	833.73706      	833.41504      	833.86145      	834.27344      	834.4525       	834.38574      	834.566        	834.385        	834.4615       	834.55273      	834.5133       	834.5038       	834.56445      	834.51215      	834.7943       	834.4615       	834.6597       	834.8428       	834.5638       	834.9656       	834.3729       	834.4456       	834.6126       	834.69165      	834.52466      	834.57837      	834.50385      	834.4784       	834.36566      	834.28876      	834.1068       	834.3593       	834.3789       	834.42847      	834.3726       	834.42474      	834.38995      	834.3639       	834.599        	834.3435       	834.5147       	834.3295       	834.52124      	834.3386       	834.5592       	834.4664       	834.22614      	834.41284      	834.1892       	834.2718       	834.17084      	834.15845      	834.2662       	834.26013      	833.98016      	834.2943       	834.1924       	834.09937      	834.079        	834.5391       	834.4501       	834.46063      	834.4563       	833.7201       	833.55145      	833.9376       	833.46185      	
832.64124      	832.79193      	832.6366       	832.68744      	832.7588       	833.46454      	832.7229       	832.6936       	832.8388       	832.9394       	832.7973       	833.4724       	833.7242       	834.10406      	833.87726      	834.0165       	833.88324      	833.85284      	834.01886      	834.2825       	833.9176       	833.8844       	834.08356      	832.99634      	833.11         	833.21155      	833.5186       	833.09216      	833.30176      	833.5063       	833.27576      	833.363        	833.5099       	833.3783       	833.8546       	834.13574      	834.2093       	834.3294       	834.418        	834.3093       	834.4562       	834.5116       	834.55707      	834.5431       	834.4641       	834.5504       	834.6199       	834.523        	834.649        	834.5502       	834.57983      	834.53326      	834.6669       	834.45325      	834.33655      	834.29016      	833.9957       	834.43066      	834.48914      	834.3034       	834.205        	834.4195       	834.246        	834.0266       	834.473        	834.21686      	834.25256      	834.2685       	834.3264       	834.15826      	834.1851       	834.09106      	834.32513      	834.42         	834.40796      	834.1024       	834.34436      	834.1552       	834.2667       	834.18915      	834.2563       	834.2219       	834.0508       	834.25696      	834.11554      	834.1404       	834.0523       	834.0212       	834.25226      	834.1347       	834.0167       	834.28906      	834.1898       	834.38043      	834.41376      	834.32947      	834.5106       	834.74097      	835.18756      	834.81287      	
832.6165       	832.5776       	832.4852       	832.5361       	832.65594      	832.9788       	832.5224       	832.5346       	832.5681       	832.6999       	832.98114      	832.57214      	832.6302       	833.6944       	833.37604      	833.6366       	833.891        	833.7725       	833.4274       	834.1201       	833.65955      	832.79626      	832.90204      	833.2977       	832.8352       	832.95483      	833.9418       	832.8803       	833.0237       	833.20154      	833.357        	833.128        	833.24615      	833.84937      	834.4386       	834.074        	834.43445      	834.193        	834.2673       	834.25793      	834.0688       	834.5077       	834.2642       	834.28864      	834.50464      	834.4488       	834.6035       	834.1271       	834.35504      	834.3072       	834.4531       	834.2656       	834.35345      	834.3735       	833.95154      	834.2071       	834.2868       	833.98364      	834.0993       	834.1631       	834.1126       	833.8883       	833.85657      	834.0117       	833.92816      	834.01196      	834.0452       	834.08075      	833.8803       	833.95374      	833.9232       	833.8435       	833.9766       	834.12177      	834.0183       	833.9398       	834.2506       	834.11945      	833.8822       	834.09174      	833.90234      	833.8197       	834.0341       	833.8231       	833.71606      	833.6312       	833.86285      	833.7516       	834.1186       	833.66895      	833.9719       	833.9008       	834.0943       	834.1903       	834.2936       	834.4203       	834.2853       	833.8079       	833.2318       	835.7436       	
833.23755      	832.70074      	832.84125      	832.99097      	832.9896       	832.6615       	832.7236       	832.85364      	833.0802       	832.71063      	832.7679       	832.8263       	833.0319       	833.38574      	832.90564      	832.96216      	834.0953       	833.87994      	833.767        	833.80927      	833.9402       	832.96936      	833.08734      	833.4259       	832.96497      	833.1236       	833.27606      	833.1247       	833.1741       	833.2572       	833.45245      	833.1836       	833.2991       	833.6371       	833.281        	833.401        	834.1184       	834.337        	834.42145      	834.0546       	834.3104       	834.22174      	834.64166      	834.53345      	834.6761       	834.4362       	834.5466       	834.3282       	834.2416       	834.48285      	834.2772       	834.3552       	834.49896      	834.41724      	834.22095      	833.9021       	833.89087      	834.21735      	834.0333       	833.99176      	834.05396      	834.01355      	834.0779       	833.76636      	833.9972       	833.9375       	833.9883       	833.9837       	834.22266      	833.8021       	834.06165      	833.943        	834.11304      	834.114        	834.12366      	834.0508       	834.089        	834.1223       	834.0302       	833.97003      	834.1149       	834.14886      	834.2249       	834.1006       	833.86127      	834.0052       	833.8243       	834.1676       	833.74414      	834.04193      	834.05023      	833.97894      	834.0971       	834.2477       	834.2431       	834.1846       	834.1621       	833.5387       	833.473        	833.7757       	
832.8001       	833.1398       	833.4923       	832.7044       	832.8724       	832.97534      	833.1314       	833.3946       	832.8431       	832.9389       	833.0448       	833.36255      	832.88763      	832.93066      	833.03864      	833.58203      	832.9517       	833.06604      	834.016        	833.0624       	833.1456       	833.3054       	833.35876      	833.18494      	833.2543       	835.13763      	833.2056       	833.3733       	833.4193       	833.9714       	833.446        	833.43567      	836.2179       	833.44305      	833.4453       	834.7177       	834.5778       	834.5546       	834.7266       	834.42413      	834.4674       	835.052        	834.5858       	834.41693      	834.48627      	834.5602       	834.5314       	834.32086      	834.5613       	834.47797      	834.4882       	834.5608       	834.43396      	834.2047       	834.3722       	834.35284      	834.3231       	834.0003       	833.9306       	834.09937      	834.0088       	833.86304      	834.09503      	833.9424       	834.127        	833.7646       	834.0359       	833.85846      	833.9438       	834.25653      	833.781        	834.12476      	834.02826      	834.0377       	834.1431       	834.1075       	834.1559       	834.183        	834.3248       	834.0925       	834.21136      	834.1819       	834.1721       	834.1732       	834.1332       	834.05426      	834.1029       	834.12146      	834.0596       	834.0766       	834.0897       	834.30664      	834.2618       	834.3617       	834.35925      	834.34607      	834.2219       	834.42773      	835.0841       	834.6303       	
832.83374      	833.1862       	833.31415      	833.35876      	832.7748       	832.97437      	833.11237      	833.26276      	833.21063      	832.95496      	833.0486       	833.13086      	834.28033      	832.96655      	833.06445      	833.1972       	833.61694      	833.1148       	833.1991       	833.59344      	833.21515      	833.2155       	833.31793      	833.6127       	833.2716       	833.40906      	833.6458       	833.32477      	834.4224       	833.36957      	833.4024       	834.6427       	834.4989       	834.5121       	834.07855      	834.6882       	834.68066      	834.3909       	834.44836      	834.46594      	834.60223      	834.47894      	834.69507      	834.6289       	834.5361       	834.4149       	834.6173       	834.5598       	834.54205      	834.5841       	834.4742       	834.39246      	834.1755       	834.5065       	834.3321       	834.2136       	834.2224       	834.21643      	834.13684      	834.01184      	834.1069       	834.1879       	833.8646       	834.0258       	833.9654       	834.096        	833.9181       	833.919        	833.9558       	833.8977       	834.2006       	833.9067       	834.204        	834.3165       	834.0387       	834.1367       	834.2178       	834.4753       	834.2895       	834.20374      	834.2737       	834.2811       	834.3402       	834.2409       	833.98706      	834.0873       	834.0331       	834.17993      	834.1592       	834.0912       	834.2289       	834.281        	834.2854       	834.24554      	834.51715      	834.2419       	834.29004      	834.50037      	834.5375       	834.65424      	
833.3736       	832.8935       	833.0323       	833.2327       	833.3096       	833.19977      	832.84595      	833.00385      	833.1521       	833.30994      	832.9469       	833.0121       	833.12994      	833.17993      	833.3952       	832.9716       	833.10675      	833.25885      	833.4061       	833.1597       	833.2581       	833.3139       	833.61005      	833.3111       	833.419        	833.94244      	833.376        	833.5394       	833.4566       	833.4999       	833.79846      	833.464        	833.4382       	833.5179       	834.296        	834.66235      	834.6013       	834.4547       	834.5104       	834.4529       	834.50616      	834.7999       	834.5138       	834.7018       	834.4194       	834.279        	834.67456      	834.5098       	834.51605      	834.5394       	834.57855      	834.42664      	834.29486      	834.33636      	834.1934       	834.0592       	834.1824       	834.0566       	834.06793      	834.0283       	833.91797      	834.03186      	834.0565       	834.0106       	834.03033      	834.11694      	834.00684      	833.93915      	834.1645       	833.99506      	834.0981       	834.29236      	833.9837       	834.18835      	834.1          	834.22363      	834.35944      	834.4667       	834.3329       	834.20013      	834.232        	834.392        	834.1683       	834.28265      	834.17883      	834.29535      	834.1624       	834.1681       	834.1635       	834.32117      	834.47205      	834.24097      	834.2823       	834.6189       	834.1845       	834.791        	834.73254      	834.6282       	834.6832       	834.73987      	
833.0671       	832.54584      	832.7172       	832.91565      	833.0155       	833.2392       	832.6136       	832.746        	832.9151       	832.9823       	834.2839       	832.7084       	832.8282       	832.94116      	833.0108       	833.2976       	832.89496      	832.99146      	833.0364       	833.5368       	832.9962       	833.05383      	834.6944       	833.0362       	833.0727       	833.3109       	833.08246      	833.1127       	833.4544       	833.17896      	833.0973       	833.10834      	833.29944      	833.0068       	832.9478       	833.88257      	833.86884      	834.53156      	834.2077       	834.293        	834.11725      	834.13385      	834.1445       	834.1449       	834.29553      	834.2401       	834.084        	834.01434      	834.139        	834.16046      	834.1373       	834.3762       	834.02893      	833.9613       	833.80383      	833.8239       	833.9205       	833.725        	833.7485       	833.6621       	833.7118       	833.90295      	833.7203       	833.8057       	833.75165      	833.7813       	833.8258       	833.8034       	833.8529       	833.76         	833.8893       	833.87335      	834.0393       	833.7271       	834.0378       	834.0574       	833.873        	834.2483       	834.0001       	834.0278       	834.1126       	833.9553       	833.9747       	833.865        	833.93713      	834.1507       	833.7908       	833.92395      	833.9347       	834.0626       	834.1056       	834.1002       	834.01886      	834.1143       	834.1692       	834.1396       	834.309        	834.235        	834.2393       	834.36804      	
833.0709       	833.414        	833.53235      	833.55493      	833.8129       	833.20013      	833.36957      	833.4046       	833.50824      	833.096        	833.2814       	833.34937      	833.3217       	833.7734       	833.2779       	833.36945      	833.35474      	833.5148       	833.3108       	833.4017       	833.3984       	837.1342       	833.38446      	833.4108       	833.67993      	833.4325       	833.42975      	833.3599       	834.0654       	833.4076       	833.2628       	833.95776      	833.3255       	833.17285      	834.25775      	834.4198       	834.6854       	834.5421       	834.05023      	834.4244       	834.2683       	834.2615       	834.5355       	834.2403       	834.2734       	834.34283      	834.2702       	834.2268       	834.2992       	834.4731       	834.114        	834.1798       	834.1749       	834.1101       	833.9459       	834.0015       	834.0605       	833.7517       	833.7266       	833.8624       	833.8854       	833.83246      	833.8971       	833.93134      	833.67505      	833.85815      	834.0091       	833.89966      	833.9806       	834.02026      	834.02954      	834.002        	834.1521       	834.0723       	834.1018       	834.09094      	834.22394      	834.3896       	834.08234      	834.1371       	834.2196       	834.17523      	834.1432       	834.0192       	834.1018       	834.0501       	834.19324      	834.08887      	834.2452       	834.253        	833.9933       	834.2058       	834.09766      	834.38086      	834.2818       	834.348        	834.2836       	834.2907       	834.43195      	834.5325       	
833.85675      	834.02356      	833.57825      	833.7401       	833.87665      	833.8356       	835.1137       	833.60425      	833.7422       	833.75354      	833.7384       	833.88965      	833.6765       	833.74805      	833.7655       	833.6646       	833.9939       	833.81165      	833.77155      	833.7319       	835.2441       	833.8316       	833.85046      	833.92413      	833.8542       	833.8271       	833.6878       	834.55817      	833.79266      	833.66833      	834.189        	833.75195      	833.5652       	833.3936       	834.08344      	833.52344      	833.4225       	834.1051       	833.4805       	834.2802       	833.78876      	833.3889       	833.864        	833.336        	834.38904      	834.2802       	834.7068       	834.448        	834.55707      	834.35547      	834.80164      	834.5232       	834.30524      	834.3961       	834.3731       	834.3519       	834.254        	834.38196      	834.1498       	834.1664       	834.00446      	834.2682       	834.2887       	834.1477       	834.3018       	834.32355      	834.20184      	834.30316      	834.3333       	834.5053       	834.3139       	834.3994       	834.47797      	834.56415      	834.43256      	834.51306      	834.76587      	834.5338       	834.6503       	834.54926      	834.71936      	834.5278       	834.5001       	834.4918       	834.5944       	834.4428       	834.5846       	834.6536       	834.37787      	834.58484      	834.7678       	834.5889       	834.7048       	834.67676      	834.6804       	834.8994       	834.93207      	834.8561       	834.6653       	834.97406      	
833.9073       	833.8454       	833.92804      	833.8583       	833.7984       	834.2919       	833.78326      	833.8403       	833.779        	834.1934       	833.7018       	833.8102       	833.7718       	833.74536      	834.07166      	833.779        	833.8394       	833.7569       	833.6566       	833.8951       	833.8955       	833.8773       	833.76697      	834.1742       	833.918        	833.7445       	837.90594      	833.9004       	833.7874       	833.6042       	834.2769       	833.8376       	833.64966      	833.49475      	834.41693      	833.7041       	833.5069       	833.5299       	833.6658       	833.44055      	833.9443       	833.47534      	833.669        	834.4438       	834.652        	834.6136       	834.4898       	834.6476       	834.61206      	834.73724      	834.8252       	834.51196      	834.55884      	834.5092       	834.34753      	834.49225      	834.47296      	834.32324      	834.394        	834.2611       	834.3333       	834.44727      	834.2937       	834.4307       	834.43335      	834.3365       	834.37115      	834.4812       	834.50977      	834.4397       	834.56305      	834.6212       	834.6349       	834.6363       	834.6223       	834.77106      	834.735        	834.79156      	834.7092       	834.714        	834.76733      	834.70435      	834.74805      	834.4854       	834.621        	834.5689       	834.61566      	834.67316      	834.75854      	834.78015      	834.7829       	834.81573      	834.71643      	834.8545       	834.94366      	835.0999       	834.7627       	833.73505      	833.71484      	833.8386       	
839.26917      	833.989        	834.02484      	833.9237       	834.994        	833.9066       	833.9633       	833.9075       	833.7807       	833.83527      	833.926        	833.88196      	833.8059       	833.83246      	833.9071       	833.95605      	833.9005       	833.76         	833.7691       	833.9856       	833.9423       	833.8367       	833.6723       	834.36383      	833.9446       	833.7868       	833.66956      	834.02106      	833.82776      	833.6658       	833.63257      	833.90106      	833.74207      	833.5292       	834.5191       	833.7016       	833.51263      	833.4514       	834.04034      	833.56415      	833.4615       	834.363        	833.7517       	833.4719       	834.5484       	834.7222       	834.72107      	834.7688       	834.71246      	834.6982       	834.8428       	834.76654      	834.62524      	834.4923       	834.6256       	834.58307      	834.5706       	834.51526      	834.53326      	834.5869       	834.418        	834.4594       	834.44446      	834.5071       	834.61945      	834.53326      	834.609        	834.5816       	834.7185       	834.7305       	834.73395      	834.76624      	834.8323       	834.76764      	834.8724       	834.87024      	834.9233       	834.79004      	834.7533       	834.7764       	834.98376      	834.8394       	834.693        	834.9351       	834.6944       	834.80676      	834.7865       	834.65784      	834.9327       	834.88434      	834.791        	834.9336       	834.87195      	835.04926      	835.122        	835.23987      	834.7678       	833.8453       	833.85126      	835.6215       	
833.8637       	833.9364       	833.95966      	833.8733       	833.744        	833.9677       	833.8606       	833.74945      	833.69824      	833.79407      	833.87976      	833.8431       	833.69446      	833.6615       	833.7901       	833.8529       	833.79504      	833.6483       	833.50977      	834.3892       	833.9056       	833.73035      	833.56696      	833.45715      	834.5801       	834.8236       	835.2138       	833.85455      	833.606        	833.4566       	833.5777       	833.73413      	833.5417       	833.3979       	833.9769       	833.5396       	833.37964      	833.47986      	833.82544      	833.38245      	833.29785      	833.7943       	833.36194      	833.40076      	834.24896      	834.328        	834.3199       	834.6875       	834.4774       	834.5897       	834.5355       	834.5019       	834.72815      	834.2228       	834.6186       	834.2898       	834.23804      	834.2683       	834.40265      	834.22235      	834.46387      	834.37244      	834.21234      	834.54126      	834.5104       	834.3977       	834.62036      	834.585        	834.7066       	834.47626      	834.7167       	834.8368       	834.7438       	834.6549       	834.7181       	834.8866       	834.8136       	834.75085      	834.8433       	834.7409       	834.83         	834.55963      	834.8518       	834.6173       	834.85657      	834.9291       	834.782        	834.74475      	834.9103       	834.9236       	834.73376      	835.0597       	834.93494      	834.95966      	835.0615       	834.6355       	834.89575      	834.3559       	833.87305      	833.857        	
834.0431       	833.80273      	833.9641       	833.94763      	833.80835      	833.79047      	833.90564      	833.85876      	833.7273       	833.8635       	833.9135       	833.9199       	833.78906      	833.65857      	834.318        	833.94476      	833.8827       	833.73645      	833.60944      	835.87054      	833.94714      	833.7764       	833.6114       	833.50885      	834.26184      	833.8933       	833.7468       	833.4967       	833.6101       	833.7486       	833.5829       	833.44006      	834.40656      	833.6858       	833.5218       	833.4739       	833.7292       	833.45844      	833.3552       	833.5794       	833.4526       	833.3825       	834.6096       	834.5148       	834.38         	834.47034      	834.6227       	834.54297      	834.5933       	834.48773      	834.81696      	834.63763      	834.5824       	834.50024      	834.5255       	834.58746      	834.6878       	834.63324      	834.44226      	834.388        	834.3763       	834.499        	834.3892       	834.46625      	834.4141       	834.7524       	834.6495       	834.7589       	834.62463      	834.8046       	834.9286       	834.6344       	834.8642       	834.74066      	834.8877       	834.6797       	834.766        	834.67834      	835.01465      	834.9376       	834.8009       	834.92535      	834.76953      	834.79144      	834.6195       	834.81744      	834.8446       	835.1237       	834.5938       	835.0813       	834.7665       	835.23004      	834.8773       	834.83325      	834.5816       	833.8119       	833.8104       	834.58374      	834.2948       	834.5973       	
833.653        	833.83356      	833.7449       	833.54645      	833.51697      	833.7519       	833.6801       	833.5157       	833.4768       	833.7679       	833.72205      	833.6353       	833.47205      	833.3754       	833.76843      	833.74097      	833.59094      	833.4306       	833.3216       	833.76373      	833.6409       	833.4813       	833.3185       	833.196        	834.1918       	833.53796      	833.3926       	833.238        	833.875        	833.4827       	833.3346       	833.25977      	834.0806       	833.3949       	833.2145       	833.2305       	833.65814      	833.2247       	833.1674       	833.28656      	833.24664      	833.1576       	836.1462       	834.1974       	834.31635      	834.3792       	834.0858       	834.4033       	834.2113       	834.34656      	834.5847       	834.4362       	834.42426      	834.42584      	834.0842       	834.35675      	834.49927      	834.40265      	834.3633       	834.2864       	834.26636      	834.2367       	834.30035      	834.3307       	834.3805       	834.42395      	834.2387       	834.4849       	834.61597      	834.43353      	834.7155       	834.6608       	834.64136      	834.6256       	834.4726       	834.46936      	834.5723       	834.6301       	834.7494       	834.7136       	834.5192       	834.63416      	834.71967      	834.6215       	834.6641       	834.819        	834.7139       	834.77435      	834.7901       	834.8145       	834.83374      	834.9022       	834.97107      	834.8445       	834.75964      	834.5867       	834.85364      	834.4347       	834.5433       	834.59186      	
833.6679       	833.3063       	833.9802       	833.5762       	833.426        	833.2527       	833.4594       	833.55365      	833.449        	833.2595       	833.1171       	834.54016      	833.5739       	833.45416      	833.2805       	833.15466      	834.0077       	833.4993       	833.36554      	833.1975       	833.04584      	834.1298       	833.4523       	833.2418       	833.09283      	833.05725      	833.69995      	833.2802       	833.14874      	833.05804      	833.6875       	833.2419       	833.0798       	832.99915      	833.5015       	833.0866       	833.0128       	833.2493       	833.05426      	832.9938       	833.0323       	834.20825      	833.9337       	833.9641       	834.2724       	834.1464       	834.3155       	834.30835      	833.97064      	834.1723       	834.16705      	834.0193       	834.31665      	834.1537       	834.3062       	834.3848       	834.0367       	834.1505       	834.0569       	834.2546       	834.26373      	833.86816      	834.3893       	834.1188       	834.3054       	834.26196      	834.2334       	834.2006       	834.28937      	834.3223       	834.4433       	834.4274       	834.44635      	834.4022       	834.16296      	834.577        	834.23016      	834.28314      	834.6085       	834.5227       	834.4015       	834.4128       	834.36554      	834.37537      	834.572        	834.4354       	834.6384       	834.53326      	834.5831       	834.4258       	834.5917       	834.64606      	834.4757       	834.59595      	834.5077       	834.7755       	834.48364      	833.76917      	833.5159       	833.47894      	
833.09735      	833.5514       	833.39575      	833.1729       	832.9905       	833.7306       	833.36334      	833.18524      	832.9933       	832.9506       	833.4723       	833.29645      	833.16986      	833.03156      	832.97943      	833.79407      	833.30396      	833.1222       	832.9239       	832.8495       	833.78876      	833.2016       	833.0274       	832.9173       	832.9016       	833.7351       	833.0445       	832.90424      	832.8469       	833.7069       	833.01636      	832.8954       	832.86145      	833.3024       	832.8909       	832.8292       	833.036        	832.9517       	832.88727      	832.879        	833.28503      	833.91284      	833.9731       	834.124        	834.01556      	834.0307       	834.1558       	833.8434       	834.1155       	834.0048       	834.1271       	834.18713      	834.1983       	833.8204       	834.0841       	834.0377       	834.0101       	833.98627      	833.7392       	834.2123       	834.048        	833.9198       	833.85767      	833.93933      	834.1895       	834.1188       	834.0117       	834.21515      	834.125        	834.084        	834.09015      	834.1671       	834.09607      	834.29144      	834.24384      	833.96625      	834.2245       	834.1695       	834.00085      	834.2434       	834.1757       	834.095        	834.16394      	834.27277      	834.32434      	834.24115      	834.39         	834.1976       	834.29486      	834.30005      	834.5397       	834.42944      	834.4016       	834.3913       	833.9453       	833.2978       	833.2615       	834.38605      	834.2825       	834.1533       	
832.78516      	833.3321       	833.1532       	832.9325       	832.75183      	833.6524       	833.18524      	832.99084      	832.81866      	832.7601       	833.25         	833.11066      	832.9034       	832.78326      	832.7223       	834.05963      	833.0899       	832.9242       	832.75464      	832.6631       	833.6815       	832.9301       	832.80695      	832.7013       	832.6765       	833.1954       	832.7842       	832.71265      	832.6848       	833.4381       	832.74713      	832.6824       	832.69574      	833.2356       	832.691        	832.66315      	832.71106      	833.4185       	832.6472       	832.68835      	834.1554       	833.706        	833.485        	834.0774       	833.6935       	833.8975       	833.861        	833.59436      	833.70184      	833.8789       	834.1124       	833.7055       	833.9783       	833.98755      	833.73157      	833.7035       	833.9194       	833.78156      	833.9042       	834.01044      	833.8598       	833.9862       	833.989        	833.84515      	833.8333       	834.0862       	834.07855      	834.1113       	834.10034      	834.0279       	834.12         	833.9617       	834.1933       	834.07574      	834.0087       	834.0511       	833.96735      	834.12524      	833.97424      	833.96234      	834.0767       	834.04156      	834.0314       	834.167        	834.0722       	834.01654      	834.1526       	834.1044       	834.18774      	834.204        	834.17804      	834.23535      	834.004        	834.3209       	834.2011       	833.5131       	833.0908       	833.03345      	833.0495       	836.3861       	
833.4821       	833.12585      	832.89685      	833.07605      	833.28815      	833.0995       	832.92316      	832.7987       	833.6236       	833.15265      	832.98865      	832.82776      	832.71344      	833.4145       	833.1847       	833.0537       	832.85284      	832.78815      	833.60394      	833.1207       	832.9049       	832.7952       	832.7499       	833.4656       	832.8929       	832.76996      	832.7327       	832.7757       	833.63763      	832.76263      	832.68823      	832.7442       	833.38586      	832.72015      	832.76086      	832.8265       	833.2538       	832.7185       	832.7963       	832.9281       	833.3662       	832.7709       	832.86395      	833.08844      	832.8258       	833.23663      	833.6709       	833.8249       	834.04175      	834.0187       	833.9785       	834.17017      	833.73785      	834.0221       	833.831        	834.06384      	833.9426       	833.9469       	833.77893      	834.1732       	834.01373      	834.2817       	833.954        	834.03345      	834.0507       	833.9206       	834.2112       	833.9509       	834.24146      	833.9241       	834.15533      	833.9937       	834.2415       	834.24347      	833.945        	834.3355       	834.0936       	834.1581       	833.9707       	834.18665      	834.02954      	834.15857      	834.1698       	834.28186      	834.2584       	834.30273      	834.25385      	834.169        	834.23334      	834.2595       	834.3313       	834.2716       	834.3434       	834.2878       	834.1187       	834.05725      	833.1986       	833.1969       	833.128        	833.1477       	
832.7627       	833.3645       	833.14606      	832.9016       	832.84985      	833.33435      	833.1442       	832.9685       	832.84094      	833.24713      	833.16766      	833.0116       	832.874        	832.82153      	833.586        	833.14465      	832.9806       	832.84576      	832.788        	833.9057       	833.0456       	832.8983       	832.8383       	832.8663       	833.7237       	832.85394      	832.8454       	832.86487      	832.94604      	833.1159       	832.8288       	832.91125      	832.97437      	833.5709       	832.8043       	832.9021       	833.0154       	833.0765       	832.82166      	832.93774      	833.08075      	833.18134      	832.92474      	834.3232       	833.7906       	833.89594      	834.06476      	833.7474       	834.01135      	834.2141       	833.7478       	834.07904      	834.19495      	833.9997       	834.0182       	833.93005      	833.15594      	834.35443      	834.2271       	834.2319       	833.17664      	834.11487      	834.14636      	834.0637       	834.0303       	834.1921       	833.97876      	834.29584      	834.1989       	834.2601       	834.0525       	834.2895       	834.1032       	834.3838       	834.07886      	834.26794      	834.0687       	834.0812       	834.2738       	834.2716       	834.17883      	834.3131       	834.1172       	834.11597      	834.1608       	834.323        	834.3074       	834.1137       	834.30206      	834.23145      	834.4275       	834.5476       	834.4525       	834.42395      	834.002        	833.29156      	833.17285      	833.1136       	836.35706      	833.7797       	
832.9521       	833.51465      	833.26324      	833.0719       	832.9827       	834.1078       	833.31537      	833.1056       	833.01685      	833.0131       	833.983        	833.19006      	833.0801       	832.9809       	833.04614      	833.298        	833.1393       	833.0175       	832.995        	833.5941       	833.1819       	833.08594      	833.08484      	833.07745      	833.57904      	833.0512       	833.0253       	833.0279       	833.1387       	833.431        	832.95825      	833.012        	833.13446      	833.29065      	833.24536      	833.00745      	833.10474      	833.2564       	833.2187       	832.99316      	833.13824      	833.5071       	833.05927      	833.2037       	833.4122       	833.1899       	834.0458       	834.37555      	833.9189       	834.05914      	834.3721       	834.26556      	834.3446       	834.2529       	834.12585      	834.0956       	834.31415      	834.35406      	834.3414       	834.23834      	834.4454       	833.99316      	834.15436      	834.5846       	834.1878       	834.42926      	834.1739       	834.31195      	834.609        	834.50745      	834.4107       	834.47754      	834.3614       	834.538        	834.37726      	834.2563       	834.3886       	834.2096       	834.2952       	834.35266      	834.3938       	834.4094       	834.202        	834.1384       	834.31305      	834.45667      	834.4          	834.2757       	834.2719       	834.2844       	834.6514       	834.6008       	834.5511       	834.50256      	834.4281       	834.3721       	833.3093       	833.32104      	833.2626       	833.2574       	
833.002        	833.4682       	833.23175      	833.0661       	833.04895      	833.4447       	833.21515      	833.0565       	832.9897       	833.1988       	833.2717       	833.1033       	833.00183      	832.9768       	833.6126       	833.17053      	833.06714      	833.019        	833.05286      	833.9493       	833.09924      	833.05524      	833.0944       	833.19836      	833.06836      	833.0323       	833.0852       	833.15497      	833.66766      	833.0139       	833.08276      	833.2157       	833.3607       	833.0163       	833.10736      	833.2745       	833.40894      	833.3152       	833.0933       	833.2032       	833.7491       	833.1075       	833.2288       	833.543        	833.1259       	833.3181       	834.3352       	833.27435      	833.3961       	834.4206       	834.1765       	834.4313       	834.37134      	834.2731       	834.41376      	834.4339       	834.4105       	834.14966      	834.3419       	834.2914       	834.4644       	834.31177      	834.5066       	834.54913      	834.2842       	834.5894       	834.2343       	834.308        	834.43195      	834.3735       	834.6205       	834.44495      	834.3816       	834.5613       	834.34265      	834.2865       	834.38855      	834.364        	834.43744      	834.44147      	834.2278       	834.31836      	834.5185       	834.2563       	834.42316      	834.36224      	834.4024       	834.3389       	834.2529       	834.64343      	834.46063      	834.4942       	834.38544      	833.8275       	833.3535       	833.30597      	834.0976       	833.932        	833.9765       	834.19666      	
833.35284      	833.08655      	833.54425      	833.3197       	833.1734       	833.09503      	833.9779       	833.26996      	833.13055      	833.08923      	834.1786       	833.3139       	833.1673       	833.11664      	833.1285       	833.8539       	833.1716       	833.1261       	833.16284      	833.66003      	833.2276       	833.18567      	833.2351       	833.2652       	833.78064      	833.19165      	833.2143       	833.2864       	833.38385      	833.45447      	833.2497       	833.3607       	833.4855       	833.88574      	833.21027      	833.3268       	833.4437       	833.58014      	833.89856      	833.35095      	833.4796       	833.80054      	833.3564       	833.4719       	833.6233       	834.029        	833.55176      	833.85425      	833.4678       	833.6161       	834.4961       	834.223        	834.5263       	834.6295       	834.50336      	834.67395      	834.75287      	834.26526      	834.55475      	834.7256       	834.6296       	834.62305      	834.6478       	834.54126      	834.4858       	834.5456       	834.49713      	834.5355       	834.5797       	834.58496      	834.6566       	834.6178       	834.7192       	834.47864      	834.49066      	834.3994       	834.343        	834.52435      	834.41516      	834.37524      	834.5345       	834.5286       	834.47235      	834.5388       	834.4783       	834.5966       	834.36884      	834.45483      	834.59796      	834.5563       	834.64844      	834.6075       	834.5574       	834.5968       	833.48663      	833.42535      	833.5933       	833.98737      	833.9813       	834.46497      	
834.37964      	833.42883      	833.30035      	834.3341       	833.4612       	833.2799       	833.22205      	834.1885       	833.3822       	833.3112       	833.24554      	833.7897       	833.36646      	833.2872       	833.25726      	833.77924      	833.3984       	833.3389       	833.3533       	833.4851       	833.3661       	833.39         	833.37756      	833.40027      	833.7872       	833.3441       	833.42346      	833.50256      	833.736        	833.343        	833.4979       	833.6445       	833.7455       	833.8636       	833.4742       	833.6633       	833.78094      	834.8105       	833.5166       	833.68756      	833.7651       	833.85767      	833.6187       	833.6985       	834.0243       	833.6764       	833.7968       	834.23364      	833.74194      	834.0003       	833.89496      	833.8181       	836.9749       	833.7663       	834.23395      	834.6084       	834.76636      	834.5596       	834.9909       	834.5912       	834.797        	834.889        	834.6913       	834.75916      	834.7216       	834.6928       	834.6913       	834.67676      	834.68256      	834.6435       	834.74774      	834.8131       	834.56055      	834.59937      	834.6009       	834.7309       	834.8536       	834.64197      	833.737        	833.4079       	834.66254      	834.54645      	834.7434       	834.7304       	834.6094       	834.5538       	834.7076       	834.59174      	834.67004      	834.5606       	834.828        	834.70807      	834.4733       	834.61426      	834.9922       	834.0717       	833.61957      	833.57446      	833.51733      	833.5187       	
833.54333      	833.49316      	833.5509       	833.3845       	833.2772       	833.9372       	833.41724      	833.3327       	833.6175       	833.4604       	833.3424       	833.2906       	834.16003      	833.4011       	833.38403      	833.40656      	834.2149       	833.41956      	833.4021       	833.38354      	834.17285      	833.4294       	833.41595      	833.48816      	833.62006      	833.66614      	833.4724       	833.5574       	833.6643       	834.1849       	833.5548       	833.642        	833.7712       	834.029        	833.5095       	833.6239       	833.79395      	833.8197       	833.94183      	833.6579       	833.77985      	833.80963      	834.2998       	833.7588       	833.83923      	834.8434       	833.78815      	833.88293      	835.0499       	833.84076      	833.8855       	834.42255      	833.90027      	834.5548       	833.8528       	834.8679       	834.89624      	834.66077      	835.0556       	833.8053       	834.4767       	834.9352       	834.8788       	834.8043       	834.9206       	835.03406      	834.71484      	834.63257      	834.944        	834.85516      	834.2638       	833.6528       	836.3232       	834.68756      	835.0013       	834.88245      	834.60944      	833.76245      	833.557        	834.5621       	834.54016      	834.63446      	834.68524      	834.7177       	834.9767       	834.6498       	834.4184       	834.6642       	834.8268       	834.6567       	834.9493       	834.71234      	834.98474      	834.73157      	834.4897       	835.0265       	834.6151       	834.0273       	833.7654       	833.74023      	
834.144        	833.21265      	834.0782       	833.3266       	833.2168       	834.0319       	833.3059       	833.24066      	833.69476      	833.2565       	833.2174       	834.0123       	833.3026       	833.25824      	833.27094      	833.7927       	833.35657      	833.3292       	833.29956      	834.3974       	833.27966      	833.3372       	833.3749       	833.4346       	834.02985      	833.3687       	833.46735      	833.5082       	834.1239       	833.445        	833.5631       	833.65735      	833.8086       	833.4894       	833.5856       	833.7352       	833.7478       	834.0162       	833.64386      	833.6846       	833.70026      	834.2942       	833.7704       	833.7761       	834.18646      	833.7473       	833.8135       	834.14215      	833.8281       	833.8695       	834.2536       	833.8256       	833.83704      	834.24164      	834.6288       	834.847        	834.8128       	834.85046      	834.9462       	833.7423       	834.86816      	834.9332       	834.8721       	834.8438       	834.8617       	834.7268       	834.8725       	834.66693      	834.82367      	834.7994       	834.40875      	833.59216      	833.58887      	833.9454       	833.57556      	834.21027      	833.4938       	833.46234      	833.8281       	833.3983       	833.3735       	833.7844       	833.34375      	835.00397      	833.3277       	834.4111       	834.0899       	834.72534      	834.63727      	834.4193       	834.78326      	834.5489       	834.6129       	834.47876      	834.93176      	833.56445      	833.5361       	833.49536      	833.4589       	834.1198       	
834.0984       	834.0561       	833.46344      	833.4838       	833.5128       	833.4199       	834.5224       	833.43164      	833.3978       	833.72986      	833.4199       	833.39655      	833.80347      	833.42816      	833.40356      	834.4506       	833.4198       	833.4424       	833.4852       	834.09436      	833.4601       	833.51495      	833.55927      	833.7313       	833.8056       	833.59766      	833.6172       	833.69055      	834.07214      	833.5942       	833.6925       	833.73834      	833.76575      	834.5738       	833.6501       	833.7738       	833.76135      	833.73914      	834.04926      	833.7907       	833.8151       	833.76984      	834.4911       	833.8785       	833.8673       	834.2906       	833.8883       	833.85767      	835.0687       	833.9314       	833.9336       	834.9566       	833.89557      	833.86884      	834.5065       	833.8874       	833.8995       	834.31195      	833.83484      	834.9145       	833.7818       	834.24945      	834.52893      	833.7728       	836.37604      	834.8294       	834.5824       	834.98303      	833.72845      	833.72626      	833.99347      	833.6522       	833.8012       	833.61725      	833.58386      	835.2808       	833.538        	833.5069       	834.0338       	833.45953      	833.41534      	833.8893       	833.41003      	833.4548       	833.987        	833.4356       	833.82227      	833.40826      	833.4132       	833.8909       	833.4789       	833.9303       	833.5395       	833.5632       	834.195        	833.63043      	833.61707      	833.54584      	836.68646      	834.02673      	
833.9531       	833.9796       	833.5688       	834.1067       	833.5806       	833.5284       	835.07385      	833.586        	833.54614      	834.1244       	833.59283      	833.55786      	834.1008       	833.566        	833.57806      	834.127        	833.67163      	833.67004      	834.74976      	833.6885       	833.7204       	833.7585       	833.8876       	834.16895      	833.791        	833.8516       	833.9151       	833.9851       	833.7887       	833.8658       	833.9691       	833.98645      	834.32935      	833.88617      	833.9476       	833.99115      	833.93567      	834.29913      	834.047        	834.09485      	833.9701       	834.0653       	834.05316      	834.06946      	833.9729       	834.44574      	834.10706      	834.09314      	834.0429       	834.44666      	834.14606      	834.0787       	834.7823       	834.1208       	834.0665       	834.37115      	834.0598       	834.19727      	834.0905       	833.99963      	837.31775      	834.0011       	833.9309       	834.3884       	833.9319       	833.9414       	834.1041       	833.9063       	834.20074      	833.8535       	833.8219       	833.87836      	833.93616      	833.79913      	833.8125       	834.0434       	833.71515      	833.7755       	834.2136       	833.6923       	833.6698       	833.95245      	833.624        	833.609        	834.0481       	833.6156       	833.5678       	834.2062       	833.61884      	833.61395      	834.3015       	833.7436       	834.2352       	833.76105      	833.7532       	834.81555      	834.7543       	834.27484      	833.97003      	833.8138       	
834.79584      	835.07465      	835.05725      	834.31824      	833.94916      	834.5103       	833.9382       	835.92096      	833.9188       	834.4014       	834.98706      	835.218        	833.95636      	836.844        	833.9532       	833.99445      	834.1239       	834.154        	834.099        	834.1498       	834.1937       	834.34485      	834.09216      	834.15106      	834.19574      	834.27435      	834.1519       	834.1896       	834.2772       	834.3093       	834.3433       	834.3104       	834.274        	834.3086       	834.2343       	834.31726      	834.32336      	834.2893       	834.24536      	834.06305      	835.0302       	834.30597      	834.2614       	834.1105       	834.678        	834.3479       	834.2616       	834.1065       	834.40826      	834.3788       	834.23773      	834.75684      	834.3831       	834.2506       	835.43616      	834.3323       	834.17096      	834.63574      	834.18744      	834.10876      	834.48663      	834.13727      	834.2539       	834.2334       	834.128        	834.5784       	834.14496      	834.08716      	835.31384      	834.1054       	834.0409       	834.29565      	834.0843       	834.05206      	834.02826      	834.3467       	834.0074       	833.93317      	834.0797       	833.95764      	833.8962       	833.9185       	834.6849       	833.89636      	833.85974      	833.9883       	833.85834      	833.8612       	833.88324      	834.35345      	833.9258       	833.90204      	834.58044      	833.9808       	833.93066      	834.238        	834.6534       	834.07947      	834.0483       	834.06287      	
835.4262       	835.2217       	835.3818       	835.06445      	834.19727      	834.12335      	834.5521       	834.1224       	835.29407      	835.30286      	834.9951       	835.25195      	835.66345      	834.20447      	834.2669       	834.76733      	834.2927       	834.3645       	834.4281       	835.1035       	834.3599       	834.4121       	834.464        	834.43524      	834.79425      	834.4313       	834.458        	834.4716       	834.4678       	835.07166      	834.53516      	834.5311       	834.475        	834.4267       	834.9133       	834.5987       	834.4609       	834.35         	834.87335      	834.66785      	834.5593       	834.4059       	834.49225      	834.70355      	834.56683      	834.3817       	834.86206      	834.6879       	834.5562       	834.39154      	835.488        	834.65924      	834.48413      	835.1403       	834.67487      	834.5559       	835.2449       	834.55634      	834.47626      	835.2589       	834.43726      	834.3114       	835.7535       	834.4291       	834.357        	834.2979       	834.7132       	834.3471       	834.2737       	834.38324      	834.4247       	834.3599       	834.27026      	834.91284      	834.3705       	834.26965      	834.2359       	834.7478       	834.24664      	834.2171       	834.28546      	834.20636      	834.13995      	834.09515      	835.4389       	834.1352       	834.1667       	834.1493       	834.9046       	834.18353      	834.2186       	834.2436       	834.49896      	834.2468       	834.19086      	834.9579       	834.3506       	834.32         	834.2907       	834.25336      	
835.66956      	835.60156      	835.6983       	835.5697       	835.28394      	835.7319       	835.4675       	835.42883      	835.37964      	835.68054      	835.88025      	835.52527      	835.545        	834.8044       	834.59344      	835.0523       	834.608        	834.6884       	834.70184      	834.97015      	834.68787      	834.7367       	834.7438       	834.78357      	835.32153      	834.78625      	834.84045      	834.8506       	834.76825      	835.123        	834.82465      	834.83875      	834.7614       	834.63043      	835.34827      	834.865        	834.8012       	834.65173      	834.4619       	835.50653      	834.82776      	834.6731       	834.52856      	835.47437      	834.82983      	834.60645      	834.6869       	834.9576       	834.7919       	834.6199       	835.44965      	834.9107       	834.7532       	834.9059       	834.9352       	834.7512       	834.7872       	834.817        	834.6192       	834.50165      	835.45996      	834.68463      	834.5855       	834.59216      	834.786        	834.5911       	834.51624      	835.0435       	834.67535      	834.606        	834.5102       	835.8129       	834.6679       	834.6072       	834.5217       	835.3952       	834.55865      	834.5211       	834.5147       	835.3555       	834.49554      	834.462        	834.4671       	834.9693       	834.4097       	834.39386      	834.405        	834.92523      	834.4449       	834.394        	834.3848       	835.2846       	834.54724      	834.4866       	834.4691       	835.23016      	834.5391       	834.50745      	834.51624      	834.4601       	
836.078        	836.2284       	835.8591       	835.7249       	836.0424       	835.98315      	835.71063      	835.8604       	835.7616       	836.27893      	836.0151       	836.08606      	834.95276      	835.00195      	835.9174       	834.96185      	835.04913      	835.1357       	835.1703       	835.37695      	835.08984      	835.11755      	835.102        	835.0362       	835.76044      	835.19946      	835.16046      	835.06506      	834.9264       	834.7258       	835.13275      	835.2527       	835.12573      	835.0094       	834.811        	835.60864      	835.1689       	835.0759       	834.81616      	834.6697       	835.27563      	835.0924       	834.8264       	834.76855      	835.235        	835.08453      	834.85065      	835.2372       	835.26434      	835.0268       	834.80493      	835.506        	835.10785      	834.92114      	835.05176      	835.0636       	834.921        	834.7778       	835.539        	835.00323      	834.81116      	834.6825       	835.35516      	834.9732       	834.8792       	834.7682       	835.7581       	834.98303      	834.88324      	834.8487       	835.54297      	834.9554       	834.9236       	834.86847      	835.10406      	834.9281       	834.89294      	834.8812       	834.90106      	835.29         	834.80115      	834.8075       	834.8129       	835.32184      	834.7894       	834.79565      	834.82         	835.32935      	834.78656      	834.7551       	834.7982       	834.8636       	834.9817       	834.90265      	834.8613       	834.84125      	835.6312       	834.98663      	834.99133      	834.96655      	
835.91693      	835.85876      	835.98395      	835.7972       	835.60785      	836.1751       	835.88666      	835.548        	834.9148       	835.29846      	834.97595      	835.35846      	834.9843       	835.0657       	835.5509       	835.03815      	835.1555       	835.1855       	835.1819       	836.14874      	835.14734      	835.15625      	835.18317      	835.0833       	834.994        	835.6808       	835.27203      	835.12915      	835.02704      	834.91144      	834.806        	835.6394       	835.2444       	835.1061       	834.9335       	834.7545       	835.671        	835.21625      	834.99927      	834.7742       	834.68427      	836.0449       	835.06305      	834.8233       	834.7092       	835.7646       	835.1737       	834.92065      	834.8112       	835.43713      	835.1406       	834.92706      	834.8691       	835.2581       	834.9996       	834.84827      	835.54193      	835.12476      	834.9372       	834.8252       	835.71967      	835.0573       	834.92706      	834.8372       	835.71155      	835.1201       	835.0241       	834.91595      	834.8962       	835.8261       	835.1108       	835.02637      	834.9198       	835.5836       	835.14215      	835.06177      	835.01404      	835.1406       	835.0732       	835.0302       	835.0046       	835.02075      	835.4158       	834.98376      	834.94934      	834.9785       	835.1942       	834.9617       	834.9219       	834.9436       	835.4949       	835.0408       	834.9858       	834.956        	834.98206      	835.1826       	835.1207       	835.08453      	835.0989       	835.07184      	
836.0671       	836.0321       	836.12476      	835.8993       	836.111        	836.1065       	835.9481       	835.9499       	835.88574      	835.97424      	836.04266      	836.18396      	835.07074      	835.1992       	835.47424      	835.1784       	835.1839       	835.23676      	835.2804       	835.70996      	835.2475       	835.2578       	835.22754      	835.0802       	835.11945      	835.27484      	835.28314      	835.1713       	835.0091       	834.8451       	835.6732       	835.24457      	835.12976      	834.94995      	834.7913       	835.7419       	835.22565      	834.9859       	834.79755      	834.6847       	836.0781       	835.10345      	834.90765      	834.7081       	835.7543       	835.1685       	834.94214      	834.7935       	835.9491       	835.1507       	834.93677      	834.85         	835.6148       	835.0523       	834.85767      	834.93256      	835.15106      	834.9571       	834.8357       	834.82196      	835.1737       	834.99146      	834.86206      	834.8153       	835.62726      	835.0573       	834.9327       	834.9023       	834.96594      	835.15466      	835.0891       	834.9936       	834.9469       	835.7747       	835.07886      	835.0127       	835.0114       	835.0668       	835.00183      	835.02045      	835.04675      	835.0569       	836.17706      	834.9749       	834.96136      	834.9617       	834.9824       	835.15125      	834.94006      	834.94794      	834.98865      	835.0175       	834.98303      	834.94586      	834.9436       	835.4967       	835.08453      	835.04663      	835.03156      	834.98016      	
836.0759       	836.02185      	836.03217      	836.1578       	836.11664      	835.8339       	836.09576      	835.8889       	836.0518       	836.06226      	836.2373       	836.3089       	835.1527       	835.2574       	835.78613      	835.2575       	835.32227      	835.91736      	835.2699       	835.32385      	835.32544      	835.22815      	835.22424      	835.5115       	835.3567       	835.2249       	835.11615      	834.97546      	835.3092       	835.3131       	835.18744      	835.02185      	834.87933      	835.1891       	835.1358       	834.97144      	834.85583      	834.8165       	835.946        	835.0266       	834.8302       	834.7029       	835.55005      	835.2403       	834.99384      	834.8193       	835.36255      	835.25385      	835.0146       	834.85504      	835.8164       	835.20667      	834.998        	834.8777       	835.8373       	835.13086      	834.9903       	834.9264       	835.9929       	835.11194      	835.00256      	834.95447      	835.45184      	835.1926       	835.0333       	834.98926      	834.9999       	835.5879       	835.1824       	835.152        	835.07104      	835.02936      	835.6527       	835.19666      	835.1558       	835.1514       	835.4893       	835.17633      	835.1578       	835.1807       	835.1253       	835.78937      	835.1313       	835.08777      	835.07416      	835.1175       	835.1395       	835.0167       	835.02966      	835.14746      	835.1292       	835.0738       	835.0724       	835.10443      	835.67065      	835.2197       	835.1998       	835.1608       	835.1233       	835.1449       	
836.11383      	836.00073      	836.08954      	836.0854       	836.1546       	836.0123       	836.0748       	836.0826       	836.2455       	835.95184      	836.24835      	836.2487       	836.19824      	835.9957       	835.16785      	835.49567      	835.23724      	835.3089       	835.2849       	835.20245      	835.62317      	835.2623       	835.25256      	835.1697       	835.0544       	834.92834      	836.04126      	835.16565      	835.0387       	834.87573      	834.7522       	835.6172       	834.9931       	834.8643       	834.75916      	834.99384      	834.94403      	834.7688       	834.6503       	834.7438       	835.07605      	834.8282       	834.6654       	834.6074       	835.5066       	835.00226      	834.7952       	834.7157       	835.4647       	834.9018       	834.7428       	835.1514       	835.0229       	834.8428       	834.72595      	835.7781       	834.9863       	834.8131       	834.7522       	835.3146       	834.9672       	834.87024      	834.8523       	834.8495       	835.39545      	834.98926      	834.87274      	834.86163      	834.84576      	835.67456      	834.98785      	834.9772       	834.9235       	835.44006      	835.04407      	834.9983       	834.9883       	834.988        	835.6712       	835.0003       	835.00464      	834.99347      	834.98883      	835.3743       	834.8935       	834.9163       	834.94305      	835.13367      	834.955        	834.96545      	834.94885      	835.00854      	835.09937      	835.03546      	835.0227       	834.9827       	834.96655      	835.4242       	835.10864      	835.13995      	
836.4563       	836.51337      	836.5899       	836.5635       	836.33         	836.6688       	836.599        	836.71295      	836.45306      	836.06976      	835.74384      	836.9421       	836.88214      	835.6631       	837.3653       	835.7006       	835.76227      	836.3104       	835.7465       	835.7464       	835.6649       	835.5642       	836.53674      	835.7566       	835.6938       	835.55725      	835.42633      	835.2932       	836.4898       	835.5448       	835.3622       	835.26666      	835.27344      	836.14105      	835.26575      	835.2117       	835.26666      	835.9996       	835.2413       	835.1229       	835.12524      	836.024        	835.3572       	835.2592       	835.1214       	836.41235      	835.50867      	835.22034      	835.1492       	835.985        	835.3712       	835.25336      	835.48895      	835.53723      	835.3524       	835.28033      	835.57825      	835.4742       	835.3415       	835.2848       	835.2838       	835.9029       	835.3816       	835.32446      	835.2948       	835.3226       	835.7222       	835.39606      	835.36395      	835.31537      	836.1403       	835.4599       	835.4257       	835.38416      	835.58685      	835.4722       	835.4408       	835.4072       	835.38837      	835.76         	835.4355       	835.4102       	835.41437      	835.45074      	836.0432       	835.3533       	835.3493       	835.3285       	835.38776      	835.4021       	835.39105      	835.3147       	835.2999       	835.9971       	835.5121       	835.5066       	835.4566       	835.39154      	835.4287       	835.3707       	
836.15094      	836.2877       	836.2618       	836.57556      	836.25867      	836.47595      	836.3089       	836.22906      	836.3175       	836.32074      	835.3775       	835.5839       	835.4477       	835.73987      	835.46643      	835.5544       	835.87683      	835.5479       	835.5059       	835.4352       	835.3469       	835.92957      	835.5611       	835.441        	835.329        	835.19037      	835.1227       	836.18024      	835.31146      	835.13965      	835.078        	835.10925      	835.56866      	835.10425      	835.0459       	835.3075       	835.1224       	834.99207      	834.95605      	835.3121       	835.17865      	835.01074      	834.89655      	835.1814       	835.288        	835.1108       	834.97955      	835.9757       	835.2753       	835.1222       	835.03845      	835.7939       	835.2493       	835.16046      	835.4743       	835.3217       	835.2042       	835.18396      	835.23706      	835.4083       	835.27704      	835.23627      	835.2195       	835.4615       	835.35925      	835.3417       	835.32654      	835.3075       	835.8148       	835.44135      	835.3559       	835.31555      	835.4323       	835.439        	835.4527       	835.4059       	835.3806       	836.13806      	835.5178       	835.49445      	835.3929       	835.5314       	835.4111       	835.35547      	835.3643       	835.4513       	835.6915       	835.427        	835.3532       	835.36786      	835.3863       	835.67926      	835.5243       	835.495        	835.4592       	835.42474      	835.40125      	835.89484      	835.60455      	835.6469       	
836.0724       	835.97815      	835.92834      	836.0889       	836.0902       	836.114        	835.93         	836.0776       	836.015        	836.05725      	835.0661       	836.26526      	835.1353       	835.4151       	835.12897      	835.1815       	835.7621       	835.16235      	835.1682       	835.06714      	834.82745      	835.54535      	835.1147       	835.0328       	834.8441       	834.6921       	834.6522       	835.31177      	834.8138       	834.6816       	834.63617      	834.754        	834.72687      	834.63715      	834.6539       	834.75336      	834.72205      	834.556        	834.60376      	834.6908       	835.0154       	834.5248       	834.5078       	834.60486      	834.7935       	834.6719       	834.57104      	834.873        	834.818        	834.6471       	834.6267       	835.61914      	834.8001       	834.70374      	834.6966       	835.4538       	834.76746      	834.7227       	834.65924      	834.93036      	834.98346      	834.8262       	834.74097      	834.81256      	835.10406      	834.96454      	834.87726      	834.84467      	834.89545      	835.56146      	834.91724      	834.9147       	834.83795      	835.31824      	835.03375      	834.98145      	834.91705      	834.9293       	835.3689       	834.9962       	834.915        	834.94305      	835.051        	834.94464      	834.8561       	834.89166      	834.9324       	835.08044      	834.94073      	834.8941       	834.92035      	834.9237       	835.1917       	835.02313      	834.99506      	834.9769       	834.93335      	834.9291       	834.9271       	834.8624       	
836.17926      	836.1071       	836.0051       	836.13403      	836.1012       	835.995        	836.24976      	836.26215      	835.9923       	836.2579       	835.1915       	835.37317      	835.31354      	835.2532       	836.6962       	835.264        	835.27826      	835.2141       	835.1072       	835.5226       	835.16406      	835.1006       	834.8691       	834.71906      	834.7237       	835.6586       	835.005        	834.9114       	834.73267      	834.68665      	834.83093      	834.99634      	834.65875      	834.71674      	834.84045      	835.2588       	834.6308       	834.6737       	834.78937      	835.13086      	834.67926      	834.60754      	834.6807       	835.4427       	834.7066       	834.611        	834.6571       	834.90906      	834.72015      	834.66675      	835.7438       	834.8864       	834.79755      	834.7977       	835.31616      	834.9109       	834.87067      	834.89075      	835.39984      	834.9489       	834.9278       	834.9196       	834.948        	835.75323      	834.90247      	834.9362       	834.9057       	834.953        	834.9828       	834.945        	834.9219       	834.86145      	835.9555       	835.0399       	834.98303      	834.923        	835.09406      	835.0763       	835.00165      	834.90686      	834.92993      	836.6846       	834.9198       	834.9506       	834.9527       	834.9931       	835.38727      	834.95416      	834.93646      	834.9001       	834.94244      	835.4065       	834.9941       	834.9502       	834.96704      	834.9551       	834.94574      	834.94977      	840.84143      	835.7995       	
836.0541       	835.95074      	835.8093       	835.97876      	835.9811       	836.02515      	835.92456      	836.1173       	836.16864      	835.8856       	835.5439       	835.1108       	838.00134      	835.11975      	835.2893       	835.10443      	835.0914       	835.55176      	835.1401       	834.9827       	834.809        	834.6657       	835.4857       	834.952        	834.7968       	834.6244       	834.5582       	834.5939       	835.3825       	834.585        	834.57837      	834.64996      	834.7747       	835.3406       	834.49097      	834.5226       	834.6426       	835.1482       	834.4593       	834.4425       	834.5613       	836.20795      	834.50824      	834.4418       	834.5069       	835.03754      	834.61035      	834.4616       	834.49585      	835.47534      	834.6109       	834.5866       	834.68054      	835.11127      	834.6796       	834.6007       	834.67584      	835.12915      	834.7206       	834.6696       	834.7279       	834.90594      	834.7524       	834.71423      	834.71515      	834.7167       	835.4819       	834.7249       	834.74664      	834.7235       	834.919        	834.8453       	834.76843      	834.6988       	834.6553       	835.4034       	834.8109       	834.78735      	834.764        	834.9765       	834.7728       	834.712        	834.7262       	834.768        	835.26917      	834.7222       	834.75934      	834.74646      	834.7357       	837.2581       	834.8153       	834.8242       	834.8202       	834.8194       	834.79724      	835.43665      	834.9522       	834.92566      	834.8933       	834.8919       	
836.32544      	836.3951       	836.3747       	836.448        	836.39246      	836.35767      	836.416        	836.55206      	836.2972       	836.3831       	836.54645      	836.1312       	835.5562       	835.3622       	836.2079       	835.32465      	835.2781       	835.0907       	835.55334      	835.2507       	835.0684       	834.9197       	834.7772       	834.7808       	835.1139       	834.93164      	834.7853       	834.7302       	834.8404       	835.2461       	834.74084      	834.7486       	834.828        	834.9014       	835.10126      	834.6879       	834.7025       	834.77026      	835.0055       	834.81793      	834.6325       	834.7343       	835.63824      	834.7228       	834.652        	834.7321       	835.5911       	834.6881       	834.6368       	834.74225      	834.83594      	834.7892       	834.69977      	834.8956       	834.8448       	834.78314      	834.7944       	834.9417       	834.8837       	834.83356      	834.8515       	834.8645       	836.38086      	834.84607      	834.8355       	834.87463      	834.82965      	835.6458       	834.85455      	834.82947      	834.8272       	835.6035       	834.9121       	834.8605       	834.83594      	834.72485      	835.4503       	834.8392       	834.83606      	834.7789       	835.056        	834.8287       	834.7647       	834.721        	834.7829       	835.4874       	834.7513       	834.6972       	834.7193       	834.7208       	835.1599       	834.81116      	834.78125      	834.80054      	834.81616      	834.78723      	834.81354      	835.2638       	834.9647       	834.93463      	
836.5677       	836.8923       	836.8239       	836.82574      	836.70276      	836.8021       	836.7538       	836.9833       	836.8303       	836.2253       	835.90125      	835.7987       	835.80945      	836.41724      	835.79974      	835.74536      	836.41516      	835.72235      	835.5675       	835.38873      	837.184        	835.67993      	835.4809       	835.34406      	835.25055      	835.22534      	835.8298       	835.3445       	835.25555      	835.2555       	835.3891       	835.51984      	835.57715      	835.2613       	835.3294       	835.47534      	836.63403      	835.7974       	835.26965      	835.26697      	835.37994      	835.77594      	835.1264       	835.14166      	835.3697       	835.3106       	835.2193       	835.24316      	835.9164       	835.37836      	835.3307       	835.314        	836.8585       	835.36743      	835.38226      	835.35535      	835.7301       	835.3838       	835.42163      	835.48004      	836.36914      	835.42194      	835.3919       	835.4219       	835.3873       	836.249        	835.43854      	835.4196       	835.3803       	835.34534      	836.0891       	835.48706      	835.41077      	835.34924      	835.8813       	835.45886      	835.41614      	835.3407       	835.5702       	835.4347       	835.3905       	835.3662       	835.3651       	835.73926      	835.36566      	835.3368       	835.3164       	835.33203      	836.8889       	835.301        	835.32104      	835.3571       	835.28723      	835.2705       	835.815        	835.4349       	835.41254      	835.4067       	835.34015      	835.3867       	
836.52014      	837.0855       	837.04         	837.2204       	837.1462       	837.38586      	837.0396       	837.18835      	836.94293      	837.20306      	837.18823      	836.0347       	835.9403       	836.3128       	835.90796      	835.9413       	835.944        	835.7962       	835.65466      	836.334        	835.79456      	835.6212       	835.49554      	835.4125       	836.7687       	835.65436      	835.4872       	835.39215      	835.45636      	835.596        	835.7259       	835.37274      	835.4505       	835.56244      	837.30133      	836.7862       	836.65076      	836.04877      	835.4619       	835.33374      	835.4647       	835.7722       	835.2944       	835.4005       	836.26495      	835.3841       	835.4032       	835.5663       	835.47986      	835.4235       	835.41785      	836.1642       	835.51465      	835.48004      	835.5524       	835.844        	835.5238       	835.5691       	835.6221       	836.15924      	835.56647      	835.6007       	835.6427       	835.6897       	835.66736      	835.6559       	835.5971       	835.566        	835.7422       	835.7054       	835.5971       	835.55774      	835.8427       	835.6702       	835.6171       	835.47876      	835.5153       	836.3681       	835.5606       	835.5306       	835.5175       	835.8805       	835.4898       	835.42957      	835.4562       	835.4811       	835.99115      	835.4895       	835.5055       	835.4788       	835.48303      	835.64136      	835.52997      	835.524        	835.5084       	835.48694      	835.4861       	835.4397       	835.43054      	835.4233       	
837.6706       	836.751        	838.0691       	836.71906      	837.40405      	837.844        	837.8642       	837.85846      	837.6927       	837.68945      	837.77576      	837.4          	836.8441       	836.5248       	837.07513      	836.50354      	836.3785       	836.43396      	836.44727      	836.33344      	836.18005      	836.0922       	837.03644      	836.2465       	836.0811       	836.00433      	836.0025       	836.20764      	836.00336      	835.9817       	836.03015      	836.1322       	837.0113       	835.9932       	836.0824       	836.19666      	837.4258       	836.23834      	835.93274      	836.0062       	836.1614       	835.8228       	835.92676      	836.42224      	835.9303       	835.87274      	835.9121       	836.38416      	835.9599       	835.9716       	836.4262       	836.0294       	836.02637      	837.71844      	836.04645      	836.02576      	836.09766      	836.6591       	836.11255      	836.14215      	836.1328       	836.16315      	836.29816      	836.1621       	836.1175       	836.0951       	836.08         	836.52954      	836.1903       	836.166        	836.05457      	836.7395       	836.17804      	836.1394       	836.0438       	837.7821       	836.1327       	836.0523       	836.0251       	836.51434      	836.04535      	835.9874       	836.0177       	836.05695      	836.7901       	835.9584       	835.9236       	836.0036       	836.0377       	836.80115      	835.9758       	835.9889       	835.91406      	835.961        	835.96387      	836.482        	836.1096       	836.0426       	835.9965       	836.0308       	
837.64185      	836.4884       	837.29987      	837.5957       	837.3726       	837.72406      	837.6298       	837.47614      	837.4847       	837.48566      	837.5069       	837.0338       	836.27484      	836.72644      	836.2068       	836.2304       	836.8723       	836.15485      	835.98444      	836.7581       	836.14954      	835.8997       	835.78485      	835.7913       	836.4591       	835.8724       	835.7932       	835.82227      	835.8915       	836.2423       	835.7773       	835.8241       	835.9866       	836.20734      	835.8262       	835.9301       	836.0335       	836.1659       	835.9396       	836.0957       	836.5468       	835.86633      	835.9149       	836.4019       	835.8092       	835.84485      	836.32965      	835.9362       	835.90875      	836.0619       	836.0279       	835.9846       	836.0729       	836.704        	836.0805       	836.09546      	836.6839       	836.12164      	836.1308       	836.1682       	836.1745       	836.2317       	836.1976       	836.16925      	836.1709       	836.1184       	836.7627       	836.2568       	836.1767       	836.1149       	838.3036       	836.3194       	836.2286       	836.2721       	836.3266       	836.2162       	836.2086       	836.2228       	836.26953      	836.1938       	836.2184       	836.1887       	836.6159       	836.08307      	836.1034       	836.15955      	836.1812       	836.5762       	836.152        	836.1165       	836.10706      	836.15906      	836.16284      	836.6705       	836.185        	836.1726       	836.1689       	836.1592       	836.1074       	836.1199       	
