# www.neaspec.com
# Scan:	 	AFM
# Project:	 	20251007_PS
# Description:	 	
# Date:	 	10/07/2025 11:59:45
# Scanner Center Position (X, Y):	[µm]	49.99	50.01	 
# Rotation:	[°]	0	 	 
# Scan Area (X, Y, Z):	[µm]	5.000	5.000	0.000
# Pixel Area (X, Y, Z):	[px]	100	100	1
# Averaging:	 	1	 	 
# Integration time:	[ms]	5	 	 
# Laser Source:	 	4.5-15 µm nano-FTIR laser
# Detector:	 	R
# Target Wavelength:	[µm]	7.502	 	 
# Demodulation Mode:	 	Fourier
# Tip Frequency:	[Hz]	241,340.500	 	 
# Tip Amplitude:	[mV]	45.700	 	 
# Tapping Amplitude:	[nm]	80.938	 	 
# Modulation Frequency:	[Hz]	0.000	 	 
# Modulation Amplitude:	[mV]	0.000	 	 
# Modulation Offset:	[mV]	0.000	 	 
# Setpoint:	[%]	79.75	 	 
# Regulator (P, I, D):	 	4.206850	8.625812	1.000000
# Tip Potential:	[mV]	0.000	 	 
# M1A Scaling:	[nm/V]	0.426	 	 
# M1A Cantilever Factor:	 	1,000	 	 
# Q-Factor:	 	487.4	 	 
# Version:	 	2.1.11536.0
930.09235      	930.08044      	930.0843       	930.15106      	930.1914       	930.1862       	930.18494      	930.29614      	930.2481       	930.252        	930.189        	930.2959       	930.2139       	930.21655      	930.1007       	930.10767      	930.1475       	930.16345      	930.29095      	930.346        	930.2509       	930.24805      	930.23627      	930.29974      	930.2767       	930.29944      	930.20886      	930.1752       	930.17096      	930.1497       	930.14355      	930.1837       	930.262        	930.3262       	930.3034       	930.3226       	930.15826      	930.03876      	930.1235       	930.1549       	930.04877      	930.1762       	930.219        	930.1993       	930.30786      	930.3405       	930.3764       	930.3015       	930.3867       	930.3562       	930.40204      	930.48236      	930.36584      	930.37823      	930.3271       	930.21155      	930.15845      	930.22406      	930.2135       	930.2425       	930.3184       	930.363        	930.3685       	930.2772       	930.31         	930.4121       	930.3761       	930.3118       	930.2317       	930.29755      	930.3303       	930.31964      	930.33484      	930.3315       	930.37054      	930.4122       	930.4675       	930.4469       	930.44556      	930.44073      	930.43567      	930.42474      	930.3913       	930.4958       	930.22455      	930.0924       	930.15045      	930.20874      	930.27875      	930.3312       	930.3531       	930.3552       	930.41437      	930.4688       	930.51276      	930.48926      	930.5478       	930.4779       	930.416        	930.34595      	
930.6296       	930.5839       	930.5689       	930.7035       	930.8194       	930.7429       	930.7467       	930.7153       	930.7645       	930.744        	930.7123       	930.7001       	930.50824      	930.8571       	930.6706       	930.66864      	930.6696       	930.7144       	930.763        	930.819        	930.7937       	930.79236      	930.75366      	930.7887       	930.82074      	930.76306      	930.7398       	930.67944      	930.6429       	930.6658       	930.7031       	930.70935      	930.7814       	930.75226      	930.8051       	930.76917      	930.66833      	930.5812       	930.60547      	930.6228       	930.64575      	930.68097      	930.6765       	930.69366      	930.7724       	930.75775      	930.80524      	930.81384      	930.8222       	930.8517       	930.90826      	930.9062       	930.7262       	930.77484      	930.7974       	930.75073      	930.70605      	930.70337      	930.70483      	930.6109       	930.7302       	930.7761       	930.75775      	930.66125      	930.6954       	930.8269       	930.8087       	930.8617       	930.7659       	930.7842       	930.73315      	930.79724      	930.80536      	930.7748       	930.8698       	930.8757       	930.9312       	930.9187       	930.93256      	930.94543      	930.94635      	930.85846      	930.8883       	930.9818       	930.7532       	930.6091       	930.5993       	930.6571       	930.68256      	930.7233       	930.8271       	930.74994      	930.8533       	930.9042       	930.91205      	930.9623       	930.9808       	930.8672       	930.8611       	930.8228       	
930.9071       	930.84796      	930.82465      	930.927        	930.98627      	930.97864      	931.0075       	931.00085      	930.9733       	930.96246      	930.98004      	930.99255      	931.07434      	930.9951       	930.97656      	930.8785       	930.91003      	930.9142       	930.95905      	930.9858       	931.0853       	931.02203      	930.97784      	931.0064       	931.00336      	930.97595      	930.92426      	930.92584      	930.8736       	930.87573      	930.85406      	930.9371       	930.94543      	930.99817      	930.90845      	930.9124       	930.999        	930.92883      	930.88275      	930.81146      	930.89215      	930.93195      	930.9068       	930.89655      	930.9262       	930.9169       	930.9145       	930.9706       	930.9643       	930.9874       	931.1956       	930.9652       	930.9228       	930.9044       	931.04285      	931.10913      	931.0664       	931.0487       	930.85034      	930.89154      	931.0007       	931.0639       	930.9949       	930.8849       	930.8026       	930.93134      	931.0577       	931.10944      	931.0107       	930.9547       	930.9109       	930.9501       	931.00055      	931.0283       	931.06555      	931.05164      	931.12054      	931.12885      	931.0933       	931.1211       	931.15234      	931.07623      	931.10254      	931.13715      	931.00714      	930.8302       	930.77454      	930.80945      	930.7553       	930.7828       	930.8959       	930.96313      	930.8945       	930.9635       	931.06995      	931.0616       	931.07135      	931.0826       	931.01465      	930.9846       	
930.8928       	930.8838       	930.9423       	931.0006       	930.9993       	930.9996       	930.9675       	930.9423       	930.96326      	930.9928       	930.8705       	930.99615      	930.9784       	930.9896       	930.8888       	930.9462       	930.91705      	930.9773       	930.964        	931.0263       	930.9485       	931.0149       	930.9097       	930.88226      	930.93384      	930.92316      	930.89465      	930.9351       	930.8764       	930.82043      	930.8854       	930.9145       	930.85114      	930.89594      	930.8723       	930.8483       	930.97815      	930.9617       	930.8228       	930.8274       	930.8622       	930.8735       	930.8385       	930.8591       	930.7693       	930.8419       	930.8292       	930.7943       	930.9225       	930.9841       	931.098        	930.9813       	930.8362       	930.8564       	931.03326      	931.06824      	931.21204      	930.93317      	930.83875      	930.8472       	930.9742       	930.92865      	930.8757       	930.7662       	930.6801       	930.8264       	931.00946      	931.08984      	930.9823       	930.9029       	930.8149       	930.7733       	930.8492       	930.9366       	930.9903       	930.9841       	930.9655       	930.9737       	930.99316      	931.0148       	930.93835      	931.0593       	931.028        	931.01917      	930.87915      	930.7901       	930.7207       	930.6643       	930.59406      	930.6212       	930.7256       	930.8249       	930.8403       	930.82904      	930.9132       	930.8901       	930.94727      	930.8939       	930.91284      	930.9117       	
930.76697      	930.7314       	930.75446      	930.86414      	930.9264       	930.8495       	930.79553      	930.7434       	930.82153      	930.74176      	930.8365       	930.78284      	930.811        	930.7825       	930.73645      	930.7429       	930.73505      	930.85767      	930.78345      	930.78766      	930.7984       	930.8268       	930.83826      	930.7605       	930.6889       	930.70026      	930.67847      	930.737        	930.7208       	930.6072       	930.6605       	930.6938       	930.6586       	930.7442       	930.62787      	930.6562       	930.70984      	930.7488       	930.6292       	930.6056       	930.5152       	930.7025       	930.5733       	930.61066      	930.56274      	930.4325       	930.57983      	930.5121       	930.5803       	930.7139       	930.8246       	930.68915      	930.524        	930.599        	930.75806      	930.8409       	930.8495       	930.86145      	930.6443       	930.69934      	930.7389       	930.68695      	930.5419       	930.47046      	930.54175      	930.63434      	930.7955       	930.8799       	930.8053       	930.70996      	930.6494       	930.58606      	930.56555      	930.71497      	930.7767       	930.76654      	930.7564       	930.6631       	930.68207      	930.765        	930.7882       	930.8746       	930.8903       	930.7384       	930.6327       	930.64246      	930.609        	930.57336      	930.4682       	930.4222       	930.47015      	930.5815       	930.6095       	930.6358       	930.7854       	930.764        	930.817        	930.7767       	930.7687       	930.7161       	
930.54193      	930.5762       	930.59436      	930.66754      	930.7761       	930.639        	930.46454      	930.4901       	930.5587       	930.68317      	930.6266       	930.537        	930.54266      	930.5511       	930.5085       	930.49945      	930.5826       	930.66644      	930.59204      	930.5145       	930.6456       	930.6215       	930.5853       	930.52826      	930.5012       	930.5          	930.4379       	930.4913       	930.468        	930.3948       	930.48114      	930.42773      	930.639        	930.5193       	930.4746       	930.5311       	930.5634       	930.5303       	930.4851       	930.52454      	930.4242       	930.4423       	930.4457       	930.4027       	930.29486      	930.31793      	930.33984      	930.30475      	930.363        	930.43646      	930.6212       	930.4742       	930.37634      	930.4104       	930.37006      	930.637        	930.56683      	930.61584      	930.51843      	930.5649       	930.4718       	930.36676      	930.28375      	930.2382       	930.3273       	930.3763       	930.57263      	930.7021       	930.5728       	930.45386      	930.46985      	930.3943       	930.29144      	930.3747       	930.48254      	930.524        	930.5254       	930.3864       	930.3401       	930.43616      	930.5321       	930.6819       	930.5593       	930.4513       	930.38477      	930.3571       	930.4313       	930.3422       	930.19135      	930.0703       	930.0804       	930.21594      	930.3199       	930.29297      	930.38153      	930.4525       	930.4033       	930.4179       	930.4365       	930.38763      	
930.31274      	930.34143      	930.3798       	930.46094      	930.54224      	930.4414       	930.2641       	930.21063      	930.38837      	930.4792       	930.32965      	930.3153       	930.28033      	930.26306      	930.31165      	930.3239       	930.39264      	930.43744      	930.4324       	930.38275      	930.35516      	930.4466       	930.4431       	930.35376      	930.4547       	930.403        	930.27747      	930.2962       	930.3239       	930.36957      	930.4017       	930.2803       	930.38965      	930.3492       	930.3288       	930.3811       	930.3313       	930.36945      	930.3412       	930.29926      	930.3777       	930.22626      	930.309        	930.28406      	930.19714      	930.20734      	930.2273       	930.18207      	930.227        	930.3931       	930.50476      	930.3492       	930.1529       	930.2968       	930.307        	930.24567      	930.49133      	930.5524       	930.50085      	930.4387       	930.37695      	930.32837      	930.2936       	930.25836      	930.28644      	930.3635       	930.4755       	930.6025       	930.58466      	930.4174       	930.3541       	930.3808       	930.3202       	930.24054      	930.377        	930.3884       	930.4397       	930.3022       	930.26825      	930.31805      	930.468        	930.56085      	930.5654       	930.381        	930.3915       	930.33435      	930.2789       	930.22534      	930.18195      	930.0398       	930.06824      	930.09174      	930.1365       	930.11255      	930.2204       	930.2839       	930.28033      	930.32         	930.3669       	930.3764       	
930.1549       	930.1725       	930.26373      	930.36255      	930.2279       	930.1296       	930.07904      	930.0694       	930.25757      	930.1567       	930.2322       	930.1543       	930.09937      	930.144        	930.1405       	930.1786       	930.2067       	930.22906      	930.23035      	930.1278       	930.1225       	930.20435      	930.1996       	930.1868       	930.3956       	930.1959       	930.0333       	929.9649       	930.1329       	930.10547      	930.0562       	930.0251       	930.1377       	930.1552       	930.11975      	930.0986       	930.12885      	930.08527      	930.05725      	930.1773       	930.2028       	930.08685      	930.10345      	930.1415       	930.0224       	930.1          	930.0463       	929.9354       	929.88837      	930.1065       	930.32214      	930.16693      	930.0349       	929.9316       	930.0973       	930.07324      	930.1432       	930.27484      	930.25806      	930.36334      	930.2213       	930.0957       	930.13727      	930.047        	930.09125      	930.1566       	930.1907       	930.34375      	930.3409       	930.20605      	930.1123       	930.22815      	930.17505      	929.99146      	930.06085      	930.1126       	930.1725       	930.2157       	930.1774       	930.14075      	930.31055      	930.3439       	930.3851       	930.22766      	930.29114      	930.11945      	930.1104       	930.0565       	930.02136      	930.03375      	930.0431       	929.97534      	929.97266      	929.93036      	929.95825      	930.13617      	930.1731       	930.1725       	930.2706       	930.27356      	
930.23114      	930.2486       	930.36676      	930.3644       	930.27405      	930.235        	930.2069       	930.24567      	930.2607       	930.2575       	930.2566       	930.26886      	930.24176      	930.1406       	930.1833       	930.2538       	930.3366       	930.29486      	930.2944       	930.2397       	930.2255       	930.2419       	930.24744      	930.2728       	930.3766       	930.2995       	930.1728       	930.0722       	930.28815      	930.2735       	930.1601       	930.0522       	930.07855      	930.2015       	930.29407      	930.1904       	930.1709       	930.1963       	930.3591       	930.19165      	930.24915      	930.23004      	930.1848       	930.25183      	930.22473      	930.3163       	930.2145       	930.03815      	930.0816       	930.18274      	930.33923      	930.3403       	930.19965      	930.19275      	930.1625       	930.15106      	930.2102       	930.24066      	930.2732       	930.3573       	930.04663      	930.4333       	930.2112       	930.2344       	930.25824      	930.249        	930.3021       	930.3983       	930.35516      	930.2799       	930.185        	930.39294      	930.29645      	930.1752       	930.0934       	930.1676       	930.1725       	930.16437      	930.2256       	930.23206      	930.23706      	930.3943       	930.46765      	930.2985       	930.30884      	930.237        	930.1313       	930.14185      	930.0407       	930.21136      	930.15985      	930.0893       	929.89966      	929.8754       	929.98883      	930.13385      	930.14557      	930.19464      	930.3593       	930.2796       	
930.16406      	930.16766      	930.19055      	930.29565      	930.2644       	930.21265      	930.26605      	930.22394      	930.2109       	930.2413       	930.2682       	930.3119       	930.2412       	930.1804       	930.17786      	930.1689       	930.3231       	930.2222       	930.1107       	930.0933       	930.24817      	930.199        	930.1866       	930.13794      	930.30786      	930.3047       	930.2193       	930.1829       	930.2605       	930.24255      	930.1959       	930.06         	930.06976      	930.0712       	930.21747      	930.2062       	930.12756      	930.1228       	930.2892       	930.2357       	930.24805      	930.17096      	930.18225      	930.24457      	930.25653      	930.2214       	930.19794      	930.1134       	930.1005       	930.16986      	930.1625       	930.2641       	930.29974      	930.2257       	930.1993       	930.2011       	930.03894      	930.1264       	930.2309       	930.267        	930.2628       	930.287        	930.21783      	930.3202       	930.31744      	930.3197       	930.2662       	930.3688       	930.3226       	930.2575       	930.23334      	930.29626      	930.35803      	930.2942       	930.1674       	930.21185      	930.16833      	930.1835       	930.1848       	930.21         	930.2035       	930.32416      	930.44147      	930.38855      	930.2823       	930.2546       	930.18646      	930.1637       	930.1696       	930.1982       	930.33716      	930.1165       	929.9701       	929.80084      	929.99304      	930.07214      	930.1363       	930.2118       	930.3014       	930.27856      	
930.13696      	930.1767       	930.2777       	930.27466      	930.21967      	930.2528       	930.2426       	930.1448       	930.1468       	930.1939       	930.25653      	930.27484      	930.20636      	930.1671       	930.15955      	930.10803      	930.19934      	930.1757       	930.1425       	930.0596       	930.1511       	930.01965      	930.2204       	930.20764      	930.21094      	930.2945       	930.1475       	930.2281       	930.17395      	930.2022       	930.1661       	930.0856       	930.04504      	929.9697       	930.0673       	930.1734       	930.07367      	930.0862       	930.2177       	930.2262       	930.18494      	930.14655      	930.1276       	930.12756      	930.24347      	930.13794      	930.078        	930.1295       	930.1273       	930.0791       	929.9851       	930.1768       	930.2587       	930.2642       	930.2672       	930.11304      	930.0242       	930.0808       	930.05035      	930.16724      	930.12866      	930.1638       	930.1861       	930.32166      	930.3183       	930.2843       	930.2761       	930.21295      	930.23254      	930.21387      	930.24603      	930.28754      	930.2152       	930.23785      	930.2222       	930.2132       	930.17737      	930.0982       	930.1376       	930.0951       	930.09973      	930.1593       	930.244        	930.3356       	930.209        	930.1554       	930.178        	930.16284      	930.16125      	930.08875      	930.3522       	930.1324       	929.8767       	929.7542       	929.87933      	929.957        	929.9874       	930.0683       	930.1497       	930.2325       	
930.1179       	930.1134       	930.09174      	930.2024       	930.2768       	930.2772       	930.1471       	930.165        	930.15356      	930.1863       	930.2179       	930.2136       	930.16895      	930.1734       	930.2054       	930.1117       	930.07117      	930.2016       	930.14496      	930.0739       	930.06067      	930.0807       	930.12146      	930.1769       	930.2702       	930.2613       	930.2571       	930.2338       	930.1469       	930.0419       	930.2602       	930.214        	930.0782       	930.0406       	930.0485       	930.10504      	930.13336      	930.09503      	930.1507       	930.2472       	930.19434      	930.1136       	930.17035      	930.17175      	930.2487       	930.1533       	930.1062       	930.1895       	930.0934       	930.097        	930.157        	930.21313      	930.2347       	930.2382       	930.2106       	930.19147      	930.0746       	930.1687       	930.08386      	930.1349       	930.06085      	930.1641       	930.27893      	930.2725       	930.3358       	930.289        	930.2216       	930.2778       	930.25806      	930.22235      	930.4374       	930.3334       	930.3943       	930.1998       	930.2171       	930.2567       	930.2606       	930.20966      	930.17255      	930.1296       	930.13293      	930.1099       	930.2691       	930.3572       	930.2568       	930.1436       	930.14844      	930.15985      	930.2047       	930.21576      	930.2754       	930.0345       	929.9586       	929.8865       	929.9241       	929.91284      	929.9188       	929.98285      	930.137        	930.19946      	
930.2054       	930.1705       	930.1451       	930.2968       	930.42584      	930.2991       	930.2944       	930.2058       	930.2519       	930.31537      	930.3092       	930.2018       	930.26013      	930.33704      	930.3404       	930.25195      	930.233        	930.24554      	930.3599       	930.2299       	930.2115       	930.17957      	930.28754      	930.339        	930.3564       	930.3863       	930.46387      	930.34125      	930.2614       	930.2657       	930.4089       	930.36926      	930.2594       	930.2485       	930.2413       	930.2604       	930.25165      	930.26587      	930.3232       	930.42         	930.32904      	930.32684      	930.3203       	930.32135      	930.3656       	930.3614       	930.30414      	930.28156      	930.27075      	930.2803       	930.4206       	930.31744      	930.29626      	930.3851       	930.4277       	930.4648       	930.42993      	930.35394      	930.2513       	930.24023      	930.3399       	930.3714       	930.4558       	930.5657       	930.5598       	930.5443       	930.47174      	930.36914      	930.30695      	930.3796       	930.4767       	930.4597       	930.5733       	930.5123       	930.4608       	930.48737      	930.54785      	930.4654       	930.5026       	930.46875      	930.3104       	930.39215      	930.4467       	930.42816      	930.50836      	930.3956       	930.3489       	930.4366       	930.4876       	930.5217       	930.4169       	930.28235      	930.24866      	930.26953      	930.2135       	930.163        	930.15326      	930.1542       	930.3022       	930.37036      	
930.5404       	930.5123       	930.50525      	930.6642       	930.6843       	930.68524      	930.6596       	930.62604      	930.5935       	930.66046      	930.6231       	930.5625       	930.54205      	930.62604      	930.7041       	930.60034      	930.5941       	930.586        	930.6568       	930.6475       	930.53546      	930.4501       	930.6654       	930.65295      	930.59247      	930.7081       	930.6989       	930.5856       	930.6589       	930.6536       	930.62964      	930.7647       	930.66907      	930.5505       	930.6388       	930.62537      	930.6246       	930.6072       	930.57935      	930.68744      	930.68207      	930.69507      	930.6804       	930.6602       	930.68414      	930.7639       	930.6056       	930.594        	930.5732       	930.625        	930.6762       	930.625        	930.5181       	930.64624      	930.75073      	930.7933       	930.6914       	930.705        	930.5675       	930.4642       	930.5944       	930.5541       	930.67084      	930.7382       	930.7728       	930.711        	930.69763      	930.5448       	930.4186       	930.5504       	930.56726      	930.31805      	930.8766       	930.92285      	930.711        	930.8302       	930.8562       	930.79175      	930.69934      	930.6747       	930.5909       	930.6212       	930.6564       	930.63         	930.55707      	930.64465      	930.6874       	930.7045       	930.75446      	930.8015       	930.63306      	930.5688       	930.57587      	930.5427       	930.52563      	930.4955       	930.4324       	930.3461       	930.45715      	930.58295      	
930.5842       	930.5145       	930.6022       	930.6593       	930.5683       	930.69293      	930.64136      	930.65106      	930.7102       	930.66284      	930.65515      	930.58636      	930.59534      	930.6398       	930.70874      	930.667        	930.63275      	930.62085      	930.69214      	930.6264       	930.536        	930.5029       	930.60767      	930.6271       	930.61975      	930.6571       	930.5946       	930.66626      	930.6435       	930.63727      	930.6162       	930.6088       	930.6889       	930.59906      	930.5689       	930.58704      	930.66003      	930.56177      	930.4806       	930.5844       	930.7069       	930.64966      	930.62756      	930.6334       	930.6094       	930.69794      	930.607        	930.5778       	930.66406      	930.6262       	930.70746      	930.62445      	930.57715      	930.719        	930.74506      	930.7678       	930.71875      	930.6641       	930.6731       	930.5166       	930.4965       	930.61975      	930.6696       	930.7302       	930.79584      	930.677        	930.6933       	930.56213      	930.50446      	930.54724      	930.5136       	930.57355      	930.93195      	930.7263       	930.74225      	930.7362       	930.90344      	930.79675      	930.72205      	930.6793       	930.62537      	930.67896      	930.63446      	930.60004      	930.5364       	930.6523       	930.6674       	930.72485      	930.73376      	930.8063       	930.64685      	930.637        	930.5875       	930.5098       	930.4989       	930.6334       	930.4431       	930.36786      	930.31354      	930.53314      	
930.6329       	930.6571       	930.6827       	930.6438       	930.6271       	930.6565       	930.64703      	930.45074      	930.8212       	930.58844      	930.6103       	930.6534       	930.6243       	930.7311       	930.73804      	930.6749       	930.69666      	930.71423      	930.72614      	930.65826      	930.6592       	930.7012       	930.59863      	930.68384      	930.6327       	930.62024      	930.66144      	930.7458       	930.7892       	930.78674      	930.7353       	930.65625      	930.7151       	930.7512       	930.6835       	930.6184       	930.7652       	930.6576       	930.6264       	930.70465      	930.75134      	930.7461       	930.6399       	930.6684       	930.6348       	930.64874      	930.6886       	930.68726      	930.7521       	930.7786       	930.6985       	930.73535      	930.7213       	930.79285      	930.87366      	930.7874       	930.67944      	930.66187      	930.7232       	930.61206      	930.5148       	930.5909       	930.5814       	930.6553       	930.7475       	930.63226      	930.7021       	930.66895      	930.5025       	930.4506       	930.5406       	930.6178       	930.66797      	930.6097       	930.60876      	930.56335      	930.7299       	930.764        	930.7102       	930.713        	930.5483       	930.66614      	930.6713       	930.55695      	930.53864      	930.5641       	930.5896       	930.6625       	930.681        	930.6171       	930.5935       	930.5931       	930.63324      	930.49713      	930.46027      	930.6223       	930.5173       	930.32086      	930.2535       	930.3115       	
930.51465      	930.5178       	930.5442       	930.4999       	930.4965       	930.4779       	930.5619       	930.6116       	930.59076      	930.5173       	930.50934      	930.4684       	930.5081       	930.54175      	930.4695       	930.44214      	930.4909       	930.5234       	930.4492       	930.48334      	930.50195      	930.5058       	930.41364      	930.3623       	930.36566      	930.3683       	930.41925      	930.4955       	930.53         	930.5336       	930.52356      	930.4628       	930.45807      	930.5004       	930.4308       	930.3203       	930.38477      	930.3624       	930.3898       	930.375        	930.41174      	930.4905       	930.29724      	930.3341       	930.3801       	930.3202       	930.30804      	930.36646      	930.4194       	930.4096       	930.3509       	930.374        	930.41187      	930.391        	930.47504      	930.3249       	930.26575      	930.18854      	930.29724      	930.29504      	930.24646      	930.2331       	930.2062       	930.2592       	930.31244      	930.26276      	930.3196       	930.3453       	930.1578       	930.0632       	930.165        	930.1272       	930.1582       	930.2042       	930.1274       	930.0859       	930.1684       	930.29987      	930.30634      	930.3001       	930.2005       	930.09827      	930.3222       	930.27527      	930.2883       	930.18945      	930.093        	930.16925      	930.14844      	930.0847       	930.1797       	930.27875      	930.2182       	930.1279       	930.02954      	930.2278       	930.2035       	929.95996      	929.861        	929.8822       	
930.0684       	930.07623      	930.04254      	930.05963      	930.07214      	930.199        	930.2112       	930.16534      	930.1394       	930.1144       	930.13617      	930.1133       	930.0772       	930.13806      	929.9859       	930.0151       	930.11194      	930.1318       	930.05945      	930.0907       	930.162        	930.07465      	930.0326       	929.92         	929.91205      	929.9135       	929.98804      	930.0583       	930.08203      	930.0502       	930.0253       	929.9718       	930.051        	930.03235      	930.0131       	929.92487      	929.894        	929.9556       	929.99243      	929.9696       	929.9687       	930.08386      	929.9948       	929.94507      	929.9638       	929.90594      	929.92017      	929.9073       	929.9515       	929.93646      	929.8978       	929.9486       	930.0438       	929.99536      	929.99866      	929.99976      	929.78876      	929.69696      	929.8578       	929.86743      	929.8329       	929.74207      	929.7479       	929.78253      	929.86035      	929.87006      	929.86237      	929.83466      	929.77875      	929.6537       	929.67804      	929.64575      	929.6775       	929.7161       	929.67926      	929.66437      	929.7308       	929.83215      	929.7953       	929.793        	929.782        	929.86523      	929.91516      	929.9708       	930.1055       	930.0179       	929.89777      	929.93024      	929.9698       	929.9716       	930.0214       	930.1769       	930.24506      	930.1269       	930.2436       	930.1539       	930.3207       	930.2263       	930.12274      	930.0487       	
931.3529       	931.3341       	931.29425      	931.40234      	931.4887       	931.5459       	931.6569       	931.65454      	931.65594      	931.62476      	931.7132       	931.7347       	931.79553      	931.8714       	931.8604       	931.90393      	932.01184      	932.08203      	932.1161       	932.14166      	932.21277      	932.2864       	932.267        	932.12067      	932.1775       	932.23395      	932.32983      	932.5079       	932.5245       	932.57184      	932.55164      	932.54065      	932.6608       	932.6762       	932.64496      	932.72         	932.7784       	932.8433       	932.89624      	932.9231       	932.9906       	933.0937       	933.1986       	933.1484       	933.1751       	933.18933      	933.22107      	933.23004      	933.38666      	933.3983       	933.469        	933.5408       	933.5234       	933.62695      	933.66046      	933.74744      	933.6415       	933.5978       	933.6694       	933.8607       	933.8118       	933.8302       	933.80695      	933.85846      	934.00134      	934.03577      	934.1208       	934.0354       	934.1495       	934.0317       	934.0553       	934.06354      	934.0383       	934.16833      	934.0837       	934.1442       	934.1907       	934.27374      	934.2783       	934.2312       	934.2789       	934.40497      	934.4633       	934.448        	934.6615       	934.6806       	934.50775      	934.51733      	934.62604      	934.5846       	934.5488       	934.7341       	934.8369       	934.695        	934.765        	934.6996       	934.7624       	934.7322       	934.73987      	934.58344      	
934.69495      	934.57654      	934.50256      	934.6006       	934.7228       	934.7107       	934.73334      	934.71454      	934.67487      	934.6149       	934.6269       	934.59174      	934.6501       	934.6061       	934.67914      	934.57324      	934.548        	934.54016      	934.6371       	934.5756       	934.5989       	934.62524      	934.59595      	934.49304      	934.36316      	934.4655       	934.49976      	934.51337      	934.5574       	934.4965       	934.4772       	934.41254      	934.4652       	934.50323      	934.4215       	934.4221       	934.47864      	934.38293      	934.363        	934.3303       	934.3545       	934.405        	934.4159       	934.4001       	934.1969       	934.3178       	934.25385      	934.26495      	934.311        	934.2975       	934.2613       	934.2968       	934.1938       	934.1562       	934.26184      	934.1712       	934.3624       	934.1781       	934.13403      	934.2738       	934.20154      	934.1783       	934.1155       	934.0299       	934.0985       	934.25464      	934.21124      	934.1342       	934.05676      	934.0511       	934.0222       	934.00256      	933.9203       	934.0049       	933.9495       	933.85504      	933.90924      	933.848        	933.927        	933.8181       	933.7359       	933.7728       	933.8097       	933.8399       	933.8919       	933.9796       	934.04047      	933.71326      	933.8603       	933.85046      	933.6724       	933.7475       	933.81866      	933.8951       	933.7643       	933.6555       	933.5702       	933.53033      	933.9576       	933.26575      	
932.6384       	932.5268       	932.40045      	932.44336      	932.60846      	932.6162       	932.657        	932.602        	932.6384       	932.5518       	932.51965      	932.5667       	932.6097       	932.5562       	932.58386      	932.6147       	932.54016      	932.5944       	932.668        	932.6013       	932.6055       	932.5978       	932.5993       	932.494        	932.3889       	932.487        	932.47076      	932.5195       	932.49695      	932.50073      	932.5446       	932.459        	932.361        	932.4692       	932.4996       	932.3264       	932.6146       	932.3298       	932.3072       	932.3969       	932.40234      	932.4307       	932.42816      	932.3456       	932.3535       	932.3401       	932.25305      	932.23773      	932.3484       	932.24677      	932.24506      	932.2341       	932.16547      	932.15814      	932.2126       	932.28156      	932.3059       	932.3425       	932.24615      	932.22925      	932.1888       	932.08484      	932.1172       	932.0173       	932.09705      	932.2307       	932.16766      	932.09674      	931.96136      	932.05145      	932.2234       	932.0929       	931.86786      	931.9834       	932.0116       	931.9643       	931.90955      	931.86566      	932.024        	931.87445      	931.69183      	931.7113       	931.73364      	931.75305      	931.8903       	931.9848       	932.04065      	931.9756       	931.7755       	931.8912       	931.7717       	931.83234      	931.8955       	931.95245      	931.81995      	931.8017       	931.87213      	931.88617      	931.7413       	931.3311       	
930.92865      	930.8529       	930.6999       	930.66693      	930.8909       	931.00433      	930.94836      	931.00824      	931.0335       	930.92566      	930.89844      	930.9687       	931.0629       	930.99585      	931.03577      	931.0495       	930.9727       	931.02966      	931.1337       	931.1422       	930.9545       	930.99445      	931.0309       	930.987        	930.9474       	931.0052       	930.9938       	930.9548       	930.9356       	931.01746      	931.0906       	931.0639       	930.9975       	930.9584       	931.0746       	931.0971       	931.03644      	930.9849       	930.9249       	931.03906      	931.07574      	931.06726      	930.9895       	930.9926       	931.0648       	931.1482       	931.0644       	931.0396       	931.06683      	931.0066       	931.02185      	930.95044      	930.99115      	930.9867       	930.98926      	931.05536      	931.0735       	931.2474       	931.19653      	931.07904      	931.0816       	931.06177      	931.0515       	931.0735       	931.0954       	931.1526       	931.0688       	930.93286      	931.07214      	931.1042       	931.0151       	931.0716       	930.9856       	930.91614      	930.97327      	931.05695      	930.973        	931.09094      	931.0279       	931.02277      	930.7968       	930.7198       	930.7887       	930.87146      	930.9332       	931.0484       	931.164        	931.1957       	930.9629       	931.0167       	931.16766      	931.04517      	931.0843       	931.079        	931.0021       	931.1876       	931.17615      	931.1465       	931.05963      	931.02905      	
931.3845       	931.3513       	931.2514       	931.1471       	931.3051       	931.38544      	931.4127       	931.4293       	931.4771       	931.4355       	931.4694       	931.4405       	931.4987       	931.523        	931.5033       	931.60815      	931.5812       	931.5697       	931.59216      	931.63824      	931.3661       	931.43854      	931.50415      	931.58044      	931.5745       	931.53644      	931.45465      	931.46783      	931.46594      	931.5558       	931.5886       	931.59894      	931.5189       	931.52515      	931.5855       	931.5229       	931.5348       	931.48413      	931.49524      	931.6483       	931.5899       	931.47546      	931.5961       	931.6471       	931.656        	931.6439       	931.6426       	931.6484       	931.59827      	931.52563      	931.56744      	931.4523       	931.5868       	931.5333       	931.5559       	931.4977       	931.64026      	931.75946      	931.7945       	931.6311       	931.5579       	931.5595       	931.54236      	931.541        	931.5762       	931.6459       	931.657        	931.61633      	931.48474      	931.54004      	931.4985       	931.3663       	931.4301       	931.49274      	931.4151       	931.4519       	931.53894      	931.6181       	931.52155      	931.41156      	931.404        	931.20764      	931.197        	931.37476      	931.40106      	931.4506       	931.672        	931.49384      	931.63         	931.5407       	931.6312       	931.5498       	931.536        	931.5833       	931.49615      	931.46027      	931.67145      	931.5471       	931.53894      	931.4856       	
931.31946      	931.35944      	931.33795      	931.25183      	931.2294       	931.2858       	931.3457       	931.3549       	931.31024      	931.3209       	931.40485      	931.39075      	931.3137       	931.34436      	931.38617      	931.45386      	931.5003       	931.4737       	931.4276       	931.47015      	931.316        	931.31226      	931.37463      	931.4219       	931.35803      	931.4903       	931.442        	931.36884      	931.3569       	931.4232       	931.407        	931.45306      	931.4347       	931.45044      	931.40173      	931.3334       	931.40686      	931.3522       	931.47034      	931.5639       	931.4499       	931.3715       	931.41113      	931.36725      	931.49255      	931.4397       	931.5267       	931.47687      	931.35095      	931.47595      	931.4987       	931.41125      	931.4609       	931.4284       	931.4198       	931.36145      	931.4186       	931.5157       	931.6762       	931.4947       	931.42163      	931.4537       	931.3131       	931.3616       	931.45996      	931.50684      	931.5149       	931.48083      	931.4728       	931.33093      	931.28705      	931.32336      	931.3126       	931.36206      	931.3548       	931.33997      	931.38306      	931.4599       	931.4417       	931.3316       	931.3115       	931.15344      	931.0431       	931.19037      	931.329        	931.32654      	931.29755      	931.31067      	931.428        	931.4724       	931.458        	931.4228       	931.4687       	931.4519       	931.43677      	931.471        	931.4556       	931.3767       	931.4768       	931.39716      	
931.3851       	931.4799       	931.5608       	931.39703      	931.2497       	931.2963       	931.2982       	931.36676      	931.3406       	931.32556      	931.3437       	931.4264       	931.3196       	931.3353       	931.42773      	931.4527       	931.5724       	931.48364      	931.4682       	931.3448       	931.43945      	931.4641       	931.5068       	931.4861       	931.4893       	931.515        	931.4911       	931.39716      	931.41925      	931.51135      	931.4402       	931.44556      	931.48694      	931.62494      	931.4531       	931.3229       	931.5151       	931.5226       	931.55304      	931.63367      	931.42017      	931.43744      	931.489        	931.4763       	931.50555      	931.4994       	931.5901       	931.518        	931.4553       	931.4708       	931.51434      	931.544        	931.5362       	931.4739       	931.50916      	931.3978       	931.524        	931.6328       	931.6627       	931.55396      	931.51306      	931.55695      	931.46313      	931.37537      	931.5012       	931.5445       	931.5563       	931.601        	931.628        	931.47296      	931.4693       	931.32416      	931.40356      	931.43933      	931.42194      	931.44135      	931.5098       	931.52234      	931.5727       	931.4343       	931.3722       	931.3757       	931.244        	931.2018       	931.3329       	931.3726       	931.4491       	931.4638       	931.53577      	931.5179       	931.48474      	931.49         	931.5265       	931.52026      	931.47595      	931.53784      	931.5813       	931.55725      	931.6423       	931.64575      	
931.5192       	931.7263       	931.8314       	931.62683      	931.477        	931.48254      	931.4713       	931.5686       	931.5487       	931.44586      	931.50415      	931.6033       	931.5106       	931.485        	931.61945      	931.686        	931.69446      	931.73785      	931.597        	931.6396       	931.6564       	931.69324      	931.7553       	931.59735      	931.7123       	931.754        	931.7864       	931.85144      	931.72296      	931.6816       	931.76324      	931.714        	931.6485       	931.8092       	931.7306       	931.61615      	931.7485       	931.80383      	931.75653      	931.8186       	931.60815      	931.59937      	931.6931       	931.78516      	931.6767       	931.6813       	931.6996       	931.74274      	931.6321       	931.6835       	931.65125      	931.6924       	932.02014      	931.8418       	931.7383       	931.7118       	931.6688       	931.8588       	931.87787      	931.68744      	931.7468       	931.7343       	931.732        	931.6888       	931.78815      	931.7472       	931.7721       	931.81805      	931.89026      	931.7835       	931.7349       	931.6412       	931.57715      	931.58453      	931.7002       	931.7439       	931.7774       	931.6721       	931.8087       	931.7494       	931.7295       	931.75543      	931.5553       	931.5331       	931.5646       	931.6406       	931.6733       	931.75555      	931.91644      	931.8648       	931.78674      	931.6991       	931.7939       	931.91534      	931.77673      	931.894        	931.95044      	931.9525       	932.0193       	932.099        	
931.81055      	932.1523       	932.3092       	932.0309       	931.7693       	931.7376       	931.7842       	931.7907       	931.74194      	931.70746      	931.77924      	931.84674      	931.8126       	931.8431       	931.8786       	931.92487      	931.90625      	931.9028       	931.9752       	931.8899       	931.8439       	931.9408       	931.9566       	931.9157       	931.9128       	931.9554       	932.0447       	932.0409       	931.95447      	931.93677      	931.98395      	931.72174      	931.89325      	932.0123       	932.0378       	931.9121       	931.95215      	932.01404      	932.0024       	932.0201       	931.8995       	931.8242       	931.9304       	931.9386       	931.92676      	931.91437      	931.81616      	931.81964      	931.63196      	932.02893      	931.64575      	931.8007       	932.2314       	932.1058       	931.9603       	931.82654      	931.8378       	931.9208       	931.94275      	931.9183       	931.8219       	931.8522       	931.91266      	931.86847      	931.9296       	931.8858       	931.8847       	931.90295      	931.96875      	931.974        	932.05493      	931.85065      	931.8212       	931.67615      	931.7973       	931.9131       	931.87445      	931.8857       	931.8824       	931.92926      	932.0043       	931.89575      	931.7763       	931.70795      	931.6553       	931.7079       	931.79395      	931.94147      	931.9587       	932.04193      	931.8507       	931.72626      	931.8938       	932.0001       	932.03064      	931.977        	931.94653      	932.0004       	932.14557      	932.0932       	
931.84106      	932.13055      	932.3056       	932.0924       	931.78937      	931.83466      	931.8252       	931.74664      	931.62866      	931.6729       	931.7433       	931.7677       	931.75354      	931.8349       	931.8376       	931.8675       	931.8722       	931.887        	931.9439       	931.9265       	931.8406       	931.89087      	931.95465      	931.9642       	931.88934      	931.8786       	931.99023      	932.0027       	931.9309       	931.88293      	931.8904       	932.00934      	931.9372       	931.93555      	931.95825      	931.9261       	931.8472       	931.911        	931.9999       	931.9428       	931.8916       	931.862        	931.87164      	931.9651       	931.9534       	931.9107       	931.8236       	931.76373      	931.8702       	931.8634       	931.82654      	931.9376       	932.0781       	932.06195      	931.9288       	931.82965      	931.8941       	931.89746      	931.96216      	931.8645       	931.7564       	931.8474       	931.8458       	931.8647       	931.8598       	931.6467       	931.51337      	931.8747       	932.03455      	931.98285      	932.0257       	931.8617       	931.7568       	931.651        	931.61664      	931.8522       	931.72974      	931.8334       	931.88776      	931.8855       	931.97064      	931.7818       	931.81256      	931.71344      	931.5725       	931.6335       	931.7245       	931.8269       	931.8867       	931.9156       	931.7614       	931.8256       	931.7948       	931.92444      	931.9898       	931.9644       	931.7558       	932.0138       	932.08435      	932.1214       	
931.96875      	932.2924       	932.5035       	932.2181       	931.9785       	932.0269       	931.9784       	931.92346      	931.7623       	931.8788       	931.9159       	931.9001       	931.934        	931.9496       	931.9872       	932.0234       	932.02313      	932.0094       	932.07196      	932.0924       	932.0673       	932.0367       	932.08844      	932.1322       	932.1117       	932.0613       	932.11755      	932.1078       	932.20416      	932.1741       	932.09247      	932.1381       	932.13226      	932.0805       	932.1557       	932.1464       	932.0813       	932.1114       	932.09766      	932.0768       	932.1402       	932.0242       	932.0775       	932.09076      	932.17377      	932.0709       	932.0051       	932.02795      	932.02203      	932.10034      	932.17773      	932.15656      	932.25085      	932.1858       	932.13995      	932.10156      	932.1009       	932.2183       	932.1378       	932.1          	932.0411       	932.0844       	932.11707      	932.161        	932.12067      	932.0934       	932.05927      	932.0332       	932.2274       	932.36487      	932.33636      	932.1816       	932.12964      	931.98425      	931.9967       	932.09607      	932.05707      	932.0738       	932.2362       	932.265        	932.3008       	932.1999       	932.1864       	932.18744      	931.9779       	932.0081       	932.0971       	932.19037      	932.1846       	932.22534      	932.2079       	932.2092       	932.1901       	932.3536       	932.41785      	932.18677      	932.21674      	932.07654      	932.29517      	932.4085       	
932.4601       	932.79913      	932.9778       	932.7851       	932.5485       	932.60767      	932.56995      	932.4896       	932.3334       	932.3891       	932.4348       	932.3861       	932.502        	932.52734      	932.5945       	932.62115      	932.6097       	932.628        	932.58765      	932.55707      	932.6395       	932.58777      	932.60614      	932.6497       	932.67017      	932.64215      	932.67474      	932.699        	932.71423      	932.7441       	932.7312       	932.6999       	932.6816       	932.63403      	932.66705      	932.7442       	932.72943      	932.6966       	932.6689       	932.70245      	932.6861       	932.6645       	932.6784       	932.74457      	932.6642       	932.58624      	932.6253       	932.621        	932.5925       	932.71185      	932.70966      	932.8564       	932.7543       	932.74774      	932.67523      	932.6976       	932.7139       	932.8077       	932.71844      	932.72253      	932.6598       	932.71484      	932.7398       	932.7362       	932.7767       	932.7893       	932.6687       	932.67346      	932.67395      	933.00195      	933.0242       	932.8584       	932.7677       	932.65173      	932.63696      	932.7828       	932.6913       	932.72156      	932.8222       	932.88306      	932.88684      	932.9114       	932.9195       	932.83167      	932.7235       	932.67505      	932.85004      	932.82367      	932.8411       	932.82074      	932.91113      	932.9138       	932.8057       	932.8451       	932.9947       	933.0284       	933.0111       	932.9075       	932.94293      	933.03394      	
933.0101       	933.3104       	933.54584      	933.37494      	933.0397       	933.2109       	933.3259       	933.11926      	932.9968       	932.9523       	933.0116       	932.92145      	932.97         	933.0206       	933.11237      	933.1481       	933.1063       	933.1251       	933.09375      	933.1788       	933.0597       	933.0827       	933.1721       	933.21484      	933.22656      	933.1566       	933.2066       	933.27246      	933.32056      	933.2545       	933.22076      	933.19836      	933.24866      	933.1373       	933.12634      	933.25903      	933.1682       	932.9046       	932.8927       	933.22504      	933.19086      	933.1361       	933.16473      	933.1648       	933.1207       	933.1267       	933.119        	933.0523       	933.13477      	933.16016      	933.1811       	933.2286       	933.21136      	933.1676       	933.12866      	933.0771       	933.0895       	933.17395      	933.13794      	933.0778       	933.1151       	933.1384       	933.1409       	933.1313       	933.1438       	933.07904      	932.94275      	932.9146       	933.0292       	933.2159       	933.36725      	933.20386      	933.1145       	932.8669       	932.97406      	933.18823      	933.03754      	933.03455      	933.1271       	933.1124       	933.1351       	933.30774      	933.197        	933.15063      	932.95105      	932.9879       	932.98114      	933.06213      	933.1247       	933.17145      	933.1208       	933.13727      	933.0471       	933.0686       	933.1557       	933.2079       	933.323        	933.1755       	933.1962       	933.266        	
932.8472       	933.00287      	933.21265      	933.2094       	932.9222       	932.89233      	932.95184      	932.9434       	932.75494      	932.6846       	932.67065      	932.58734      	932.6567       	932.6088       	932.74835      	932.81537      	932.7584       	932.75934      	932.79785      	932.9026       	932.82605      	932.7923       	932.8991       	932.9213       	932.9212       	932.8819       	932.89325      	932.98645      	932.97003      	932.90906      	932.85187      	932.89105      	932.89703      	932.9111       	932.8051       	932.8649       	932.74426      	932.8206       	932.7796       	932.71295      	932.7808       	932.8531       	932.7474       	932.7268       	932.6727       	932.7843       	932.72266      	932.71063      	932.70386      	932.73175      	932.68567      	932.74603      	932.7282       	932.6856       	932.66223      	932.62103      	932.6732       	932.68713      	932.7006       	932.72107      	932.597        	932.6189       	932.7168       	932.74176      	932.774        	932.6774       	932.52734      	932.39996      	932.5933       	932.7019       	932.8512       	932.88794      	932.6133       	932.3192       	932.7776       	932.57025      	932.6472       	932.6395       	932.6436       	932.6201       	932.748        	932.82227      	932.74896      	932.6684       	932.5358       	932.4612       	932.5437       	932.5897       	932.70087      	932.6918       	932.5284       	932.5108       	932.54663      	932.58844      	932.5636       	932.6378       	932.844        	932.77405      	932.70764      	932.7355       	
932.4177       	932.4616       	932.65265      	932.8762       	932.6236       	932.5254       	932.5635       	932.5173       	932.47565      	932.412        	932.31866      	932.2501       	932.29584      	932.24664      	932.3772       	932.436        	932.41724      	932.4343       	932.3711       	932.4659       	932.44495      	932.4887       	932.4647       	932.49664      	932.49896      	932.4555       	932.49475      	932.4869       	932.5115       	932.43054      	932.4889       	932.47644      	932.531        	932.46747      	932.4032       	932.4297       	932.4184       	932.4397       	932.3686       	932.36975      	932.46844      	932.4435       	932.356        	932.33624      	932.3639       	932.42145      	932.36145      	932.40173      	932.34247      	932.3349       	932.30206      	932.31165      	932.35254      	932.2542       	932.24146      	932.3563       	932.32104      	932.3161       	932.4115       	932.4337       	932.36847      	932.2848       	932.3158       	932.3503       	932.3769       	932.352        	932.19995      	932.13         	932.2867       	932.2706       	932.1485       	932.63275      	932.4783       	932.2907       	932.1518       	932.3129       	932.27606      	932.4394       	932.3616       	932.3312       	932.45514      	932.4767       	932.5257       	932.3816       	932.30237      	932.17474      	932.33167      	932.3788       	932.5293       	932.2587       	932.278        	932.20715      	932.2605       	932.2472       	932.26953      	932.2797       	932.5294       	932.60944      	932.3683       	932.3602       	
932.1969       	932.1736       	932.2794       	932.5007       	932.525        	932.3672       	932.2411       	932.4392       	932.37476      	932.22437      	932.1555       	932.10187      	932.09906      	932.07227      	932.1837       	932.2116       	932.21576      	932.23444      	932.2503       	932.32324      	932.336        	932.3595       	932.0768       	932.4687       	932.2926       	932.28625      	932.329        	932.3017       	932.3155       	932.32446      	932.2706       	932.1781       	932.2516       	932.26965      	932.18396      	932.23395      	932.2288       	932.2743       	932.20355      	932.21185      	932.29816      	932.2687       	932.155        	932.17285      	932.2435       	932.3219       	932.22534      	932.2689       	932.2296       	932.17975      	932.21027      	932.2122       	932.2045       	932.1533       	932.2189       	932.21         	932.1205       	932.24567      	932.2191       	932.2835       	932.1687       	932.138        	932.1341       	932.2395       	932.2183       	932.20807      	932.07434      	932.0801       	932.06555      	932.11615      	932.1651       	932.3302       	932.3485       	932.1559       	932.0781       	931.86426      	932.31683      	932.21967      	932.13837      	932.17975      	932.19073      	932.26654      	932.3214       	932.2599       	932.1722       	932.0652       	932.1169       	932.2063       	932.2948       	932.05145      	932.37665      	932.0027       	932.0271       	932.1102       	931.9698       	932.0797       	932.3424       	932.35425      	932.3544       	932.2667       	
931.9483       	931.8665       	931.8489       	932.0692       	932.21735      	932.19336      	932.0996       	932.094        	932.11847      	931.9381       	931.9326       	931.8906       	931.8239       	931.82477      	931.8297       	931.9133       	931.93726      	931.8736       	931.96204      	931.97656      	932.0078       	932.0049       	931.97864      	931.9662       	932.0487       	931.9895       	932.06146      	931.9976       	931.9776       	932.0162       	931.9368       	931.87506      	931.8228       	931.8725       	931.861        	931.88544      	931.8683       	931.8907       	931.9387       	931.916        	931.971        	931.8235       	931.6998       	931.8057       	931.9262       	931.8226       	931.8692       	931.8181       	931.7939       	931.7699       	931.76984      	931.7945       	931.7452       	931.7841       	931.791        	931.7585       	931.78424      	931.8207       	931.80444      	931.8298       	931.82007      	931.7476       	931.76965      	931.86536      	931.8476       	931.7725       	931.69836      	931.71936      	931.6681       	931.7037       	931.6856       	931.8883       	931.8969       	931.8711       	931.8367       	931.8708       	931.6683       	931.8063       	931.84924      	931.83527      	931.82367      	931.69104      	931.90765      	931.8368       	931.7652       	931.69556      	931.6903       	931.74927      	931.79486      	931.8756       	931.5999       	931.7278       	931.5863       	931.5652       	931.65         	931.65204      	931.80475      	931.9153       	931.9833       	931.8955       	
931.3652       	931.24774      	931.1153       	931.3637       	931.6689       	931.69135      	931.6452       	931.57025      	931.6175       	931.4683       	931.37756      	931.3821       	931.29156      	931.3383       	931.3651       	931.38025      	931.39905      	931.29095      	931.5756       	931.46326      	931.4603       	931.4617       	931.51575      	931.4509       	931.50525      	931.586        	931.52875      	931.5557       	931.5836       	931.5839       	931.5653       	931.4902       	931.4329       	931.44434      	931.4327       	931.49817      	931.4551       	931.5069       	931.5396       	931.49255      	931.4687       	931.37836      	931.4046       	931.44867      	931.4086       	931.3456       	931.41656      	931.414        	931.37476      	931.3136       	931.39185      	931.34375      	931.2852       	931.4431       	931.4018       	931.31323      	931.3391       	931.38226      	931.3128       	931.2545       	931.46326      	931.33844      	931.37244      	931.40753      	931.46185      	931.3297       	931.2536       	931.2435       	931.212        	931.214        	931.2491       	931.2522       	931.3675       	931.51184      	931.52075      	931.4061       	931.36456      	931.256        	931.4128       	931.4363       	931.44507      	931.4488       	931.42         	931.4997       	931.34265      	931.31305      	931.2688       	931.3578       	931.34644      	931.38354      	931.3346       	931.30396      	931.2181       	931.1649       	931.1243       	931.2553       	931.3264       	931.40295      	931.4447       	931.4679       	
930.82104      	930.64484      	930.5329       	930.73914      	930.99927      	931.1301       	931.0854       	931.0745       	931.00793      	930.8992       	930.81934      	930.85767      	930.8572       	930.766        	930.7673       	930.72003      	930.8258       	930.80896      	930.78326      	930.8888       	930.8173       	930.8772       	930.91046      	930.8001       	930.8315       	930.8909       	930.87933      	930.81586      	930.8248       	930.821        	930.81335      	930.74         	930.76245      	930.6465       	930.7706       	930.70844      	930.7262       	930.72296      	930.66547      	930.6739       	930.6475       	930.70465      	930.6697       	930.61554      	930.5434       	930.5648       	930.5474       	930.58453      	930.53503      	930.61816      	930.5646       	930.5199       	930.5211       	930.60864      	930.5508       	930.51135      	930.4584       	930.52563      	930.46185      	930.5222       	930.5678       	930.5768       	930.6422       	930.5606       	930.5898       	930.5727       	930.50165      	930.45465      	930.44         	930.42554      	930.4436       	930.4294       	930.5007       	930.51324      	930.4618       	930.7116       	930.54553      	930.5193       	930.3513       	930.631        	930.4823       	930.46484      	930.5078       	930.5893       	930.4906       	930.4573       	930.38464      	930.35583      	930.4016       	930.515        	930.4449       	930.3324       	930.3253       	930.31476      	930.2822       	930.2382       	930.32574      	930.4521       	930.434        	930.47644      	
930.77747      	930.65405      	930.6114       	930.7051       	930.85065      	930.9696       	931.18915      	931.18274      	931.0056       	930.95844      	930.817        	931.01276      	930.9616       	930.8785       	930.77625      	930.82         	930.76245      	930.8792       	930.8661       	930.86255      	930.90356      	930.9619       	931.0338       	930.93097      	930.94         	930.97156      	930.99097      	930.96704      	930.9782       	930.99554      	930.9972       	930.8487       	930.86414      	930.92804      	930.9776       	930.86316      	930.84576      	930.8333       	930.8448       	930.7512       	930.8137       	930.88586      	930.84094      	930.8276       	930.7403       	930.6757       	930.7237       	930.7545       	930.706        	930.6849       	930.7784       	930.78394      	930.82336      	930.7822       	930.72925      	930.6684       	930.63904      	930.6588       	930.71155      	930.7071       	930.61127      	930.654        	930.8536       	930.7373       	930.7275       	930.7289       	930.5936       	930.6996       	930.6807       	930.5687       	930.5242       	930.6024       	930.6773       	930.71246      	930.6117       	930.93884      	930.82544      	930.8603       	930.66595      	930.7141       	930.6328       	930.6067       	930.7027       	930.76605      	930.7318       	930.68695      	930.6491       	930.58246      	930.57904      	930.71765      	930.7805       	930.6767       	930.5767       	930.70667      	930.6508       	930.57104      	930.54         	930.7024       	930.70764      	930.71277      	
931.4115       	931.3135       	931.186        	931.2935       	931.3687       	931.53296      	931.9486       	931.9693       	931.78406      	931.7539       	931.5894       	931.7285       	931.7848       	931.73145      	931.6722       	931.5608       	931.59705      	931.6915       	931.6926       	931.7627       	931.80304      	931.82135      	931.87604      	931.9339       	931.87396      	931.86365      	931.95074      	932.0111       	931.99304      	931.97394      	932.084        	931.9516       	931.9577       	931.9662       	932.1246       	932.043        	931.9806       	931.94293      	931.9961       	932.036        	932.0356       	932.066        	932.04504      	932.0126       	931.9617       	932.0343       	932.05115      	932.04926      	932.0476       	931.9892       	932.0696       	932.12396      	932.14514      	932.0384       	932.07825      	932.0084       	931.9979       	932.03864      	932.11633      	932.0769       	932.1153       	932.06866      	932.23706      	932.1809       	932.17847      	932.14325      	932.1445       	932.1614       	932.27924      	932.0956       	932.09094      	932.16864      	932.139        	932.2472       	932.23083      	932.1733       	932.20013      	932.22473      	932.39264      	932.27576      	932.1715       	932.1425       	932.3343       	932.291        	932.29205      	932.3077       	932.2858       	932.22925      	932.2372       	932.3189       	932.3789       	932.3238       	932.35803      	932.37054      	932.38635      	932.34924      	932.2367       	932.2999       	932.39716      	932.4222       	
932.8602       	932.76965      	932.63293      	932.74         	932.98425      	932.8861       	933.07983      	933.2867       	933.19464      	933.1246       	933.0152       	932.9016       	933.1239       	933.10034      	932.93317      	932.8047       	932.80994      	932.9215       	932.912        	932.9576       	933.0055       	932.9746       	932.9935       	933.12476      	933.0675       	933.0133       	933.0675       	933.1119       	933.0784       	933.1015       	933.12665      	933.19086      	933.09186      	933.11365      	933.12085      	933.21375      	933.09344      	933.12665      	933.1108       	933.0586       	932.821        	933.135        	933.1641       	933.051        	933.0193       	933.11646      	933.08624      	933.14136      	933.1228       	933.13586      	933.18097      	933.19086      	933.1251       	933.04565      	933.098        	933.0885       	933.09204      	933.1319       	933.12396      	933.08685      	933.0365       	933.1596       	933.19055      	933.2479       	933.17816      	933.1129       	933.2631       	933.30426      	933.22455      	933.2091       	933.17505      	933.25336      	933.15094      	933.2972       	933.17883      	933.3848       	933.5354       	933.36316      	933.4498       	933.30597      	933.30176      	933.2565       	933.3766       	933.3936       	933.38324      	933.33704      	933.51117      	933.30914      	933.30817      	933.1713       	933.4094       	933.385        	933.474        	933.4301       	933.33203      	933.32874      	933.23785      	933.44727      	933.31213      	933.4523       	
932.9938       	932.90857      	932.91125      	933.00574      	933.0465       	933.15375      	933.10004      	933.2279       	933.2363       	933.2281       	933.16296      	933.0449       	933.2978       	933.2819       	933.00494      	932.8883       	932.83203      	932.9449       	932.9156       	932.9464       	933.0216       	933.02216      	932.9528       	933.0945       	933.04565      	932.97766      	932.90485      	933.0648       	932.95703      	933.00586      	933.0624       	933.0332       	932.91016      	932.9521       	932.9717       	932.91315      	932.96674      	932.9394       	932.8671       	932.7338       	932.8207       	932.7718       	932.8329       	932.84766      	932.72876      	932.69934      	932.8572       	932.87067      	932.8434       	932.79724      	932.8282       	932.8454       	932.77356      	932.8185       	932.7813       	932.84863      	932.75287      	932.7897       	932.70435      	932.7393       	932.7045       	932.7187       	932.82715      	932.8124       	932.8633       	932.5696       	932.63745      	932.745        	932.7587       	932.7943       	932.6438       	932.7614       	932.5444       	932.7606       	932.8295       	932.94714      	932.77576      	932.83         	932.95013      	932.7073       	932.8181       	932.80054      	932.7461       	932.7618       	932.8373       	932.88086      	932.8832       	932.7712       	932.6935       	932.58167      	932.75073      	932.70306      	932.8466       	932.8359       	932.73114      	932.6775       	932.62805      	932.66626      	932.67786      	932.72394      	
932.29816      	932.3024       	932.33984      	932.3969       	932.3142       	932.2891       	932.40955      	932.4706       	932.5347       	932.55664      	932.6078       	932.5118       	932.70013      	932.5813       	932.4212       	932.302        	932.2223       	932.20374      	932.2432       	932.32495      	932.44434      	932.35504      	932.3327       	932.4384       	932.4869       	932.3867       	932.38995      	932.3773       	932.3866       	932.37555      	932.49054      	932.43774      	932.419        	932.4111       	932.36615      	932.4004       	932.3653       	932.43286      	932.3896       	932.2301       	932.23267      	932.2615       	932.2981       	932.2023       	932.2821       	932.0867       	932.19464      	932.46124      	932.2513       	932.2472       	932.2438       	932.2706       	932.2716       	932.236        	932.28253      	932.33386      	932.2512       	932.24097      	932.29297      	932.28         	932.2851       	932.3415       	932.37366      	932.2644       	932.3419       	932.1797       	932.2563       	932.37463      	932.32776      	932.3943       	932.20776      	932.307        	932.32587      	932.34705      	932.37585      	932.37445      	932.30347      	932.43835      	932.4641       	932.3302       	932.40875      	932.36206      	932.31384      	932.3871       	932.37787      	932.3676       	932.4135       	932.3378       	932.2594       	932.27826      	932.38086      	932.38715      	932.34875      	932.43066      	932.30115      	932.3057       	932.2718       	932.2429       	932.19556      	932.5061       	
932.2605       	932.3517       	932.3993       	932.3064       	932.2267       	932.1212       	932.3569       	932.4151       	932.36786      	932.50195      	932.277        	932.8352       	932.66223      	932.50616      	932.48706      	932.3279       	932.24634      	932.1093       	932.22015      	932.303        	932.4153       	932.3408       	932.34894      	932.41766      	932.45105      	932.3877       	932.38635      	932.3065       	932.3967       	932.4159       	932.3868       	932.41156      	932.4125       	932.3386       	932.36163      	932.37134      	932.50287      	932.4154       	932.3344       	932.3714       	932.1493       	932.292        	932.40906      	932.22955      	932.3955       	932.24274      	932.35504      	932.3282       	932.2501       	932.19275      	932.23914      	932.31213      	932.3203       	932.28766      	932.32355      	932.36847      	932.3307       	932.3552       	932.37787      	932.3912       	932.42706      	932.2069       	932.2575       	932.1609       	932.1061       	932.1331       	932.1824       	932.2409       	932.2734       	932.3673       	932.2992       	932.2787       	932.1091       	932.2536       	932.2115       	932.4573       	932.194        	932.292        	932.60095      	932.4094       	932.4404       	932.3733       	932.30963      	932.3565       	932.4306       	932.44934      	932.3847       	932.34344      	932.3262       	932.2542       	932.3855       	932.3976       	932.34265      	932.39874      	932.2856       	932.30945      	932.30896      	932.19324      	932.29425      	932.3993       	
932.0299       	932.06226      	932.09106      	931.972        	931.8708       	932.08044      	932.09827      	932.06616      	932.09406      	932.1417       	932.2838       	932.4094       	932.35645      	932.26666      	932.172        	932.165        	931.9593       	931.79407      	931.80035      	931.92126      	932.0216       	932.00555      	931.98535      	932.0316       	931.9985       	932.0858       	932.0395       	932.0438       	932.0282       	932.0264       	932.00073      	932.05444      	932.06024      	931.9807       	931.91614      	932.00696      	932.04407      	931.72546      	931.8844       	931.8774       	931.90955      	931.8344       	931.9147       	931.9594       	931.8969       	931.9435       	931.8891       	931.8642       	931.8792       	931.8139       	931.83746      	931.8978       	931.839        	931.9102       	931.92413      	931.9726       	931.99036      	931.9491       	932.0263       	931.6427       	931.6986       	931.86426      	931.85913      	931.72626      	931.73303      	931.80414      	931.74695      	932.1005       	931.9654       	931.8938       	931.7883       	931.91187      	931.82825      	931.8803       	931.7715       	931.7754       	931.8679       	931.79675      	931.8834       	932.02966      	931.89197      	931.83276      	931.8906       	931.8889       	931.87317      	931.8883       	931.8607       	931.8231       	931.7386       	931.7835       	931.78516      	931.85         	931.84436      	931.8682       	931.8105       	931.712        	931.7133       	931.6692       	931.764        	931.9317       	
931.30774      	931.3602       	931.3756       	931.2758       	931.28876      	931.2729       	931.17114      	931.30756      	931.35895      	931.37494      	931.51337      	931.737        	931.68304      	931.5258       	931.4102       	931.489        	931.32574      	931.1263       	931.11145      	931.2395       	931.20776      	931.2712       	931.32544      	931.2742       	931.3202       	931.34094      	931.3204       	931.29266      	931.2897       	931.3448       	931.38043      	931.3457       	931.33246      	931.2555       	931.24304      	931.2634       	931.12634      	931.04675      	930.90735      	931.2399       	931.16833      	931.17017      	931.22955      	931.2237       	931.2421       	931.21594      	931.1593       	931.1768       	931.2367       	931.186        	931.2194       	931.21106      	931.15497      	931.2101       	931.2374       	931.2858       	931.2763       	931.35156      	931.2847       	931.02234      	931.16986      	931.1771       	930.9968       	931.0141       	930.9801       	931.16315      	931.564        	931.276        	931.2488       	931.20984      	931.00006      	931.14075      	931.13293      	931.0676       	931.07025      	931.23785      	931.12787      	931.0657       	931.40265      	931.34827      	931.2782       	930.9242       	931.44635      	931.27985      	931.2984       	931.24286      	931.30383      	931.22614      	931.2216       	931.1067       	931.1191       	931.26624      	931.29895      	931.20337      	931.17834      	931.19684      	931.0983       	931.1518       	931.2274       	931.1852       	
931.1136       	931.1524       	931.2779       	931.2861       	931.1075       	931.03345      	931.0543       	931.0589       	931.2224       	931.2545       	931.3343       	931.4768       	931.44617      	931.3975       	931.37964      	931.3329       	931.3468       	931.07007      	930.99207      	931.01373      	931.032        	931.1104       	931.12836      	931.1632       	931.19727      	931.2529       	931.1752       	931.14026      	931.1351       	931.2803       	931.2911       	931.3011       	931.23303      	931.1377       	931.1742       	931.17633      	930.94116      	930.86694      	931.3342       	931.10736      	931.08606      	931.1018       	931.1485       	931.1993       	931.1861       	931.21375      	931.13434      	931.15924      	931.1567       	931.11786      	931.1915       	931.2023       	931.15485      	931.22         	931.183        	931.1982       	931.255        	931.32916      	931.17975      	930.86584      	931.0087       	931.35547      	930.9973       	930.97473      	930.9607       	931.44934      	931.3456       	931.33844      	931.2522       	931.1889       	931.20715      	931.29395      	931.2132       	931.0709       	931.24744      	931.23676      	931.25903      	931.2242       	931.2481       	931.2844       	931.39417      	931.3548       	931.2558       	931.2471       	931.349        	931.28253      	931.4008       	931.30457      	931.2816       	931.15497      	931.28485      	931.3916       	931.3428       	931.3139       	931.24084      	931.30634      	931.27527      	931.2792       	931.2441       	931.223        	
931.316        	931.41516      	931.4681       	931.35754      	931.24084      	931.1808       	931.20856      	931.2966       	931.4042       	931.413        	931.4605       	931.6107       	931.63806      	931.5927       	931.6122       	931.5846       	931.6969       	931.5035       	931.27997      	931.17993      	931.2675       	931.29596      	931.31616      	931.3089       	931.4722       	931.4632       	931.4346       	931.32446      	931.4454       	931.5163       	931.4978       	931.5014       	931.46765      	931.42944      	931.41516      	931.4577       	931.4677       	931.4453       	931.4089       	931.41156      	931.3412       	931.37964      	931.4102       	931.5167       	931.44116      	931.43524      	931.34406      	931.4166       	931.48395      	931.48895      	931.4327       	931.4665       	931.5111       	931.473        	931.4215       	931.5128       	931.5154       	931.554        	931.47687      	931.5852       	931.6097       	931.5606       	931.54614      	931.61237      	931.51373      	931.6156       	931.55536      	931.6554       	931.5957       	931.21356      	931.61725      	931.588        	931.6376       	931.62024      	931.5101       	931.6386       	931.52277      	931.60815      	931.53406      	931.63257      	931.72864      	931.72406      	931.6035       	931.6105       	931.61694      	931.62         	931.663        	931.71515      	931.63586      	931.62463      	931.6745       	931.6615       	931.6063       	931.66614      	931.6306       	931.6465       	931.6852       	931.64124      	931.5813       	931.6419       	
931.9413       	932.025        	932.0344       	931.8782       	931.7994       	931.899        	931.7564       	931.93365      	931.95953      	931.9929       	932.09674      	932.0769       	932.2219       	932.1913       	932.1839       	932.1976       	932.3209       	932.14264      	931.94104      	931.7764       	931.7781       	931.80835      	931.7899       	931.92773      	931.9781       	931.9258       	931.97784      	931.92444      	931.9769       	932.0604       	932.0595       	932.05835      	931.9567       	932.03937      	932.0048       	931.95984      	931.9876       	931.9811       	931.95056      	931.9855       	931.95306      	931.95734      	931.96735      	932.03345      	932.06067      	932.00574      	931.92163      	931.99585      	932.0315       	932.0257       	932.00226      	932.0622       	932.0726       	931.96594      	931.9609       	932.0336       	932.1522       	932.2045       	932.0779       	932.15594      	932.1907       	932.13776      	932.22485      	932.2171       	932.0419       	931.9782       	931.97455      	932.03394      	931.8231       	932.06714      	932.046        	932.1742       	932.0421       	932.1057       	932.192        	932.3041       	932.14386      	931.9195       	931.94196      	932.0378       	932.0626       	931.986        	932.2055       	932.1722       	932.0681       	932.0176       	932.08325      	932.2317       	932.1644       	932.142        	932.1335       	932.11206      	932.0876       	932.14856      	932.1666       	932.0776       	932.1194       	932.12463      	932.02704      	932.1597       	
932.2714       	932.2721       	932.23315      	932.18744      	932.3037       	932.2094       	932.2523       	932.13367      	932.31384      	932.3808       	932.5187       	932.4755       	932.4267       	932.50885      	932.53876      	932.5862       	932.63776      	932.4382       	932.37537      	932.2522       	932.1755       	932.1233       	932.03345      	932.14264      	932.1999       	932.2337       	932.3047       	932.2826       	932.32104      	932.331        	932.3687       	932.3751       	932.32654      	932.3276       	932.3281       	932.1803       	932.22046      	932.2532       	932.233        	932.3795       	932.3766       	932.2764       	932.278        	932.3113       	932.4065       	932.3717       	932.22546      	932.2328       	932.3354       	932.3517       	932.26044      	932.27625      	932.3185       	932.22595      	932.37494      	932.43274      	932.40826      	932.4076       	932.43756      	932.4358       	932.37964      	932.37885      	932.3588       	932.30554      	932.26855      	932.22205      	932.24713      	932.293        	932.2528       	932.29285      	932.3762       	932.5102       	932.45074      	932.3367       	932.50757      	932.5553       	932.3779       	932.22894      	932.38727      	932.3995       	932.3505       	932.16406      	932.4576       	932.5844       	932.23724      	932.06903      	932.1986       	932.41675      	932.3204       	932.43494      	932.33014      	932.34216      	932.3809       	932.4018       	932.29785      	932.28503      	932.3065       	932.2128       	932.33075      	932.40497      	
932.3816       	932.33295      	932.31055      	932.3892       	932.485        	932.3738       	932.3587       	932.4381       	932.3047       	932.4304       	932.57086      	932.6924       	932.5505       	932.4775       	932.5915       	932.69995      	932.7129       	932.63873      	932.4752       	932.54425      	932.37006      	932.22003      	932.0924       	932.1413       	932.2432       	932.3717       	932.43665      	932.443        	932.3902       	932.31256      	932.4463       	932.4958       	932.38806      	932.38354      	932.32587      	932.1998       	932.39124      	932.4127       	932.4233       	932.324        	932.244        	932.4501       	932.43066      	932.44         	932.5173       	932.42084      	932.4085       	932.4058       	932.33325      	932.22406      	932.471        	932.3472       	932.3729       	932.4068       	932.4728       	932.4996       	932.626        	932.69965      	932.7406       	932.68427      	932.4979       	932.30023      	932.2165       	932.264        	932.28687      	932.22363      	932.3149       	932.36523      	932.34875      	932.3606       	932.4716       	932.50653      	932.57745      	932.5317       	932.5485       	932.61554      	932.6348       	932.4142       	932.4902       	932.4928       	932.5121       	932.3056       	932.4467       	932.5729       	932.3059       	932.3037       	932.49274      	932.2811       	932.32605      	932.4343       	932.569        	932.4284       	932.49896      	932.545        	932.45825      	932.44305      	932.4291       	932.3059       	932.36725      	932.46344      	
932.48737      	932.4561       	932.4495       	932.5065       	932.46094      	932.6387       	932.6217       	932.42474      	932.39935      	932.40784      	932.6891       	932.7787       	932.5753       	932.6456       	932.6861       	932.7777       	932.787        	932.7618       	932.71234      	932.6367       	932.52356      	932.3741       	932.32214      	932.26276      	932.33496      	932.45514      	932.5437       	932.54175      	932.51465      	932.51105      	932.54486      	932.5919       	932.5904       	932.49176      	932.2927       	932.4558       	932.5261       	932.5153       	932.53784      	932.5886       	932.5257       	932.4605       	932.5098       	932.5524       	932.5688       	932.54065      	932.51953      	932.5264       	932.5229       	932.56506      	932.49567      	932.4831       	932.518        	932.5837       	932.69525      	932.8484       	932.79956      	932.79095      	932.7977       	932.69696      	932.5639       	932.4893       	932.33307      	932.29974      	932.4304       	932.4674       	932.47766      	932.39417      	932.4688       	932.4648       	932.50336      	932.6116       	932.7153       	932.66864      	932.7553       	932.6722       	932.3479       	932.6462       	932.6573       	932.4232       	932.48016      	932.60944      	932.6654       	932.50726      	932.78394      	932.2906       	932.60223      	932.527        	932.61304      	932.6732       	932.643        	932.51886      	932.58984      	932.61786      	932.6352       	932.65137      	932.6059       	932.40765      	932.4677       	932.5606       	
932.49567      	932.4645       	932.41785      	932.5116       	932.61945      	932.61584      	932.58777      	932.4073       	932.23596      	932.41144      	932.5987       	932.6591       	932.5504       	932.62823      	932.65045      	932.6532       	932.7523       	932.66907      	932.6231       	932.65326      	932.4703       	932.44275      	932.3214       	932.2814       	932.26044      	932.2944       	932.3726       	932.4221       	932.3726       	932.4688       	932.5583       	932.3436       	932.29565      	932.3164       	932.5092       	932.4534       	932.53815      	932.50946      	932.557        	932.54694      	932.5943       	932.57806      	932.4856       	932.5226       	932.4593       	932.47266      	932.5385       	932.4987       	932.4799       	932.455        	932.4922       	932.41266      	932.5004       	932.7282       	932.8057       	932.6042       	932.7149       	932.64233      	932.6075       	932.4492       	932.2562       	932.37787      	932.328        	932.28125      	932.41284      	932.3471       	932.25964      	932.2458       	932.2282       	932.28864      	932.36285      	932.37823      	932.4314       	932.6247       	932.3858       	932.5585       	932.5024       	932.4327       	932.4457       	932.5106       	932.6025       	932.4727       	932.5393       	932.43463      	932.5716       	932.51355      	932.3894       	932.3998       	932.5341       	932.5245       	932.57587      	932.4958       	932.4542       	932.47784      	932.5589       	932.5598       	932.5075       	932.3565       	932.3575       	932.3961       	
932.40753      	932.4438       	932.3613       	932.3602       	932.49567      	932.5091       	932.4346       	932.32715      	932.143        	932.36584      	932.5087       	932.4973       	932.4173       	932.44104      	932.5364       	932.5603       	932.6132       	932.651        	932.5585       	932.46747      	932.34106      	932.3074       	932.28156      	932.1306       	932.1278       	932.1659       	932.1981       	932.2602       	932.26404      	932.3372       	932.36664      	932.27045      	932.3712       	932.36145      	932.2909       	932.2774       	932.373        	932.32544      	932.40265      	932.3931       	932.4581       	932.34656      	932.30145      	932.3266       	932.2887       	932.289        	932.3825       	932.3457       	932.293        	932.2852       	932.3799       	932.4306       	932.5638       	932.6673       	932.60144      	932.6173       	932.4274       	932.1522       	932.24695      	932.19244      	932.1171       	932.1749       	932.1973       	932.0492       	932.1178       	932.0784       	931.90955      	931.9898       	931.8897       	932.0433       	932.0645       	932.16364      	932.38403      	932.35266      	932.44183      	932.46814      	932.45856      	932.29565      	932.38275      	932.35425      	932.40375      	932.3779       	932.3743       	932.3694       	932.4061       	932.333        	932.45795      	932.47406      	932.4228       	932.3714       	932.19556      	932.2359       	932.54175      	932.45984      	932.52637      	932.53723      	932.4879       	932.3489       	932.3611       	932.3803       	
932.3502       	932.3189       	932.2944       	932.3264       	932.4082       	932.419        	932.4968       	932.39087      	932.29614      	932.3983       	932.43134      	932.22644      	932.2773       	932.3671       	932.4522       	932.44214      	932.545        	932.66266      	932.5598       	932.4226       	932.3281       	932.26715      	932.1995       	932.2092       	932.1813       	932.2203       	932.172        	932.11316      	932.2384       	932.30493      	932.2819       	932.3406       	932.31683      	932.3152       	932.2937       	932.31824      	932.32526      	932.3651       	932.31793      	932.3517       	932.4505       	932.44965      	932.3571       	932.33606      	932.37555      	932.12024      	932.2372       	932.2008       	932.18427      	932.3722       	932.42664      	932.6042       	932.5847       	932.67975      	932.5358       	932.32416      	932.27045      	932.2718       	932.3624       	932.26044      	932.2592       	932.28705      	932.2412       	931.88745      	932.1845       	932.139        	931.8849       	932.0085       	931.95215      	932.19525      	932.1143       	932.1235       	932.3298       	932.32025      	932.4548       	932.35895      	932.4142       	932.3144       	932.2932       	932.316        	932.36646      	932.3665       	932.2501       	932.3362       	932.43823      	932.347        	932.28705      	932.4141       	932.40985      	931.94635      	932.1596       	932.1673       	932.4193       	932.4014       	932.34406      	932.40344      	932.43195      	932.3105       	932.2122       	932.3021       	
932.32263      	932.29285      	932.25867      	932.3018       	932.4054       	932.42084      	932.4758       	932.41254      	932.44275      	932.4193       	932.2558       	932.0996       	932.10187      	932.36383      	932.4495       	932.4971       	932.51953      	932.6204       	932.59503      	932.4159       	932.26794      	932.2382       	932.2538       	932.17114      	932.28296      	932.2028       	932.07385      	932.08606      	932.19666      	932.31824      	932.3224       	932.26245      	932.2673       	932.3353       	932.2735       	932.30695      	932.3446       	932.3669       	932.3461       	932.3451       	932.39886      	932.36774      	932.3402       	932.31775      	932.43677      	932.21185      	932.1319       	932.2747       	932.3155       	932.3971       	932.35114      	932.50745      	932.62994      	932.53784      	932.47107      	932.0579       	932.2291       	932.21497      	932.0782       	932.456        	932.3854       	932.1152       	932.14386      	932.0522       	932.1974       	932.02637      	932.0077       	932.02454      	932.05774      	932.06586      	931.9085       	932.0972       	932.13336      	932.43274      	932.3565       	932.4247       	932.3761       	932.2734       	932.3754       	932.2423       	932.3822       	932.3599       	932.2357       	932.3355       	932.4542       	932.25165      	932.3277       	932.22626      	932.33484      	932.1728       	932.38025      	932.44666      	932.26636      	932.4722       	932.3376       	932.3907       	932.50226      	932.40125      	932.33704      	932.30457      	
932.4031       	932.4098       	932.42285      	932.4325       	932.4167       	932.431        	932.4667       	932.496        	932.44507      	932.4007       	932.29297      	932.0798       	932.222        	932.4752       	932.4854       	932.5218       	932.64996      	932.57434      	932.7116       	932.4933       	932.3463       	932.28613      	932.3124       	932.35736      	932.36536      	932.2274       	931.995        	932.13446      	932.3087       	932.35486      	932.35004      	932.25134      	932.33307      	932.3923       	932.344        	932.43195      	932.39545      	932.3819       	932.4806       	932.3774       	932.39514      	932.40265      	932.3954       	932.44275      	932.40784      	932.4033       	932.3568       	932.37933      	932.4231       	932.4876       	932.3749       	932.62366      	932.5021       	932.38367      	932.35266      	932.54047      	932.20605      	932.37134      	932.5084       	932.2883       	932.3858       	932.3119       	932.1392       	932.1911       	932.1953       	931.75824      	931.84875      	932.0847       	932.08746      	931.9932       	932.03253      	932.23834      	932.2946       	932.3402       	932.4046       	932.43         	932.35486      	932.339        	932.4232       	932.43854      	932.4649       	932.3927       	932.2436       	932.3319       	932.4353       	932.36163      	932.29517      	932.27576      	932.24426      	932.2758       	932.3611       	932.4823       	932.3904       	932.36743      	932.49774      	932.44653      	932.50256      	932.47815      	932.39935      	932.38354      	
932.44104      	932.43445      	932.47437      	932.5162       	932.54846      	932.5143       	932.3861       	932.4055       	932.43195      	932.3184       	932.2123       	932.19196      	932.2884       	932.4984       	932.443        	932.5254       	932.64264      	932.60144      	932.6146       	932.5104       	932.392        	932.2512       	932.405        	932.4531       	932.5766       	932.2621       	932.05145      	932.0593       	932.2454       	932.33563      	932.337        	932.2755       	932.3194       	932.3818       	932.36285      	932.4189       	932.388        	932.46545      	932.4684       	932.3482       	932.35974      	932.39606      	932.44995      	932.46136      	932.49146      	932.2184       	932.3922       	932.46454      	932.21344      	932.34644      	932.3445       	932.4798       	932.6494       	932.52484      	932.4729       	932.5651       	932.4923       	932.51587      	932.4762       	932.43756      	932.35187      	932.3718       	932.2192       	932.2063       	932.0165       	931.9813       	931.9004       	931.9224       	932.0738       	932.17         	932.2517       	932.28864      	932.2743       	932.462        	932.4615       	932.4938       	932.33746      	932.41437      	932.5143       	932.4902       	932.5969       	932.185        	932.3146       	932.53577      	932.44867      	932.49054      	932.30444      	932.2543       	932.4326       	932.3815       	932.4835       	932.4735       	932.4789       	932.4235       	932.4209       	932.5642       	932.5649       	932.5323       	932.46185      	932.42834      	
932.5323       	932.546        	932.6064       	932.6875       	932.6913       	932.7156       	932.5058       	932.43884      	932.5074       	932.469        	932.4503       	932.4658       	932.53265      	932.62146      	932.63873      	932.69525      	932.7527       	932.7249       	932.63025      	932.71063      	932.55725      	932.4695       	932.57367      	932.57965      	932.6586       	932.5328       	932.2611       	932.2884       	932.3233       	932.4482       	932.49243      	932.5048       	932.50287      	932.6162       	932.64154      	932.5406       	932.5398       	932.6223       	932.6283       	932.48926      	932.5524       	932.49255      	932.5165       	932.79987      	932.7197       	932.6237       	932.40326      	932.5136       	932.5251       	932.3614       	932.4274       	932.6085       	932.76086      	932.72003      	932.7133       	932.8623       	932.8136       	932.68494      	932.66364      	932.55334      	932.5476       	932.58484      	932.53876      	932.42993      	932.574        	932.22504      	932.0667       	932.18567      	932.22943      	932.4759       	932.60657      	932.6479       	932.6516       	932.666        	932.5915       	932.61395      	932.5743       	932.63806      	932.67175      	932.67224      	932.6896       	932.6643       	932.5932       	932.7276       	932.72864      	932.6492       	932.5764       	932.5477       	932.5564       	932.6985       	932.66345      	932.62054      	932.6742       	932.75885      	932.75073      	932.80206      	932.72375      	932.7944       	932.6503       	932.74646      	
932.88275      	932.9164       	932.9874       	932.9792       	932.8506       	933.0263       	932.86554      	932.86304      	932.7904       	932.76556      	932.8376       	932.83795      	932.95844      	932.9225       	932.90424      	932.9958       	932.98535      	933.1353       	932.9014       	932.89105      	932.9391       	932.93365      	932.8866       	932.99615      	932.97235      	932.9696       	932.71063      	932.6848       	932.6693       	932.7416       	932.8568       	932.9197       	932.8672       	932.9864       	932.9997       	932.9221       	932.9887       	933.032        	932.9964       	932.9516       	932.99445      	932.972        	932.9954       	932.9989       	933.05237      	933.1031       	932.87836      	932.87915      	932.90857      	932.9657       	933.1446       	933.09674      	933.0105       	933.24036      	933.26294      	933.31476      	933.0929       	932.9114       	932.9379       	932.8975       	933.1254       	933.01         	932.87317      	932.88354      	932.7986       	932.5431       	932.4831       	932.58         	932.51227      	932.9209       	932.9541       	933.1034       	932.85583      	933.2101       	933.01794      	933.03864      	933.00366      	933.10706      	932.9964       	932.97156      	932.98254      	933.03015      	932.983        	933.0323       	933.0095       	933.11145      	932.9825       	933.0052       	932.91656      	933.09753      	932.99255      	932.838        	933.0286       	933.0746       	933.15845      	933.13904      	933.0984       	933.0622       	932.9259       	932.9883       	
933.236        	933.2805       	933.38635      	933.4308       	933.28394      	933.25476      	933.2172       	933.23535      	933.12823      	933.1064       	933.18945      	933.2429       	933.23157      	933.2533       	933.30896      	933.3314       	933.4835       	933.39136      	933.25934      	933.16656      	933.24445      	933.2719       	933.3319       	933.4195       	933.4124       	933.3105       	933.1355       	933.1267       	933.08307      	933.03705      	933.22754      	933.2497       	933.2299       	933.2817       	933.3242       	933.17676      	933.35144      	933.3933       	933.35364      	933.3447       	933.3613       	933.29974      	933.37524      	933.3173       	933.20056      	933.5315       	933.46967      	933.236        	933.2896       	933.28516      	933.3469       	933.4615       	933.4555       	933.5265       	933.6759       	933.56976      	933.3097       	933.4407       	933.3895       	933.4605       	933.37524      	933.26685      	932.9841       	933.1573       	933.1005       	932.76917      	932.843        	932.833        	932.9561       	933.34906      	933.2828       	933.42194      	933.4015       	933.47406      	933.3268       	933.48425      	933.40234      	933.49207      	933.3573       	933.2472       	933.3255       	933.38684      	933.3751       	933.223        	933.4937       	933.352        	933.207        	933.5477       	933.3382       	933.42706      	933.35974      	933.34283      	933.3624       	933.33685      	933.51953      	933.488        	933.5547       	933.4015       	933.4649       	933.5488       	
933.51697      	933.45825      	933.54486      	933.6875       	933.6442       	933.5255       	933.583        	933.5742       	933.50525      	933.3856       	933.4093       	933.4694       	933.5342       	933.49084      	933.536        	933.54596      	933.5974       	933.5905       	933.48535      	933.4718       	933.4428       	933.4928       	933.5622       	933.7197       	933.76624      	933.63727      	933.5597       	933.3907       	933.28546      	933.2308       	933.44885      	933.43787      	933.4475       	933.54266      	933.4571       	933.415        	933.5177       	933.6404       	933.6074       	933.6558       	933.6979       	933.5577       	933.53577      	933.5244       	933.4438       	933.67194      	933.56274      	933.3649       	933.4174       	933.35187      	933.42035      	933.71155      	933.7778       	933.7322       	933.75964      	933.8676       	933.76843      	933.75415      	933.7608       	933.71094      	933.6557       	933.4359       	933.23773      	933.24084      	933.1806       	933.01044      	932.9849       	933.0635       	933.19434      	933.32935      	933.52374      	933.4399       	933.72076      	933.65814      	933.62537      	933.64056      	933.6112       	933.65125      	933.5637       	933.5108       	933.54926      	933.6726       	933.66504      	933.53644      	933.47906      	933.57983      	933.3645       	933.83307      	933.5638       	933.5353       	933.5409       	933.54913      	933.56903      	933.5058       	933.57513      	933.504        	933.7569       	933.5836       	933.5762       	933.6056       	
933.59534      	933.5195       	933.57294      	933.7237       	933.7711       	933.71155      	933.6889       	933.6797       	933.5014       	933.4489       	933.4481       	933.4674       	933.5188       	933.6217       	933.49084      	933.5798       	933.673        	933.5247       	933.6429       	933.5442       	933.4701       	933.49255      	933.5919       	933.8026       	933.8432       	933.7338       	933.67053      	933.4407       	933.2585       	933.20447      	933.4339       	933.43695      	933.47784      	933.4815       	933.46185      	933.4477       	933.54974      	933.63385      	933.6005       	933.5652       	933.61566      	933.5351       	933.5169       	933.5105       	933.5343       	933.5873       	933.6041       	933.41016      	933.39905      	933.6112       	933.439        	933.4854       	933.5739       	933.59467      	933.62555      	933.66345      	933.8147       	933.76526      	933.69934      	933.72925      	933.4923       	933.30176      	933.12994      	933.0612       	933.18756      	932.9707       	932.9469       	932.98773      	933.21515      	933.2699       	933.37836      	933.70416      	933.52386      	933.5765       	933.602        	933.629        	933.56354      	933.585        	933.52386      	933.53217      	933.4784       	933.57806      	933.5611       	933.5731       	933.4919       	933.38574      	933.38055      	933.6523       	933.53015      	933.50757      	933.4765       	933.497        	933.5138       	933.4005       	933.4586       	933.5238       	933.59106      	933.4688       	933.4145       	933.4329       	
933.5604       	933.4616       	933.41296      	933.5316       	933.7592       	933.7471       	933.59955      	933.5741       	933.49176      	933.47394      	933.4294       	933.3945       	933.50586      	933.4931       	933.55334      	933.56995      	933.67883      	933.58105      	933.5761       	933.6162       	933.53577      	933.5105       	933.60016      	933.7471       	933.79565      	933.68677      	933.6224       	933.44763      	933.2839       	933.20764      	933.38635      	933.3835       	933.36884      	933.32416      	933.4447       	933.49945      	933.5599       	933.6373       	933.58844      	933.5611       	933.60223      	933.6168       	933.4812       	933.53546      	933.5879       	933.6298       	933.56146      	933.52515      	933.4778       	933.5445       	933.35345      	933.4086       	933.42865      	933.449        	933.3741       	933.52905      	933.8478       	933.589        	933.68494      	933.64386      	933.27954      	933.13855      	933.14716      	933.2073       	933.111        	933.13763      	933.077        	933.06506      	933.176        	933.28754      	933.5176       	933.6109       	933.5742       	933.5665       	933.544        	933.6299       	933.6137       	933.6009       	933.474        	933.528        	933.5069       	933.4743       	933.55176      	933.52277      	933.53754      	933.44885      	933.4225       	933.6895       	933.5879       	933.5335       	933.459        	933.58356      	933.52576      	933.44556      	933.4869       	933.56586      	933.6029       	933.5437       	933.47516      	933.3966       	
933.65466      	933.596        	933.5527       	933.6855       	933.86285      	933.83954      	933.6335       	933.5836       	933.5007       	933.5719       	933.6602       	933.6045       	933.5217       	933.53253      	933.6383       	933.7341       	933.8265       	933.7073       	933.57996      	933.8711       	933.82385      	933.7403       	933.8463       	933.9679       	933.9987       	933.872        	933.8131       	933.66797      	933.4939       	933.5015       	933.5968       	933.559        	933.6025       	933.5642       	933.66754      	933.7234       	933.75104      	933.8264       	933.83716      	933.8388       	933.8912       	933.76556      	933.74164      	933.8163       	933.9073       	933.7313       	933.95123      	933.6061       	933.6999       	933.63586      	933.7041       	933.6364       	933.66785      	933.65326      	933.60516      	933.66797      	933.9916       	934.2691       	934.1181       	933.80914      	933.76624      	933.5522       	933.33685      	933.57104      	933.4801       	933.37274      	933.4506       	933.5004       	933.6481       	933.78265      	933.7839       	933.83325      	933.9028       	933.92773      	933.9779       	933.9766       	933.9643       	933.9591       	933.80664      	933.8298       	933.79694      	933.8909       	933.9498       	933.83246      	933.92645      	933.85803      	933.8995       	933.97986      	933.92633      	933.96875      	933.7872       	933.9426       	933.9452       	933.9107       	933.9067       	933.985        	933.86273      	933.94293      	933.82874      	933.74835      	
934.16534      	934.11707      	934.121        	934.2198       	934.4221       	934.2387       	934.10004      	933.92175      	933.93463      	934.19995      	934.1231       	933.99664      	934.0181       	933.9861       	934.09045      	934.16864      	934.1596       	934.15466      	934.1314       	934.2532       	934.3125       	934.27405      	934.2352       	934.25696      	934.30914      	934.20715      	934.212        	934.16315      	934.039        	934.0716       	934.0216       	934.07916      	934.03644      	934.0758       	934.1397       	934.1051       	934.1508       	934.1641       	934.24316      	934.2732       	934.21356      	934.20026      	934.17676      	934.2948       	934.293        	934.0241       	934.0927       	934.2056       	934.0025       	934.09534      	934.03015      	933.92804      	934.19305      	934.13965      	934.1055       	934.137        	934.111        	934.498        	934.4151       	934.10376      	933.9235       	933.7301       	933.77454      	933.78284      	933.56866      	933.64545      	933.63275      	933.86224      	933.9384       	934.1488       	934.0417       	934.17896      	934.1876       	934.15735      	934.1915       	934.15906      	934.0976       	934.1513       	934.0692       	933.9831       	933.96674      	933.9886       	934.0836       	934.1365       	934.0491       	934.1005       	934.1132       	933.97046      	934.00476      	934.0717       	933.90454      	934.0625       	934.05536      	934.1809       	934.113        	934.14844      	933.9863       	934.2065       	934.025        	933.915        	
933.46643      	933.44635      	933.4271       	933.5688       	933.7673       	933.61725      	933.39655      	933.2147       	933.44495      	933.4544       	933.4112       	933.30145      	933.30444      	933.2771       	933.2828       	933.36646      	933.4229       	933.4262       	933.4394       	933.5362       	933.7976       	933.6026       	933.57184      	933.54535      	933.5211       	933.45013      	933.445        	933.47974      	933.36237      	933.3643       	933.32         	933.2602       	933.27454      	933.3736       	933.36926      	933.25305      	933.30865      	933.26605      	933.43207      	933.4644       	933.37604      	933.3679       	933.3507       	933.4272       	933.42377      	933.29175      	933.3227       	933.36725      	933.16766      	933.2849       	933.28217      	933.3907       	933.36414      	933.3067       	933.1271       	933.46375      	933.3942       	933.62897      	933.4925       	933.407        	933.17096      	933.1062       	932.91736      	932.8536       	932.6896       	932.7657       	932.80383      	933.07153      	933.20856      	933.13513      	933.21643      	933.29224      	933.33014      	933.3086       	933.32904      	933.2959       	933.18555      	933.2122       	933.14954      	933.02496      	933.02966      	933.1768       	933.1158       	933.0022       	933.1302       	933.1859       	933.18427      	933.11566      	933.0003       	933.0912       	932.9964       	933.0195       	933.03033      	933.0732       	933.1286       	933.0841       	933.1649       	933.0326       	933.0531       	932.8724       	
932.40955      	932.3203       	932.33923      	932.4798       	932.5919       	932.5893       	932.378        	932.1881       	932.20905      	932.4516       	932.2649       	932.1773       	932.15015      	932.0867       	932.1009       	932.185        	932.2419       	932.3773       	932.3497       	932.485        	932.60126      	932.28687      	932.2044       	932.1106       	932.13226      	932.3624       	932.4565       	932.37555      	932.31195      	932.3147       	932.2633       	932.1185       	932.22473      	932.2312       	932.21265      	932.2207       	932.24176      	932.2027       	932.2678       	932.2867       	932.2688       	932.3852       	932.34625      	932.29926      	932.34955      	932.2535       	932.1468       	932.28937      	932.38055      	932.2184       	932.195        	932.1494       	932.333        	932.2636       	932.1474       	932.18207      	932.31714      	932.2558       	932.29675      	932.121        	932.05676      	931.97235      	931.7493       	931.8726       	931.9387       	931.9693       	931.95276      	932.1081       	932.0738       	932.1348       	932.1977       	932.29565      	932.2536       	932.22394      	932.2562       	932.13794      	932.1222       	932.13116      	932.09265      	932.0779       	932.1122       	932.1835       	932.115        	932.0177       	932.0543       	932.1261       	932.1428       	932.18365      	932.20514      	932.0127       	931.9347       	932.00543      	931.98315      	932.05994      	932.0831       	932.1854       	932.11804      	932.066        	932.12933      	931.83563      	
931.8252       	931.7597       	931.7175       	931.90125      	932.0286       	932.0391       	931.9287       	931.71515      	931.6995       	931.9288       	931.7656       	931.6402       	931.6129       	931.57153      	931.599        	931.59894      	931.7539       	931.8418       	931.833        	931.9386       	931.9895       	931.9775       	931.6256       	931.84644      	931.78424      	931.7289       	932.1254       	931.9936       	932.0172       	931.95605      	931.8881       	931.8072       	931.69885      	931.873        	931.7737       	931.8251       	931.8783       	931.81573      	931.7823       	931.81287      	931.9145       	931.9759       	931.98083      	932.0342       	931.9974       	931.6696       	931.8315       	931.9515       	932.02386      	931.609        	931.80304      	931.78357      	931.7042       	931.8936       	931.8691       	931.89984      	931.87463      	931.9896       	932.0145       	931.7168       	931.9194       	931.5748       	931.4903       	931.6569       	931.72595      	931.94006      	931.91345      	931.7475       	931.81726      	931.7784       	931.9514       	932.0746       	931.9691       	931.82965      	931.88153      	931.9133       	931.90076      	931.8987       	931.872        	931.92847      	932.002        	931.9822       	931.91504      	931.92224      	931.8584       	931.7938       	931.83276      	931.9371       	931.9766       	931.8929       	931.8816       	931.7833       	931.7291       	931.80164      	931.83044      	931.98206      	931.9618       	931.9219       	931.9811       	931.81946      	
931.9247       	931.8724       	931.8738       	932.03314      	932.165        	932.18884      	932.0053       	931.87213      	931.8663       	932.1199       	931.9552       	931.84766      	931.80853      	931.8178       	931.7636       	931.8487       	931.92786      	931.9257       	932.0559       	932.0397       	932.11646      	932.17224      	932.2233       	932.20306      	932.1426       	932.17126      	932.3952       	932.10345      	932.372        	932.2458       	932.2011       	932.1373       	932.10675      	932.04974      	932.0801       	932.07996      	932.1172       	932.0294       	932.0042       	932.03424      	932.1179       	932.1806       	932.2509       	932.25256      	932.2373       	932.0484       	932.28906      	932.0237       	931.9772       	931.8118       	932.0826       	931.8287       	931.9856       	932.2838       	932.1443       	932.082        	932.01276      	931.9701       	931.95514      	932.02454      	932.023        	931.9921       	932.0264       	931.9147       	932.1361       	932.0414       	932.4782       	932.0894       	932.1072       	932.1338       	932.2373       	932.2904       	932.2207       	932.0934       	932.1705       	932.14197      	932.1392       	932.17554      	932.23773      	932.2015       	932.2768       	932.38025      	932.2936       	932.2575       	932.16693      	932.17615      	932.2077       	932.2117       	932.27277      	932.2431       	932.23535      	932.1924       	932.0914       	932.0986       	932.1591       	932.29156      	932.3483       	932.3484       	932.3164       	932.2439       	
932.6025       	932.5273       	932.55994      	932.65955      	932.73956      	932.78314      	932.65625      	932.5595       	932.5394       	932.7357       	932.6263       	932.4776       	932.43195      	932.4781       	932.5116       	932.5469       	932.57556      	932.56665      	932.4117       	932.83276      	932.80945      	932.80634      	932.7275       	932.7497       	932.61206      	932.73157      	933.04224      	932.87964      	932.8456       	932.90466      	932.8212       	932.7357       	932.7263       	932.79553      	932.83655      	932.8401       	932.798        	932.7369       	932.7367       	932.70337      	932.7884       	932.8141       	932.88806      	932.82874      	932.8583       	932.6409       	932.6641       	932.7058       	932.638        	932.61456      	932.5732       	932.6211       	932.5957       	932.68616      	932.7195       	932.6009       	932.86957      	932.5587       	932.64874      	932.87933      	932.6688       	932.8167       	932.78217      	932.83813      	932.85345      	932.9713       	933.0311       	932.78705      	932.83887      	932.78326      	932.881        	933.0205       	932.86523      	932.74347      	932.78845      	932.8197       	932.878        	932.8907       	932.9104       	932.96246      	932.9942       	933.04297      	933.0362       	933.0482       	932.9619       	932.935        	932.99475      	932.98956      	932.7892       	932.81665      	932.90625      	932.99384      	932.82806      	932.84283      	932.8314       	932.9014       	933.066        	933.108        	933.05005      	932.954        	
933.32166      	933.21844      	933.2174       	933.3284       	933.3978       	933.4272       	933.3294       	933.2509       	933.22894      	933.4112       	933.35516      	933.22455      	933.1377       	933.1946       	933.3048       	933.3015       	933.31323      	933.2874       	933.35065      	933.3919       	933.5634       	933.5045       	933.6609       	933.551        	933.5729       	933.49774      	933.47687      	933.7061       	933.5346       	933.62274      	933.59204      	933.48535      	933.4987       	933.53033      	933.5553       	933.5733       	933.539        	933.46606      	933.4345       	933.4679       	933.4791       	933.5136       	933.57135      	933.53906      	933.50165      	933.55414      	933.2334       	933.34106      	933.72754      	933.43396      	933.37665      	933.55005      	933.4711       	933.557        	933.48016      	933.2901       	933.37195      	933.30145      	933.45087      	933.3612       	933.5205       	933.413        	933.5138       	933.49554      	933.5163       	933.57166      	933.5751       	933.5765       	933.5142       	933.4866       	933.4265       	933.5689       	933.6794       	933.48315      	933.4375       	933.45605      	933.50104      	933.61566      	933.554        	933.5524       	933.547        	933.60254      	933.64185      	933.6185       	933.5992       	933.6091       	933.6722       	933.5741       	933.51227      	933.3952       	933.59045      	933.6741       	933.539        	933.41144      	933.4612       	933.43524      	933.7092       	933.7106       	933.62305      	933.639        	
933.5655       	933.4734       	933.4082       	933.4838       	933.6661       	933.71484      	933.5724       	933.4147       	933.49243      	933.6808       	933.64526      	933.4413       	933.40857      	933.49475      	933.5663       	933.5899       	933.3363       	933.54065      	933.7185       	933.7291       	933.5971       	933.7271       	933.755        	933.72144      	933.79004      	933.7359       	933.6699       	933.6614       	933.74457      	933.69867      	933.77405      	933.72986      	933.7772       	933.8502       	933.8163       	933.8057       	933.70544      	933.61774      	933.5879       	933.5476       	933.6482       	933.65497      	933.598        	933.57117      	933.6659       	933.7152       	933.60156      	933.8101       	933.61304      	933.6238       	933.61273      	933.57         	933.6561       	933.6853       	933.56934      	933.4336       	933.39856      	933.66254      	933.50433      	933.5397       	933.5776       	933.61774      	933.6108       	933.5862       	933.57935      	933.6074       	933.67084      	933.7011       	933.644        	933.6278       	933.6109       	933.5481       	933.6596       	933.5811       	933.52844      	933.4886       	933.5455       	933.63776      	933.66315      	933.505        	933.599        	933.547        	933.6664       	933.5305       	933.6104       	933.62665      	933.61884      	933.58405      	933.62067      	933.4713       	933.7102       	933.74194      	933.58734      	933.40063      	933.40204      	933.4545       	933.6249       	933.6872       	933.6482       	933.58875      	
933.4954       	933.45825      	933.38055      	933.3558       	933.5497       	933.6462       	933.49536      	933.39526      	933.48267      	933.619        	933.5199       	933.41266      	933.37976      	933.4734       	933.5141       	933.4443       	933.3809       	933.3113       	933.5026       	933.7002       	933.49927      	933.5982       	933.58203      	933.60144      	933.66516      	933.5189       	933.6153       	933.61633      	933.48773      	933.73706      	933.406        	933.55695      	933.68396      	933.75867      	933.8034       	933.5883       	933.5523       	933.52844      	933.50073      	933.4952       	933.54407      	933.5565       	933.56433      	933.527        	933.4823       	933.5974       	933.59827      	933.5186       	933.4594       	933.41174      	933.51855      	933.3636       	933.47363      	933.6441       	933.39575      	933.2898       	933.43274      	933.3617       	933.43774      	933.37933      	933.44855      	933.4361       	933.49054      	933.5758       	933.5357       	933.47894      	933.5087       	933.60114      	933.5652       	933.5971       	933.4975       	933.60016      	933.5818       	933.44244      	933.43567      	933.5065       	933.5483       	933.5442       	933.5649       	933.52216      	933.62         	933.5475       	933.5043       	933.504        	933.50555      	933.65485      	933.5714       	933.3717       	933.5413       	933.5903       	933.7382       	933.67737      	933.51276      	933.5022       	933.4603       	933.3249       	933.517        	933.8051       	933.6713       	933.68134      	
933.5062       	933.48346      	933.45984      	933.43164      	933.52026      	933.62177      	933.55035      	933.5414       	933.5833       	933.66534      	933.64734      	933.5628       	933.4918       	933.73047      	933.63416      	933.6563       	933.54694      	933.48505      	933.6485       	933.7355       	933.69794      	933.84924      	933.63464      	933.84216      	933.75024      	933.7986       	933.76697      	933.8076       	933.8138       	933.7676       	933.4654       	933.6337       	933.68524      	933.85864      	933.86127      	933.72955      	933.6514       	933.6934       	933.6314       	933.6748       	933.63306      	933.7188       	933.79645      	933.706        	933.6836       	933.7324       	933.6964       	933.74945      	933.72034      	933.67804      	933.6618       	933.6848       	933.77124      	933.68555      	933.7307       	933.7566       	933.7519       	933.7187       	933.6282       	933.70514      	933.7434       	933.90497      	933.8479       	933.82263      	933.65356      	933.6387       	933.69073      	933.7685       	933.7652       	933.82385      	933.7243       	933.7727       	933.8672       	933.75055      	933.70703      	933.7688       	933.782        	933.7429       	933.7532       	933.7207       	933.9058       	933.79095      	933.69293      	933.79         	933.6978       	933.7903       	933.8684       	933.747        	933.80707      	933.8379       	933.8905       	933.8238       	933.7442       	933.7278       	933.7556       	933.65485      	933.61664      	933.95105      	933.97107      	933.85376      	
933.77014      	933.69         	933.6322       	933.5232       	933.66187      	933.8417       	933.77185      	933.9488       	933.81573      	933.8376       	934.0189       	933.959        	933.9363       	933.88806      	934.067        	933.9071       	933.8073       	933.8139       	933.9355       	933.889        	934.0446       	934.0556       	933.92175      	933.9233       	933.9662       	934.08856      	934.0432       	934.0091       	933.95044      	933.85114      	933.7282       	933.72485      	933.8216       	933.9209       	933.9794       	933.9618       	933.9456       	933.9492       	933.94714      	933.8838       	933.8302       	933.963        	933.93317      	933.834        	933.9016       	933.8803       	933.90955      	933.8799       	933.92084      	933.80383      	933.8073       	933.8284       	933.83636      	933.8959       	933.92957      	933.9167       	933.846        	933.85754      	933.7676       	933.86224      	933.96295      	934.03723      	933.9399       	933.9353       	933.7663       	933.8173       	933.8516       	933.8558       	933.8633       	933.7973       	933.82574      	933.91364      	933.97064      	933.91547      	933.7882       	933.7599       	933.8831       	933.83844      	933.77545      	933.8497       	933.8489       	933.85785      	933.75354      	933.719        	933.7461       	933.7377       	933.7476       	933.84546      	933.76306      	933.8725       	933.7924       	933.7009       	933.7765       	933.8329       	933.8403       	933.6601       	933.6956       	933.87054      	934.1378       	933.90436      	
933.6564       	933.5512       	933.4482       	933.4951       	933.613        	933.7826       	933.8941       	933.76697      	933.827        	933.6772       	933.9613       	933.8858       	933.8277       	933.89734      	933.9756       	933.9261       	933.6967       	933.7553       	933.8891       	933.9462       	933.9525       	933.9107       	933.78735      	933.7323       	933.791        	933.84937      	933.98376      	933.9791       	933.8477       	933.73645      	933.6788       	933.66266      	933.6523       	933.87494      	933.84674      	933.8594       	934.0012       	933.956        	933.9524       	933.7865       	933.7126       	933.8805       	933.83746      	933.82465      	933.84735      	933.9147       	933.8715       	933.9727       	933.9121       	933.7995       	933.8588       	933.805        	933.793        	933.8111       	933.95447      	933.93585      	933.82196      	933.7709       	933.7895       	933.8645       	934.0115       	934.01245      	934.0035       	933.9099       	933.8778       	933.82544      	933.9016       	933.928        	933.8891       	933.8233       	933.91504      	933.9288       	933.96747      	934.0027       	933.89636      	933.8852       	933.9413       	933.91754      	933.8686       	933.8968       	933.96967      	933.9977       	933.91693      	933.8124       	933.8877       	933.8352       	933.8609       	933.9773       	933.9848       	933.64905      	933.8344       	933.88086      	933.9159       	933.9336       	934.06537      	933.91986      	933.81714      	933.91986      	934.0756       	933.97296      	
934.10126      	934.07227      	934.0051       	933.9801       	934.1669       	934.3926       	934.3415       	934.28156      	934.176        	934.0849       	934.30005      	934.2901       	934.3074       	934.3111       	934.3431       	934.31934      	934.16437      	934.1798       	934.39636      	934.444        	934.3412       	934.317        	934.1651       	934.0219       	934.0468       	934.0433       	934.34344      	934.42535      	934.2512       	934.10736      	934.2613       	934.1263       	934.12134      	934.2242       	934.2872       	934.20337      	934.45703      	934.50006      	934.3978       	934.3122       	934.2512       	934.26764      	934.2804       	934.2806       	934.28394      	934.3116       	934.3785       	934.3851       	934.2611       	934.308        	934.3223       	934.2828       	934.25946      	934.278        	934.40515      	934.35504      	934.32996      	934.2479       	934.3231       	934.3492       	934.41547      	934.5163       	934.4459       	934.4039       	934.4231       	934.32825      	934.4121       	934.35925      	934.3102       	934.40015      	934.43427      	934.47485      	934.4677       	934.4952       	934.5027       	934.4071       	934.48676      	934.44147      	934.40515      	934.43787      	934.463        	934.5492       	934.514        	934.446        	934.4447       	934.39874      	934.4339       	934.63586      	934.52075      	934.30865      	934.19995      	934.3427       	934.4254       	934.5311       	934.7478       	934.5427       	934.3808       	934.31604      	934.4772       	934.6015       	
934.52844      	934.48145      	934.4636       	934.5665       	934.6516       	934.7994       	934.7349       	934.565        	934.46625      	934.53394      	934.56635      	934.7029       	934.6647       	934.66003      	934.7307       	934.7012       	934.5803       	934.6387       	934.7313       	934.83777      	934.5706       	934.6185       	934.43646      	934.35266      	934.3355       	934.16864      	934.7276       	934.6797       	934.5274       	934.5142       	934.52435      	934.44037      	934.53754      	934.4031       	934.46967      	934.35425      	934.61725      	934.71106      	934.718        	934.648        	934.5628       	934.5097       	934.4203       	934.4386       	934.488        	934.48303      	934.50006      	934.5575       	934.557        	934.5099       	934.51404      	934.47864      	934.4792       	934.4594       	934.48883      	934.4723       	934.4248       	934.46063      	934.49304      	934.45905      	934.46967      	934.4882       	934.5804       	934.5049       	934.5006       	934.4232       	934.3759       	934.3401       	934.38354      	934.4224       	934.44434      	934.45447      	934.5169       	934.61304      	934.55566      	934.44934      	934.3951       	934.40106      	934.3277       	934.37067      	934.3723       	934.4695       	934.5185       	934.4831       	934.45807      	934.394        	934.4122       	934.48566      	934.3069       	934.1895       	934.20605      	934.3278       	934.3681       	934.3683       	934.4724       	934.3746       	934.24225      	934.2602       	934.20087      	934.39886      	
933.584        	933.5694       	933.5365       	933.6282       	933.7904       	933.887        	933.774        	933.59235      	933.39087      	933.5009       	933.60736      	933.6262       	933.64905      	933.67395      	933.6845       	933.69556      	933.6169       	933.55334      	933.6279       	933.7313       	933.5219       	933.35754      	933.37415      	933.3051       	933.23444      	933.2386       	933.46747      	933.41003      	933.3992       	933.4109       	933.38226      	933.38416      	933.37427      	933.3811       	933.3684       	933.19196      	933.1114       	933.54004      	933.5723       	933.54156      	933.4271       	933.3369       	933.2458       	933.32104      	933.3572       	933.3302       	933.2218       	933.1262       	933.1913       	933.2818       	933.22516      	933.19836      	933.16724      	933.2147       	933.22595      	933.1769       	933.1606       	933.1371       	933.1575       	933.1207       	933.14233      	933.1345       	933.2714       	933.1869       	933.151        	933.1559       	933.0544       	933.0589       	932.99347      	933.03064      	933.02966      	933.0785       	933.1246       	933.18854      	933.20056      	933.0345       	933.0888       	932.99445      	932.94543      	932.9396       	932.9668       	933.0658       	933.1259       	933.00006      	932.9644       	932.99603      	932.99347      	932.9517       	932.86664      	932.86127      	932.9151       	932.91797      	932.9054       	932.8814       	932.86725      	932.85706      	932.82         	932.8125       	932.73425      	932.9605       	
932.0699       	932.04816      	932.087        	932.12994      	932.2639       	932.3632       	932.25745      	932.11127      	932.0247       	932.0104       	932.1889       	932.23145      	932.17804      	932.24146      	932.2809       	932.2489       	932.136        	932.11523      	932.08105      	932.14655      	932.00616      	931.9071       	931.9304       	931.8329       	931.9521       	931.91534      	931.97955      	932.00836      	931.9792       	931.99         	931.9986       	931.9913       	932.04         	932.05145      	931.97266      	931.9413       	931.92944      	931.90717      	932.0273       	932.1028       	932.11273      	931.9733       	931.94226      	932.0903       	932.0546       	931.9132       	931.80426      	931.7548       	931.82886      	931.73804      	931.8717       	931.8981       	931.87823      	931.9438       	931.8938       	931.8209       	931.8684       	931.85095      	931.9098       	931.7852       	931.8694       	931.86365      	931.832        	931.91907      	931.928        	931.8866       	931.7757       	931.7478       	931.7363       	931.7932       	931.7835       	931.7885       	931.92224      	931.9386       	932.001        	931.8238       	931.79095      	931.82135      	931.69794      	931.6699       	931.7913       	931.81354      	931.9192       	931.8064       	931.7769       	931.8786       	931.68304      	931.7103       	931.6926       	931.78687      	931.7745       	931.7408       	931.68933      	931.797        	931.67615      	931.7034       	931.7652       	931.7948       	931.79584      	931.8284       	
931.51105      	931.53687      	931.6222       	931.6752       	931.7094       	931.80334      	931.6087       	931.6007       	931.50574      	931.56995      	931.6361       	931.66724      	931.69995      	931.63025      	931.7003       	931.6188       	931.55817      	931.4986       	931.4353       	931.4879       	931.5102       	931.4477       	931.4255       	931.3434       	931.4898       	931.55725      	931.5445       	931.52893      	931.4968       	931.50903      	931.5074       	931.56055      	931.6614       	931.56726      	931.5186       	931.5336       	931.53735      	931.53375      	931.559        	931.6698       	931.63074      	931.54175      	931.5569       	931.58167      	931.7138       	931.57294      	931.5544       	931.3723       	931.5778       	931.552        	931.45703      	931.5833       	931.6199       	931.6226       	931.58276      	931.52844      	931.54565      	931.6269       	931.615        	931.5232       	931.5892       	931.60016      	931.5013       	931.49774      	931.63586      	931.6721       	931.53894      	931.46985      	931.45996      	931.6436       	931.5569       	931.5465       	931.7109       	931.76         	931.721        	931.62787      	931.6067       	931.6367       	931.54626      	931.5159       	931.51074      	931.70593      	931.63434      	931.41016      	931.7325       	931.7948       	931.5505       	931.503        	931.5326       	931.64453      	931.6761       	931.65106      	931.655        	931.703        	931.6247       	931.5768       	931.6979       	931.86066      	931.7003       	931.5703       	
931.68677      	931.7956       	932.03894      	931.9086       	931.78906      	931.8824       	931.7685       	931.77026      	931.8038       	931.83325      	931.89716      	931.8771       	931.8378       	931.922        	931.8093       	931.7143       	931.6705       	931.51434      	931.5658       	931.6263       	931.6278       	931.6474       	931.5703       	931.697        	931.7602       	931.76715      	931.7392       	931.6991       	931.73285      	931.64545      	931.7561       	931.8178       	931.81165      	931.72656      	931.7836       	931.6752       	931.70844      	931.8109       	931.77563      	931.7797       	931.7711       	931.72437      	931.8083       	931.78864      	931.8678       	931.87604      	931.8422       	931.80396      	931.7933       	931.76245      	931.8317       	931.8704       	931.85443      	931.7885       	931.8095       	931.7646       	931.8743       	931.8606       	931.78784      	931.77155      	931.85223      	931.94604      	931.7849       	931.69696      	931.8489       	931.9417       	931.89215      	931.76337      	931.7839       	931.8287       	931.802        	931.75195      	931.9056       	931.98663      	931.91754      	931.8167       	931.90344      	931.89996      	931.8993       	931.85974      	931.9278       	931.8857       	931.8409       	931.73755      	932.0525       	931.9311       	931.8478       	931.80786      	931.86786      	931.74146      	932.014        	931.93097      	931.8916       	931.9801       	931.8451       	931.8051       	931.9848       	931.99243      	931.9708       	931.9013       	
932.3135       	932.63354      	932.91394      	932.5587       	932.1677       	932.46136      	932.3913       	932.4964       	932.4189       	932.47974      	932.4984       	932.41864      	932.38934      	932.41223      	932.16754      	932.45856      	932.2614       	932.18         	932.29816      	932.41895      	932.3401       	932.3339       	932.42487      	932.4081       	932.4602       	932.4569       	932.42645      	932.3685       	932.3935       	932.3821       	932.5856       	932.5408       	932.43195      	932.45154      	932.4555       	932.3721       	932.4343       	932.5649       	932.4947       	932.44214      	932.4923       	932.44147      	932.4358       	932.4717       	932.7676       	932.5336       	932.4818       	932.5013       	932.43976      	932.4324       	932.54407      	932.6476       	932.53455      	932.4999       	932.5036       	932.5709       	932.532        	932.55304      	932.5316       	932.4059       	932.6899       	932.7257       	932.64984      	932.46356      	932.49115      	932.6918       	932.69293      	932.58844      	932.5429       	932.57465      	932.5271       	932.58014      	932.65106      	932.7168       	932.6995       	932.5932       	932.4608       	932.7237       	932.8067       	932.72         	932.79034      	932.69006      	932.71094      	932.7308       	932.69366      	932.6986       	932.64905      	932.7776       	932.7269       	932.6999       	932.7228       	932.79193      	932.85156      	932.74164      	932.7433       	932.76733      	932.803        	932.8321       	932.8168       	932.8048       	
933.2895       	933.5575       	933.7497       	933.2451       	933.1143       	933.53973      	933.4435       	933.3689       	933.3655       	933.33734      	933.35504      	933.3116       	933.2144       	933.2929       	933.07526      	933.1381       	933.1653       	933.17444      	933.29285      	933.3749       	933.38293      	933.3785       	933.32574      	933.2972       	933.3549       	933.38763      	933.29         	933.3857       	933.2274       	933.6778       	933.5296       	933.5036       	933.41266      	933.4054       	933.3995       	933.3497       	933.3981       	933.439        	933.44916      	933.3687       	933.41394      	933.302        	933.2292       	933.5782       	933.54         	933.4366       	933.3851       	933.4386       	933.3593       	933.3274       	933.57806      	933.5153       	933.4933       	933.4425       	933.47943      	933.46216      	933.4674       	933.36334      	933.44836      	933.42737      	933.51886      	933.5297       	933.5841       	933.4664       	933.3362       	933.5922       	933.62823      	933.45447      	933.4544       	933.5016       	933.45013      	933.4933       	933.48834      	933.5055       	933.4503       	933.3847       	933.4687       	933.5943       	933.71484      	933.59094      	933.64484      	933.5646       	933.5362       	933.59314      	933.5465       	933.41534      	933.5898       	933.6106       	933.559        	933.49097      	933.53894      	933.66156      	933.62537      	933.60516      	933.6275       	933.5995       	933.66516      	933.5987       	933.6305       	933.62805      	
933.7772       	933.9996       	934.209        	934.0028       	933.9378       	933.87665      	933.8993       	933.82574      	933.8542       	933.73724      	933.7761       	933.6526       	933.61456      	933.6444       	933.7309       	933.72034      	933.6837       	933.7431       	933.81433      	933.7891       	933.8948       	933.78845      	933.7044       	933.6942       	933.7383       	933.8189       	933.7428       	933.77405      	933.8524       	933.9315       	933.8587       	933.85266      	933.7926       	933.76636      	933.72253      	933.7389       	933.81354      	933.7792       	933.76886      	933.7994       	933.72784      	933.7057       	933.7144       	933.8763       	933.8891       	933.8171       	933.8004       	933.7786       	933.7418       	933.68005      	933.8402       	933.8766       	933.78217      	933.80176      	933.7796       	933.7913       	933.8104       	933.8075       	933.79675      	933.78094      	933.7366       	933.8274       	933.96454      	933.8684       	933.75134      	933.7149       	933.84796      	933.74384      	933.7577       	933.79016      	933.8189       	933.74243      	933.8355       	933.7315       	933.7618       	933.75446      	933.922        	933.7187       	933.8749       	933.84607      	933.8739       	933.92084      	933.861        	933.92255      	933.7271       	933.7289       	933.85706      	933.88336      	933.9423       	933.85455      	933.8189       	933.8591       	933.9408       	933.89026      	933.886        	933.8485       	933.95605      	933.99274      	933.89575      	933.76685      	
933.9626       	934.1503       	934.2454       	934.2235       	934.07916      	933.93744      	933.86676      	933.8682       	933.8813       	933.9935       	933.905        	933.73346      	933.7363       	933.92865      	934.01996      	934.0144       	933.9713       	933.96704      	934.0357       	934.07916      	934.0603       	933.9314       	933.89386      	933.8949       	933.9698       	934.05963      	933.9672       	933.9799       	934.0755       	934.0929       	934.0523       	933.9852       	933.93726      	933.94116      	933.9706       	933.99133      	933.9716       	933.98706      	933.9632       	934.017        	933.9396       	933.9348       	933.92883      	933.97595      	934.0618       	934.02386      	934.0886       	933.9189       	933.85925      	934.0286       	934.0107       	933.99927      	933.97894      	933.96515      	933.9644       	934.002        	933.9813       	933.98566      	934.0103       	933.9242       	933.79675      	933.81586      	934.09985      	934.0559       	933.90375      	933.8931       	933.9479       	933.89606      	933.9196       	933.98303      	934.0253       	933.98785      	934.02594      	933.9783       	934.00085      	934.13074      	933.942        	933.9528       	934.1003       	934.1419       	934.0741       	934.0938       	934.09106      	934.0351       	933.8824       	933.8773       	934.0723       	934.10425      	934.05597      	934.05005      	934.03406      	934.11816      	934.06805      	934.03375      	934.0409       	934.0826       	934.2228       	934.13385      	934.0365       	933.95593      	
934.06506      	934.26605      	934.3806       	934.15796      	934.11755      	933.821        	934.12854      	933.92126      	934.0604       	934.0342       	933.9735       	933.9392       	933.9527       	934.0309       	934.1059       	934.17645      	934.1843       	934.1515       	934.1767       	934.1835       	934.0957       	934.0393       	934.06714      	934.10297      	934.14954      	934.12024      	934.11035      	934.15906      	934.1596       	934.15625      	934.10754      	934.04926      	934.0156       	934.1049       	934.0479       	934.15686      	934.0518       	934.13385      	934.1017       	934.094        	934.0963       	933.98645      	934.0108       	934.0839       	934.1609       	934.17847      	934.18054      	934.09906      	934.0534       	934.0724       	934.1191       	934.08405      	934.0565       	934.0106       	934.0342       	934.21686      	934.1159       	934.0006       	933.92773      	933.9822       	933.97974      	933.9078       	934.14264      	934.1212       	933.97394      	934.0821       	934.0765       	933.9827       	933.9668       	934.10254      	934.15295      	934.05273      	934.13806      	934.08636      	934.1098       	934.032        	934.0021       	934.0427       	934.1638       	934.07135      	934.1029       	934.07965      	934.0964       	934.0398       	933.9196       	933.9696       	934.12836      	934.1189       	934.1198       	934.05774      	934.11786      	934.0684       	934.1058       	934.024        	934.079        	934.12506      	934.239        	934.14484      	934.04236      	933.98474      	
934.11127      	934.2542       	934.30396      	934.1087       	934.0178       	933.7489       	934.01117      	934.0261       	934.0984       	934.03156      	934.032        	934.08386      	934.07117      	934.1378       	934.2084       	934.32874      	934.2601       	934.1744       	934.1715       	934.16614      	934.136        	934.1361       	934.1475       	934.1723       	934.2323       	934.2228       	934.15454      	934.2003       	934.1561       	934.09894      	934.11194      	934.0869       	934.1233       	934.15656      	934.0604       	934.1116       	934.1117       	934.19586      	934.1928       	934.1249       	934.0587       	934.01074      	934.0148       	934.1624       	934.1669       	934.1256       	934.14075      	934.10034      	934.05145      	934.01086      	934.0538       	934.0407       	934.12836      	934.00586      	934.2437       	934.1646       	934.0693       	934.0356       	933.96063      	933.96094      	934.1566       	934.19073      	934.08844      	934.0751       	934.11597      	934.08014      	934.0739       	934.0823       	934.0993       	934.405        	934.2525       	934.0311       	934.0798       	934.11707      	934.0039       	934.03064      	934.0417       	934.17316      	934.18353      	934.1015       	934.2017       	934.06683      	934.00555      	934.04913      	934.06635      	934.0986       	934.14984      	934.114        	934.136        	934.1392       	934.1738       	934.13043      	934.0794       	934.00464      	934.1544       	934.2256       	934.24976      	934.1347       	934.081        	934.0914       	
934.1608       	934.23816      	934.269        	934.07166      	934.02234      	934.0648       	934.08527      	934.07806      	934.0787       	934.1271       	934.20386      	934.1654       	934.1127       	934.19214      	934.3148       	934.2706       	934.2636       	934.1708       	934.04816      	934.1146       	934.1262       	934.1458       	934.1358       	934.27466      	934.2897       	934.29987      	934.2727       	934.24426      	934.1412       	934.0917       	934.1347       	934.19006      	934.19104      	934.20496      	934.08826      	934.1101       	934.2315       	934.1783       	934.3031       	934.1941       	934.14246      	934.1183       	934.1504       	934.2015       	934.1713       	934.2194       	934.2035       	934.17773      	934.0752       	934.02405      	934.14075      	934.1508       	934.0966       	934.15735      	934.18097      	934.15814      	934.0267       	934.02637      	934.08813      	934.1345       	934.16754      	934.19275      	934.1187       	934.04126      	934.1188       	934.1098       	934.06         	934.2473       	934.25         	934.43933      	934.23694      	934.0968       	934.1564       	934.1738       	934.03876      	934.0219       	934.2512       	934.2646       	934.18066      	934.1591       	934.2306       	934.1059       	934.0577       	934.07996      	934.1862       	934.21106      	934.1459       	934.1261       	934.24664      	934.1996       	934.2223       	934.1673       	934.0978       	934.10406      	934.21985      	934.29584      	934.25183      	934.0939       	934.1112       	934.15125      	
934.01355      	934.0586       	934.0343       	933.8895       	933.8852       	933.88855      	933.9378       	934.1091       	934.07196      	934.0478       	934.0476       	933.9525       	934.0992       	934.22565      	934.181        	934.1278       	934.02673      	934.04004      	933.9414       	933.91656      	934.00323      	934.0677       	934.005        	934.1144       	934.1514       	934.1319       	934.07135      	934.0264       	933.942        	933.9043       	933.96326      	934.1109       	934.0654       	933.9932       	934.0071       	934.0435       	934.09283      	934.0283       	933.9819       	934.1187       	934.0852       	934.0525       	933.9823       	934.03406      	934.0358       	934.03217      	933.986        	933.99023      	933.9362       	933.9032       	934.0155       	933.9441       	933.83307      	933.9196       	933.9348       	933.9466       	933.8468       	933.91223      	933.97876      	933.934        	933.90265      	933.93225      	933.8825       	933.79144      	933.90125      	933.9749       	933.9447       	934.00195      	934.07336      	934.0899       	933.9195       	933.8508       	933.96515      	933.8644       	933.82495      	933.8591       	933.9728       	933.8966       	933.92175      	933.92944      	933.87915      	933.7871       	933.816        	933.9121       	933.9728       	933.9209       	933.8194       	933.8759       	933.9822       	933.986        	933.86304      	933.8326       	933.8995       	933.90375      	934.0138       	934.0141       	933.891        	933.78864      	933.94324      	933.9678       	
933.7831       	933.78094      	933.8065       	933.7726       	933.7057       	933.68207      	933.8766       	933.9166       	933.8386       	933.7465       	933.76886      	933.76373      	933.86786      	933.9411       	933.90424      	933.83496      	933.7792       	933.77045      	933.69714      	933.6882       	933.79565      	933.7843       	933.77136      	933.7931       	933.91864      	933.8575       	933.75433      	933.6889       	933.6967       	933.67883      	933.71906      	933.76465      	933.76215      	933.79034      	933.8448       	933.94525      	933.81726      	933.66895      	933.64844      	933.76337      	933.88776      	933.81775      	933.7847       	933.8108       	933.81244      	933.76825      	933.7515       	933.7383       	933.6565       	933.69366      	933.7689       	933.6936       	933.6105       	933.6168       	933.6941       	933.8233       	933.82776      	933.78217      	933.7567       	933.7177       	933.6583       	933.6737       	933.7125       	933.72205      	933.78973      	933.78766      	933.8261       	933.7672       	933.7262       	933.6988       	933.7535       	933.6451       	933.8725       	933.726        	933.6731       	933.69586      	933.75934      	933.7144       	933.7322       	933.7974       	933.70013      	933.5742       	933.7349       	933.7068       	933.7968       	933.7911       	933.6819       	933.7418       	933.83655      	933.75464      	933.6733       	933.6621       	933.71326      	933.7582       	933.8294       	933.7358       	933.71246      	933.74207      	933.7811       	933.7319       	
933.8796       	933.8451       	933.7789       	933.8275       	933.85         	933.92426      	933.9613       	933.9317       	933.8126       	933.9335       	933.8419       	933.89087      	933.9519       	934.027        	934.00964      	933.8933       	933.86743      	933.84045      	933.7966       	933.8532       	933.91125      	933.852        	933.78033      	933.8386       	933.935        	933.968        	933.8315       	933.7865       	933.7934       	933.76794      	933.7704       	933.57855      	934.05005      	933.91724      	933.9818       	933.8243       	933.78033      	933.7753       	933.7136       	933.8849       	933.94885      	933.9643       	933.9909       	933.9298       	933.82654      	933.748        	933.8321       	933.79297      	933.769        	933.73315      	933.7447       	933.7477       	933.6943       	933.8187       	933.9301       	933.99243      	933.87317      	933.82336      	933.7695       	933.75226      	933.709        	933.7649       	933.83746      	933.8798       	933.894        	933.9973       	933.8114       	933.7512       	933.7813       	933.7858       	933.8637       	933.85504      	933.86566      	933.8113       	933.8193       	933.8741       	933.7932       	933.76587      	933.912        	933.8888       	933.7867       	933.7458       	933.76135      	933.82007      	933.8643       	933.9222       	933.81604      	933.86554      	933.9457       	933.8535       	933.79626      	933.82776      	933.92017      	933.90027      	933.9322       	933.8992       	933.8783       	933.9131       	933.86194      	933.84674      	
933.99023      	933.9298       	933.87604      	933.96423      	934.0523       	934.10474      	934.0401       	934.04         	933.9957       	933.9985       	933.8766       	933.83215      	933.97943      	934.10095      	934.00037      	933.8982       	933.88904      	933.89966      	933.8359       	933.85864      	933.8897       	933.90106      	933.7571       	933.90234      	933.9205       	933.90247      	933.88214      	933.82886      	933.82214      	933.7564       	933.7396       	933.6477       	934.04785      	933.97424      	933.87946      	933.7539       	933.73035      	933.72455      	933.84283      	933.8682       	934.0035       	933.9696       	933.9272       	933.8868       	933.8317       	933.77545      	933.8555       	933.84827      	933.79456      	933.7266       	933.72723      	933.77924      	933.9264       	933.93823      	933.97974      	934.0293       	933.87036      	933.892        	933.8386       	933.7408       	933.7232       	933.8864       	933.9223       	933.90765      	933.97034      	933.8106       	933.74243      	933.67053      	933.8187       	933.8495       	934.0421       	933.852        	933.75305      	933.73413      	933.8729       	933.85187      	933.7616       	933.8249       	933.9007       	933.8557       	933.8297       	933.7794       	933.77905      	933.84235      	933.80383      	933.91516      	933.8632       	933.8946       	933.82104      	933.7727       	933.7878       	933.7956       	933.72766      	933.93945      	933.85974      	933.8405       	933.85876      	933.8337       	933.8131       	933.7651       	
933.88635      	933.8441       	933.80707      	933.9526       	934.0807       	933.9879       	933.963        	933.94794      	933.9124       	933.9439       	933.76215      	933.74603      	933.9198       	933.9819       	933.8722       	933.8141       	933.74414      	933.7929       	933.8506       	933.8584       	933.8806       	933.8129       	933.84106      	933.83563      	933.9286       	933.8858       	933.87964      	933.7885       	933.8121       	933.73773      	933.8269       	933.8883       	933.9779       	933.8905       	933.7716       	933.7334       	933.7182       	933.7843       	933.8873       	933.88965      	933.8567       	933.8749       	933.8451       	933.8401       	933.768        	933.6553       	933.7481       	933.79517      	933.72455      	933.7358       	933.7411       	933.7995       	933.9977       	933.927        	933.8074       	933.86725      	933.76         	933.7416       	933.8463       	933.82043      	933.84155      	933.9852       	933.89496      	933.9151       	933.7949       	933.7094       	933.67883      	933.6957       	933.79694      	933.9342       	933.9804       	933.81506      	933.69275      	933.7431       	933.9495       	933.9037       	933.857        	934.0534       	933.948        	933.81024      	933.7958       	933.78845      	933.8816       	933.77856      	933.8194       	933.87463      	933.9088       	934.0145       	933.94293      	933.89996      	933.80493      	933.81903      	933.78406      	933.91003      	933.8771       	933.8727       	933.8355       	933.8441       	933.7977       	933.7436       	
934.05707      	934.0308       	934.04913      	934.1822       	934.2784       	934.18353      	934.16394      	934.1051       	934.09045      	934.0268       	933.96735      	933.97766      	934.1321       	934.081        	934.1246       	933.9513       	933.9036       	933.8783       	934.1059       	934.0759       	934.00195      	934.0152       	933.9861       	933.9052       	934.1597       	934.139        	934.1038       	933.99835      	933.98254      	934.09625      	934.03         	933.99744      	934.0981       	934.04205      	933.9714       	934.01825      	934.0394       	934.09375      	934.00775      	934.0688       	934.02997      	934.025        	934.09247      	934.09467      	933.96686      	933.8295       	934.02515      	934.0621       	933.9931       	934.0444       	934.13477      	934.163        	934.22235      	934.0894       	934.0219       	933.90137      	933.8685       	934.0299       	934.0628       	934.1339       	934.1199       	934.10785      	934.0614       	934.0343       	933.9659       	933.8723       	933.8319       	933.9522       	934.1415       	934.1642       	934.168        	934.01276      	933.98444      	934.04553      	934.07416      	934.08875      	934.13153      	934.2197       	934.0533       	933.95483      	933.9428       	934.0843       	934.0814       	934.0352       	934.094        	934.03357      	934.1737       	934.1657       	934.0908       	934.0603       	934.03235      	933.9553       	933.9931       	934.2172       	934.0837       	934.1031       	934.0615       	934.09546      	934.0544       	934.09467      	
934.2335       	934.25         	934.2943       	934.3892       	934.3925       	934.2628       	934.31354      	934.21375      	934.1642       	934.21375      	934.26044      	934.3185       	934.196        	934.1859       	934.1848       	934.0889       	934.05554      	934.12994      	934.1953       	934.15814      	934.2207       	934.12305      	934.12085      	934.19995      	934.2203       	934.2168       	934.1928       	934.1355       	934.22845      	934.1556       	934.0556       	934.1894       	934.143        	934.1388       	934.1679       	934.14734      	934.177        	934.1734       	934.10376      	934.0177       	934.12573      	934.08734      	934.11743      	934.1915       	934.0728       	933.9976       	934.2355       	934.16833      	934.19574      	934.2579       	934.218        	934.30896      	934.2595       	934.1533       	934.0453       	934.0062       	934.074        	934.17456      	934.15356      	934.26263      	934.22455      	934.2327       	934.15765      	934.14294      	934.0296       	933.9644       	933.98285      	934.0945       	934.1134       	934.27795      	934.13434      	934.17316      	934.05304      	934.0604       	934.0886       	934.13074      	934.2044       	934.262        	934.0116       	933.9651       	934.05164      	934.19104      	934.17017      	934.1435       	934.07587      	934.0915       	934.19446      	934.15625      	934.0579       	934.08765      	934.1022       	934.14935      	934.0814       	934.2452       	934.15765      	934.1032       	934.0567       	934.0314       	934.09937      	934.22034      	
933.93726      	934.0706       	934.1179       	934.11395      	934.08246      	934.037        	933.9067       	933.9187       	933.87897      	934.0117       	933.99426      	933.9503       	933.9188       	933.8938       	933.8319       	933.84863      	933.8749       	933.8782       	933.87085      	933.91785      	933.8853       	933.8902       	933.9569       	934.0136       	933.99554      	933.9249       	933.8929       	933.968        	933.99976      	933.7258       	933.80426      	933.85223      	933.89514      	933.96497      	933.93365      	933.8243       	933.90063      	933.8763       	933.83844      	933.84674      	933.9086       	933.8214       	933.8406       	933.959        	933.9542       	933.97784      	933.93384      	933.97034      	933.983        	934.02435      	933.9962       	933.9098       	933.82837      	933.7493       	933.72015      	933.8297       	933.8284       	933.8165       	933.8778       	934.01044      	933.87036      	933.85675      	933.86633      	933.85504      	933.67566      	933.6752       	933.74976      	933.86         	933.92566      	933.94464      	933.8334       	933.7613       	933.7423       	933.6725       	933.8212       	933.8145       	933.97144      	933.8935       	933.7186       	933.6461       	933.9015       	933.88995      	933.898        	933.78644      	933.70514      	933.736        	933.8412       	933.72394      	933.7302       	933.76764      	933.8343       	933.8814       	933.8525       	933.8336       	933.8229       	933.7005       	933.6419       	933.75195      	933.8428       	933.7352       	
933.794        	933.90015      	933.9301       	933.8531       	933.7265       	933.8611       	933.77344      	933.7428       	933.8305       	933.8451       	933.74506      	933.75977      	933.72064      	933.6772       	933.68396      	933.6928       	933.6271       	933.55396      	933.5816       	933.5866       	933.637        	933.6513       	933.63855      	933.65094      	933.6165       	933.61456      	933.64215      	933.5914       	933.6501       	933.4531       	933.53864      	933.61584      	933.6981       	933.6547       	933.5724       	933.5939       	933.585        	933.56696      	933.48035      	933.5475       	933.5781       	933.5377       	933.60504      	933.6923       	933.71844      	933.6205       	933.6002       	933.6026       	933.7366       	933.7006       	933.631        	933.6147       	933.45496      	933.4176       	933.4896       	933.5282       	933.47766      	933.514        	933.55664      	933.7021       	933.5631       	933.58453      	933.5494       	933.4562       	933.4114       	933.333        	933.47656      	933.66003      	933.6526       	933.59766      	933.4968       	933.4245       	933.3812       	933.3801       	933.5785       	933.49414      	933.4493       	933.6187       	933.46155      	933.5927       	933.63196      	933.65436      	933.6803       	933.55817      	933.53064      	933.53735      	933.5318       	933.51575      	933.61273      	933.5722       	933.58844      	933.71         	933.59924      	933.6581       	933.55237      	933.471        	933.4824       	933.60876      	933.69574      	933.59344      	
933.6462       	933.6754       	933.7027       	933.6571       	933.574        	933.6237       	933.77563      	933.767        	933.7125       	933.6173       	933.6061       	933.6184       	933.60925      	933.62024      	933.709        	933.69037      	933.612        	933.6481       	933.67126      	933.70636      	933.6392       	933.63446      	933.6801       	933.6396       	933.58704      	933.7058       	933.6272       	933.66534      	933.6901       	933.6561       	933.6709       	933.73883      	933.6716       	933.6417       	933.5483       	933.6406       	933.6168       	933.7623       	933.7393       	933.7103       	933.6366       	933.73926      	933.9227       	933.87396      	933.7919       	933.6973       	933.75653      	933.82465      	933.8246       	933.8558       	933.7403       	933.60046      	933.5775       	933.58         	933.6627       	933.6775       	933.60583      	933.7224       	933.68304      	933.8233       	933.7081       	933.78766      	933.63934      	933.56323      	933.587        	933.69147      	933.8349       	933.7962       	933.74286      	933.68463      	933.6085       	933.5692       	933.5267       	933.7318       	933.7836       	933.66144      	933.63617      	933.7222       	933.80725      	933.7883       	933.77747      	933.839        	933.8551       	933.877        	933.72534      	933.6854       	933.72144      	933.8075       	933.8355       	933.8001       	933.81903      	933.9183       	933.8417       	933.7598       	933.65686      	933.7108       	933.86096      	933.85144      	933.8473       	933.76636      	
933.8573       	933.91284      	933.8545       	933.84314      	933.8594       	933.88385      	934.08594      	933.9657       	933.9693       	933.82355      	933.8126       	933.80884      	933.9271       	933.9812       	933.9479       	933.9004       	933.8522       	933.8453       	933.9749       	933.9151       	933.8668       	933.82886      	933.8944       	933.7307       	933.6911       	934.0032       	933.7901       	933.86664      	933.88385      	933.95667      	933.86743      	933.9058       	933.93066      	933.8525       	933.8403       	933.8909       	933.988        	934.02124      	934.11456      	933.9389       	934.0118       	934.0106       	934.17096      	934.14386      	933.9859       	933.8858       	934.0471       	934.1833       	934.15436      	934.0551       	933.914        	933.7639       	933.7188       	934.0575       	933.9707       	933.875        	933.8984       	934.05334      	933.9984       	934.07434      	934.0519       	934.06714      	933.9355       	933.902        	933.92896      	934.0475       	934.10034      	934.0773       	934.0144       	933.95465      	933.8808       	933.9379       	933.97107      	934.0819       	934.07654      	933.9183       	933.90857      	933.98926      	934.0524       	934.1071       	934.0313       	934.12683      	934.1576       	934.0866       	933.9602       	933.8753       	934.1081       	934.11615      	934.11945      	934.1321       	934.20496      	934.198        	934.0573       	934.00287      	933.98773      	934.0921       	934.1673       	934.156        	934.10736      	934.06274      	
