# www.neaspec.com
# Scan:	 	AFM
# Project:	 	20251007_PS
# Description:	 	
# Date:	 	10/07/2025 11:59:45
# Scanner Center Position (X, Y):	[µm]	49.99	50.01	 
# Rotation:	[°]	0	 	 
# Scan Area (X, Y, Z):	[µm]	5.000	5.000	0.000
# Pixel Area (X, Y, Z):	[px]	100	100	1
# Averaging:	 	1	 	 
# Integration time:	[ms]	5	 	 
# Laser Source:	 	4.5-15 µm nano-FTIR laser
# Detector:	 	R
# Target Wavelength:	[µm]	7.502	 	 
# Demodulation Mode:	 	Fourier
# Tip Frequency:	[Hz]	241,340.500	 	 
# Tip Amplitude:	[mV]	45.700	 	 
# Tapping Amplitude:	[nm]	80.938	 	 
# Modulation Frequency:	[Hz]	0.000	 	 
# Modulation Amplitude:	[mV]	0.000	 	 
# Modulation Offset:	[mV]	0.000	 	 
# Setpoint:	[%]	79.75	 	 
# Regulator (P, I, D):	 	4.206850	8.625812	1.000000
# Tip Potential:	[mV]	0.000	 	 
# M1A Scaling:	[nm/V]	0.426	 	 
# M1A Cantilever Factor:	 	1,000	 	 
# Q-Factor:	 	487.4	 	 
# Version:	 	2.1.11536.0
80.60973       	80.92859       	81.35467       	81.21435       	81.12971       	81.28234       	81.61728       	82.52807       	81.120224      	81.82582       	81.560265      	81.544495      	81.41268       	80.71046       	80.157684      	81.014015      	81.242424      	81.8127        	81.611664      	81.05629       	82.04736       	81.891525      	81.870705      	82.04601       	81.220764      	81.5767        	80.73876       	80.41269       	80.46843       	80.63457       	81.068306      	81.52686       	81.486275      	82.46747       	81.582146      	80.03221       	80.15514       	79.74743       	79.30606       	79.376976      	80.47197       	81.25903       	81.354225      	82.25264       	82.459206      	81.83951       	81.793106      	81.80798       	81.5757        	83.4825        	82.86851       	82.96436       	82.40797       	81.441635      	80.38647       	80.492195      	81.104         	80.70365       	81.37023       	81.889305      	81.994225      	81.03793       	81.37338       	81.624146      	82.515564      	81.85267       	81.17753       	80.34807       	81.46748       	80.974976      	81.33117       	81.19347       	80.81143       	81.94145       	82.20345       	82.50812       	82.29965       	82.182144      	82.45173       	81.49616       	82.09901       	82.68058       	81.644806      	80.13459       	78.65166       	79.578606      	79.9815        	80.32123       	80.48966       	80.51429       	80.25319       	81.35846       	81.97898       	81.88752       	82.58089       	82.86929       	81.70884       	81.711586      	81.776794      	81.31501       	
80.74807       	80.382545      	81.5576        	81.418526      	81.00822       	81.611046      	81.43884       	82.39558       	81.695366      	81.577065      	80.47604       	81.9164        	82.8643        	80.849945      	80.50888       	80.85875       	80.69887       	81.65571       	81.15833       	81.78604       	81.25123       	81.50831       	81.85352       	82.16255       	81.69211       	80.96877       	80.68158       	80.34559       	80.541504      	80.56256       	81.168106      	81.633316      	81.80861       	82.08858       	81.26983       	80.32939       	80.41133       	80.32433       	79.56688       	80.07064       	81.02215       	80.48383       	80.74694       	81.31493       	81.36178       	81.99609       	81.42259       	81.99773       	82.6924        	83.48074       	81.73096       	81.634995      	82.42385       	82.43272       	81.632576      	81.63589       	81.16748       	80.38726       	81.21592       	81.65177       	81.76089       	81.369606      	80.29437       	81.23362       	81.702995      	82.188934      	81.663864      	81.041306      	80.7719        	80.44784       	81.06899       	80.97558       	81.38155       	81.3696        	82.37713       	82.01896       	82.51201       	82.174         	82.727135      	82.32157       	82.360115      	82.62061       	82.80138       	80.715004      	79.134254      	79.45168       	79.66045       	79.65256       	80.30865       	80.545235      	79.9606        	81.02996       	81.91651       	81.40943       	81.89851       	83.33165       	81.97319       	82.17648       	82.192406      	81.40412       	
80.900085      	80.99704       	81.27866       	81.28025       	81.25468       	81.99689       	80.96072       	81.68409       	81.71993       	81.183975      	81.4084        	81.96893       	82.01677       	80.655945      	81.29372       	80.94664       	80.564674      	81.923096      	81.21995       	81.70202       	81.065765      	81.16607       	81.925385      	81.56055       	81.60257       	81.40918       	80.65306       	80.53921       	80.72789       	81.18958       	80.759926      	81.43009       	81.5394        	80.66848       	81.749596      	81.26264       	80.73449       	79.70492       	80.3074        	80.61938       	81.39448       	80.97475       	79.565506      	81.586624      	80.638916      	81.16567       	81.3497        	81.10867       	83.747665      	83.00524       	81.37003       	80.83345       	81.68168       	83.65502       	82.51046       	82.58271       	81.36155       	80.629135      	80.84316       	82.05975       	81.82628       	81.16018       	79.638695      	80.0366        	81.61022       	82.33024       	82.17043       	81.33427       	80.75821       	80.06528       	80.74462       	81.26507       	81.58974       	81.47344       	82.20476       	82.288826      	81.95999       	82.08878       	82.59461       	82.787445      	82.88475       	82.64837       	83.17107       	81.438095      	79.945595      	79.89384       	79.807915      	79.12101       	79.46167       	80.39231       	80.37159       	80.6483        	80.92925       	81.556206      	81.52642       	83.21946       	82.18347       	83.02998       	83.088776      	82.156685      	
80.79128       	81.112976      	81.60464       	81.03104       	81.35771       	81.492004      	81.19837       	81.883575      	81.2565        	81.06373       	81.35246       	81.84381       	80.992805      	81.56951       	80.78311       	81.554794      	80.74848       	81.67302       	81.4684        	81.68995       	81.48531       	81.22958       	81.240234      	81.38536       	80.84329       	81.5849        	81.076225      	80.76746       	80.71169       	81.15404       	80.99782       	81.09581       	81.0155        	80.91793       	81.1086        	82.130196      	81.09257       	80.948265      	80.50211       	81.04251       	81.22883       	81.24479       	81.073456      	79.71627       	79.62475       	80.31001       	80.8253        	81.170296      	83.01628       	82.28623       	81.07993       	80.37158       	81.635         	82.961136      	84.15477       	82.68498       	81.67167       	80.77968       	81.58809       	82.16899       	81.27069       	80.59763       	79.08628       	80.53549       	81.21907       	82.58845       	82.284805      	82.1945        	80.99793       	80.14786       	80.31665       	81.27592       	81.48765       	82.16542       	81.74811       	81.94057       	81.81013       	81.72272       	81.98705       	82.71699       	83.10451       	83.72217       	82.96173       	81.73136       	81.00173       	80.84402       	79.60294       	78.9481        	79.30428       	79.960266      	80.42478       	80.2243        	80.83867       	81.42956       	81.80181       	81.92739       	82.15144       	83.18438       	83.42752       	82.213486      	
80.95853       	81.277725      	81.33761       	82.21398       	80.97781       	80.90568       	80.703865      	81.37299       	80.44448       	82.07839       	81.51241       	81.00131       	80.91042       	81.273155      	80.37821       	81.40699       	81.511795      	80.93821       	81.93775       	81.42798       	82.16374       	81.60359       	81.2851        	81.22383       	80.90191       	80.97511       	81.34321       	80.99463       	79.92793       	81.48227       	81.49503       	81.23422       	81.10311       	81.342575      	81.27761       	81.9681        	81.72703       	81.07521       	80.60692       	81.79682       	80.91332       	81.40895       	81.28515       	79.31385       	80.23068       	79.651245      	80.0488        	80.65015       	82.87809       	82.00392       	80.639595      	79.91634       	80.88533       	82.897255      	84.16125       	83.00453       	81.9104        	82.04269       	82.097496      	81.50013       	80.68524       	79.84342       	79.69989       	80.53864       	81.38986       	82.37171       	82.909004      	81.34162       	82.140625      	80.916306      	79.66665       	81.126724      	81.47132       	82.328094      	81.77243       	81.44411       	81.19117       	81.27705       	81.95559       	82.6316        	83.8281        	83.521576      	81.90245       	81.99781       	82.64941       	81.165146      	80.83099       	79.17789       	78.44543       	79.29184       	80.38743       	79.98812       	80.43401       	81.554184      	81.72784       	82.00583       	82.28245       	82.6361        	82.96501       	82.44023       	
81.05877       	80.906075      	81.48806       	82.5733        	81.12412       	80.11676       	80.752815      	80.84565       	82.10401       	81.17271       	80.64215       	80.75858       	80.759766      	80.52579       	80.65139       	81.44056       	82.098274      	81.62381       	80.76759       	82.2554        	82.29187       	81.82125       	81.239944      	81.35986       	80.94127       	80.65905       	80.871506      	80.31251       	80.8114        	81.088         	80.91695       	82.51226       	80.81631       	81.32231       	81.75008       	81.75933       	81.75507       	81.97098       	81.55421       	80.76655       	81.11768       	81.42578       	80.369675      	80.055786      	80.211334      	80.095215      	80.04797       	80.59443       	81.74008       	81.897446      	80.93972       	79.828964      	80.58221       	82.69989       	82.2831        	83.449745      	82.08786       	82.958405      	82.58798       	81.27648       	80.31707       	80.10231       	79.566475      	80.57664       	81.85454       	82.188644      	83.2225        	82.159485      	81.55903       	81.85996       	80.31781       	80.16212       	81.3185        	81.98768       	82.27915       	81.58012       	80.32205       	80.73909       	81.35453       	83.351814      	84.07653       	83.34028       	82.28257       	81.85887       	82.35718       	81.927986      	81.33503       	79.904144      	78.78308       	78.83309       	80.24309       	79.76332       	80.32745       	81.23727       	81.370544      	81.27411       	82.14982       	81.8353        	82.5326        	82.38292       	
80.73224       	81.38852       	82.017456      	82.08065       	80.99583       	80.11515       	80.12035       	82.05663       	81.308685      	81.4838        	80.58246       	80.65224       	80.32668       	80.64607       	80.9567        	81.47645       	82.06715       	81.73362       	80.991234      	81.53543       	81.89455       	81.435974      	81.34749       	82.45577       	81.2117        	80.230644      	80.549545      	80.81          	80.86214       	80.89608       	81.07269       	81.756004      	81.07863       	81.458725      	81.68152       	81.61981       	81.229454      	81.158165      	82.59436       	81.40519       	81.03881       	81.25103       	80.933         	80.47509       	80.03397       	80.32561       	79.73776       	80.428314      	82.291176      	82.56589       	80.32068       	79.801636      	80.21332       	81.05039       	81.494194      	82.42139       	82.84356       	82.30077       	82.6436        	81.57374       	81.585014      	80.186226      	79.87266       	80.9229        	81.311424      	82.29888       	83.210556      	82.88776       	81.122765      	81.85024       	81.20004       	80.22355       	80.56069       	81.249084      	82.179276      	81.416245      	80.998474      	80.612206      	81.49667       	82.87298       	83.73773       	83.157455      	82.830185      	82.31493       	82.24671       	81.61163       	81.40072       	80.30724       	79.82405       	79.65839       	79.45603       	79.88024       	79.62428       	80.50817       	81.165016      	80.94892       	82.31189       	82.67188       	81.915016      	82.07183       	
80.65791       	82.19797       	81.80712       	81.43614       	80.65189       	80.17935       	80.87241       	82.395035      	81.193695      	81.47503       	80.598495      	80.66849       	80.735855      	80.6291        	81.58287       	81.11968       	82.00903       	81.77144       	80.90296       	81.16324       	81.144394      	81.046036      	82.12183       	83.34415       	80.83784       	79.91501       	81.087776      	81.42069       	81.102295      	80.51805       	80.28253       	81.424225      	81.87234       	80.921555      	81.37629       	81.08675       	80.95196       	81.282074      	82.393295      	81.22791       	81.27785       	82.057686      	80.70798       	81.35056       	81.72798       	79.963974      	79.12367       	80.17127       	82.66259       	82.61704       	81.22716       	79.75867       	80.21648       	81.11661       	80.45844       	81.05941       	81.95743       	82.20191       	82.94328       	81.42212       	81.13201       	81.13046       	80.66644       	80.64304       	81.373146      	82.12751       	82.97177       	82.56392       	80.99038       	81.48077       	82.66172       	80.79669       	80.08328       	80.686676      	81.19222       	81.13905       	81.34199       	80.646454      	81.77899       	82.133675      	83.67044       	83.58373       	82.842865      	82.56217       	81.867355      	81.57791       	81.228325      	80.75112       	81.05711       	80.22802       	79.781364      	79.44337       	79.146965      	79.97229       	80.86016       	80.889015      	83.25963       	83.62859       	81.74042       	81.70434       	
81.0007        	82.376114      	81.34871       	80.5916        	80.73071       	80.9245        	81.693665      	80.875824      	81.30685       	81.648926      	81.57772       	81.0266        	80.43641       	80.70133       	81.83562       	81.40832       	81.687805      	80.92847       	80.821         	80.99074       	81.16357       	81.09442       	82.09054       	82.3766        	81.73779       	80.31909       	81.193275      	82.44286       	81.4223        	80.43289       	79.878204      	80.328476      	81.79201       	81.17841       	80.739456      	80.48104       	82.01056       	81.4704        	81.94432       	81.075714      	80.72941       	81.72879       	81.35607       	81.84793       	81.84188       	80.31735       	79.828514      	80.445694      	80.765564      	83.022415      	81.49528       	80.65866       	81.21667       	80.47746       	80.5776        	80.41224       	79.55322       	82.85318       	80.34625       	80.905396      	80.94294       	81.831825      	80.76606       	81.3003        	81.69992       	81.979324      	82.35554       	81.79141       	81.04219       	81.89558       	82.77393       	81.37654       	80.88585       	80.5384        	80.35508       	80.73181       	81.04822       	81.103584      	80.761444      	81.994545      	83.83206       	83.28166       	82.02703       	83.719345      	81.71197       	81.53402       	80.90588       	81.36421       	82.52215       	81.41724       	80.45927       	78.90412       	78.628975      	79.64088       	80.244446      	80.78038       	83.60206       	83.709854      	81.78285       	81.658424      	
80.768425      	81.68397       	81.2184        	81.07654       	81.1462        	81.922844      	80.809364      	80.95878       	81.39894       	82.00402       	81.641266      	81.28356       	80.79515       	80.495415      	81.17375       	82.1793        	81.21076       	80.415504      	80.479774      	81.351135      	80.98599       	80.57161       	81.069374      	82.74634       	81.71675       	81.16965       	81.605995      	82.41581       	82.09678       	80.859474      	80.44823       	80.04075       	80.840614      	80.537895      	81.14452       	80.21881       	81.545494      	81.708115      	81.812         	81.41469       	81.239586      	81.34226       	81.565186      	81.67553       	81.39117       	80.65738       	80.947426      	80.51295       	80.73919       	80.95049       	82.21813       	81.54273       	81.75543       	81.12834       	79.900154      	79.78446       	80.11267       	80.648         	81.56414       	81.26581       	81.259514      	81.60124       	82.25625       	81.66422       	81.5533        	82.084465      	82.029526      	81.57618       	81.651054      	81.32785       	82.2585        	82.371025      	81.18222       	81.116776      	81.15436       	80.87752       	80.33537       	80.55148       	80.51598       	81.18467       	82.850235      	83.75926       	83.06886       	82.26346       	82.48027       	81.45934       	81.39395       	81.59348       	83.14431       	82.24402       	81.43599       	79.054794      	78.288536      	79.322174      	79.99924       	80.68133       	82.523636      	83.25226       	82.16915       	81.253685      	
81.16704       	81.532715      	81.2857        	81.320984      	82.165955      	80.70085       	81.19866       	80.57168       	81.35011       	82.15009       	81.90959       	81.273735      	81.23084       	80.66924       	81.0334        	81.83364       	81.18851       	80.68953       	80.6287        	80.217354      	81.42144       	81.12153       	80.831276      	81.92214       	81.53926       	82.07162       	81.73827       	82.02587       	81.91771       	81.28113       	80.57811       	80.0108        	80.06744       	81.04958       	81.32888       	80.42343       	80.930435      	81.80982       	82.03262       	81.14051       	81.2721        	80.83335       	82.175446      	81.82474       	80.86544       	80.90579       	81.56838       	80.62235       	80.10283       	80.90585       	81.412926      	82.145836      	82.52464       	81.05574       	80.16743       	79.97203       	79.8305        	80.161804      	79.503075      	80.53081       	81.25275       	81.759384      	82.294266      	81.97919       	81.88554       	81.60107       	81.50295       	81.534164      	81.5532        	82.47099       	81.37981       	81.68562       	81.80099       	82.35243       	81.66455       	81.28973       	80.7994        	80.89041       	80.06597       	81.470024      	81.629326      	82.53483       	83.36781       	82.713684      	81.77575       	81.84705       	81.61405       	81.4121        	83.35082       	84.10739       	81.572815      	79.69226       	79.04          	79.33113       	79.45678       	79.68649       	81.3109        	82.97659       	82.27077       	81.41125       	
80.80385       	81.409966      	80.36477       	83.50918       	81.18803       	80.91807       	81.21524       	80.95264       	81.174866      	81.90744       	81.16746       	81.550575      	81.538536      	81.48466       	80.4266        	81.23595       	81.58063       	81.11707       	80.48146       	80.662674      	80.33929       	80.888405      	81.72359       	81.550385      	81.905174      	82.22217       	81.35832       	80.45011       	81.42278       	82.69682       	80.72072       	80.62362       	80.334694      	80.63065       	81.1003        	80.49999       	81.05247       	81.91056       	82.13758       	80.77353       	81.4361        	81.19513       	81.87139       	81.72527       	80.51351       	81.67617       	81.04448       	80.50831       	80.7005        	81.03254       	81.30744       	81.78985       	81.10042       	81.92669       	80.601906      	81.03055       	80.00886       	79.81652       	79.63952       	79.45715       	81.12571       	82.013985      	81.541794      	82.223946      	81.02183       	81.56771       	81.076035      	80.42355       	82.421135      	81.59144       	82.56886       	82.04193       	81.621346      	81.490166      	82.17892       	82.13694       	81.0643        	81.83179       	81.00841       	80.39149       	81.303955      	82.48758       	83.07473       	82.444176      	81.356735      	81.61816       	82.38521       	82.4487        	83.36227       	82.9534        	81.557274      	80.09506       	80.26816       	79.95325       	79.13528       	78.654106      	80.34041       	82.07522       	82.03061       	81.683205      	
80.40298       	81.236206      	81.43555       	82.018196      	82.07531       	80.76059       	81.28952       	80.93768       	81.41815       	81.18813       	80.751625      	81.17564       	82.478195      	81.199646      	80.841705      	80.79867       	81.302         	81.64582       	80.890114      	79.90682       	80.80354       	81.34156       	81.42967       	81.70777       	82.174286      	81.94694       	80.78397       	80.73016       	81.24519       	81.7349        	81.50234       	81.00564       	80.947136      	80.88265       	80.87483       	80.72513       	80.63358       	81.973694      	81.70432       	81.3401        	81.48314       	81.43833       	81.59743       	81.69617       	81.3955        	81.225586      	80.832436      	80.53273       	81.346306      	81.22521       	80.28616       	81.23406       	81.43386       	82.056076      	81.53361       	81.49676       	80.658585      	79.32537       	79.32135       	80.380684      	81.09904       	81.13535       	82.97717       	81.71492       	81.83739       	80.486275      	79.37746       	80.409744      	81.22648       	80.68529       	82.3078        	82.42286       	81.66072       	81.59212       	82.20298       	82.75769       	81.54104       	82.484375      	81.369965      	80.419716      	81.299576      	81.7317        	82.350235      	82.24117       	81.69179       	81.4968        	82.05331       	83.75161       	83.25061       	82.27991       	81.17895       	81.171326      	81.2357        	80.23833       	79.72547       	78.099495      	79.37624       	81.21737       	81.32571       	82.40913       	
80.93963       	81.159004      	81.97239       	80.89763       	81.88638       	81.412445      	80.90354       	81.40888       	81.465324      	81.093376      	80.61241       	80.522804      	82.02278       	81.8242        	81.252335      	80.75512       	81.53392       	81.55965       	80.97332       	79.91606       	80.0205        	81.675865      	80.97149       	81.242195      	81.76847       	81.59338       	81.28111       	81.08789       	81.03863       	82.28418       	81.54121       	81.09069       	81.09881       	81.33327       	81.181816      	80.75719       	80.496284      	81.18765       	81.799995      	81.658844      	81.34253       	81.703476      	81.05399       	82.41658       	81.6489        	80.568886      	81.02737       	80.906876      	81.44053       	81.589935      	79.9863        	80.68776       	81.724396      	82.26681       	81.66176       	82.32536       	80.93409       	80.12869       	79.98654       	79.571175      	80.65095       	81.37646       	82.66356       	81.63935       	81.55233       	80.987854      	79.9861        	78.969635      	78.183525      	78.49483       	81.76496       	83.195045      	81.95858       	81.833694      	82.59953       	83.09851       	82.329124      	81.89002       	81.87816       	81.02126       	81.24226       	81.623344      	80.49878       	81.381096      	82.25316       	81.94223       	82.46098       	83.144005      	83.71994       	81.88296       	81.69316       	81.76932       	81.67058       	81.12218       	80.67612       	78.48978       	78.44241       	80.0636        	81.55528       	82.57418       	
80.42816       	81.75216       	80.98088       	80.77734       	81.05936       	81.423065      	81.96251       	81.28627       	80.97484       	81.20656       	80.750374      	80.60908       	81.19709       	82.021675      	81.46522       	80.90161       	81.43978       	81.21653       	81.127495      	80.427376      	80.5523        	81.228775      	81.12352       	80.965614      	80.565796      	81.73683       	81.42214       	81.72361       	81.48449       	80.8386        	82.18816       	81.56767       	81.157486      	80.78749       	81.73239       	81.51311       	80.54652       	80.44959       	81.76138       	81.92437       	81.36929       	81.38138       	80.69792       	82.19575       	81.18992       	80.827675      	81.568855      	81.225586      	81.3292        	81.60398       	80.39017       	81.14925       	81.86318       	82.29613       	81.85209       	81.41833       	81.78699       	80.52823       	80.27995       	79.4888        	80.941765      	81.124664      	82.69241       	81.59575       	81.513084      	80.998245      	79.99146       	79.71812       	78.771416      	79.10231       	82.037834      	81.60967       	81.915016      	81.64507       	82.25074       	82.62026       	82.92409       	81.52385       	81.10062       	82.489525      	81.715034      	81.556915      	80.61551       	80.64149       	81.67643       	82.136024      	82.15877       	83.62036       	82.790565      	82.27849       	82.34955       	81.70629       	80.61652       	83.10123       	81.31335       	79.309525      	77.56447       	79.80113       	81.443405      	81.50476       	
80.66098       	81.16397       	80.79625       	80.42444       	81.34908       	80.82887       	82.89666       	81.08611       	81.112946      	80.88484       	81.03456       	80.70335       	81.28195       	81.48852       	80.88865       	81.41319       	81.478264      	81.22628       	81.45823       	80.92483       	81.12638       	81.003426      	80.67138       	80.43801       	80.42487       	81.115364      	81.679054      	81.70019       	82.106895      	81.148056      	81.27602       	82.258415      	81.1478        	80.7949        	81.27091       	81.54479       	80.442154      	80.77435       	81.86972       	82.33959       	81.16339       	81.30861       	80.68315       	80.82212       	81.45269       	81.285835      	81.298294      	81.48725       	81.16045       	81.69332       	81.10865       	81.558235      	82.54733       	82.28641       	81.185165      	81.22063       	81.43061       	81.249         	80.52818       	80.25116       	80.25286       	81.11296       	82.05171       	81.32953       	81.371086      	81.62131       	81.33255       	79.295494      	79.80137       	80.11767       	81.45005       	81.05335       	80.852325      	80.045784      	81.608795      	82.60041       	82.08976       	82.7465        	81.58084       	80.79175       	81.9622        	82.037674      	81.50811       	81.403984      	80.901886      	82.43864       	82.131065      	82.473076      	82.72254       	81.59162       	83.29349       	82.03983       	80.904015      	82.311455      	82.836426      	80.76856       	77.67699       	77.920975      	79.77222       	81.09004       	
80.65995       	81.282524      	80.67938       	80.87819       	80.647736      	81.357056      	82.23364       	81.48542       	80.88547       	81.09462       	81.402176      	80.87805       	81.14418       	80.867584      	80.85794       	81.25187       	81.29494       	81.42454       	81.82926       	81.46924       	81.58651       	80.69883       	80.35774       	80.18786       	80.335         	81.00301       	81.81422       	81.29029       	82.03374       	81.30247       	81.0533        	81.79097       	81.70607       	81.00061       	80.731186      	81.02633       	81.10422       	81.35208       	81.191826      	82.68838       	81.4102        	81.13867       	81.20172       	80.816666      	81.06076       	81.1931        	81.0406        	81.3525        	81.658264      	80.88713       	81.35661       	82.14068       	82.99496       	81.93506       	81.239746      	80.340576      	81.14591       	81.50303       	81.09841       	80.79224       	80.33922       	80.80839       	81.6684        	81.86745       	80.8327        	82.516266      	81.82434       	80.300385      	80.33982       	80.51459       	80.82612       	80.224335      	80.97651       	79.84866       	80.24854       	81.046974      	82.44469       	81.81682       	81.965775      	80.714         	81.84286       	81.920685      	82.564224      	82.61886       	81.64968       	81.58012       	81.775635      	81.73103       	81.06324       	82.048805      	83.03546       	82.60866       	81.856316      	81.336426      	83.77976       	82.08562       	77.65727       	76.72787       	78.671         	80.61871       	
80.221725      	81.02199       	80.86425       	80.918106      	81.17025       	81.06785       	81.4819        	81.58832       	80.974014      	81.31986       	81.43929       	81.37828       	81.40364       	80.2604        	80.87993       	81.243546      	81.33187       	80.72528       	81.737144      	82.097176      	82.08346       	80.83589       	79.89274       	80.06842       	80.43902       	81.21282       	81.66553       	81.72575       	81.406044      	80.79463       	81.45467       	81.85621       	81.57006       	80.96781       	80.86393       	80.62196       	81.501114      	81.393265      	80.85871       	81.57051       	81.89259       	81.7696        	81.390785      	81.03649       	81.07722       	81.02125       	80.99923       	81.07449       	81.46781       	80.89152       	81.91987       	81.93758       	82.41404       	82.87504       	81.203674      	79.73706       	80.746315      	82.02869       	81.24609       	80.87295       	80.56251       	80.92797       	81.30068       	81.889206      	81.9917        	81.46785       	82.39466       	81.07005       	80.80748       	80.570564      	80.68769       	80.98232       	80.7587        	79.64          	80.66135       	80.962944      	80.9052        	80.92056       	81.07977       	81.330536      	81.579994      	81.16283       	83.20594       	83.5311        	82.45231       	81.07282       	81.53729       	81.40314       	80.83697       	81.21493       	83.02524       	83.11567       	82.21443       	81.84171       	82.53621       	83.39873       	78.695465      	76.69764       	78.585335      	80.16985       	
80.53955       	80.85477       	80.72304       	80.54332       	81.039536      	81.568665      	81.394325      	80.77016       	81.55599       	81.100075      	81.10151       	81.4882        	81.48358       	80.75346       	81.00187       	80.48167       	81.84167       	80.739685      	81.39526       	80.96913       	83.143715      	81.50882       	80.0103        	80.29824       	80.701355      	81.193016      	81.60298       	81.707436      	81.44441       	81.04702       	81.190475      	81.779785      	81.336784      	80.391716      	80.99806       	80.9519        	81.14652       	80.86593       	81.09035       	81.32918       	82.1421        	81.762665      	81.26551       	81.87304       	80.77759       	80.94691       	81.07351       	81.21798       	81.338486      	81.734085      	81.17768       	81.692635      	81.29856       	82.47578       	81.99455       	80.94592       	80.40727       	81.73822       	81.33911       	81.08639       	80.977715      	80.48665       	81.056175      	81.47586       	82.63674       	81.54951       	82.083755      	81.684715      	81.035835      	80.95156       	80.621185      	81.15972       	81.12807       	80.20159       	80.17677       	81.41459       	81.53958       	80.65379       	79.602295      	80.98865       	81.199875      	80.99819       	81.57495       	84.30466       	82.44513       	81.08126       	81.68552       	81.95469       	80.93541       	80.66579       	82.82214       	82.952644      	81.79974       	82.42245       	81.88216       	83.486404      	80.26393       	78.41787       	79.44318       	79.81222       	
80.58458       	80.35661       	80.57327       	80.631065      	81.39871       	81.733185      	81.52704       	80.72616       	80.730316      	81.116684      	81.19074       	80.78759       	81.87105       	81.71802       	80.99078       	80.24325       	81.96863       	81.12163       	81.62639       	81.813576      	82.144424      	81.727715      	80.06886       	80.21662       	80.98202       	81.14909       	81.642586      	81.56594       	81.471306      	80.636635      	80.68398       	81.70652       	81.353065      	80.99605       	81.50292       	80.96768       	80.67207       	81.116455      	80.90505       	81.68174       	81.99774       	81.73145       	80.9136        	81.564896      	81.202354      	80.81909       	81.00004       	81.52134       	81.177246      	81.42776       	81.227646      	80.369576      	80.925835      	81.76175       	82.65718       	81.45612       	81.24343       	81.554596      	81.66266       	81.5463        	81.32406       	80.58477       	79.72881       	82.184975      	82.09713       	82.02471       	81.00374       	81.543175      	82.10717       	81.1883        	80.89151       	80.981766      	81.85848       	80.82674       	80.92086       	80.62272       	81.34132       	81.19799       	80.32297       	79.705345      	79.959435      	80.47827       	80.475555      	81.67377       	84.637924      	81.95584       	81.05762       	82.3077        	81.494675      	80.92243       	81.88131       	82.779465      	82.32575       	82.215416      	81.3943        	83.50192       	83.55113       	78.57821       	78.52295       	80.34508       	
80.387024      	79.793915      	80.53694       	80.91957       	80.596405      	81.47978       	81.560875      	81.13229       	80.724014      	80.78814       	81.16014       	80.73047       	81.42853       	81.75691       	81.00308       	80.83593       	81.714554      	82.12275       	81.81717       	81.320526      	82.284676      	81.684074      	80.19404       	80.54056       	81.134895      	80.755806      	81.3252        	81.23629       	81.71729       	80.985634      	80.237625      	80.5543        	81.918205      	80.28284       	82.8833        	81.11931       	80.29125       	80.892746      	81.26571       	81.24483       	82.021         	81.30371       	81.57167       	81.75472       	81.32954       	80.87296       	81.54783       	81.02905       	80.98536       	81.06671       	80.64896       	79.84326       	80.40211       	81.81113       	81.46727       	82.870575      	81.8438        	81.61908       	81.80341       	80.94726       	81.49254       	80.371414      	80.35568       	81.77749       	82.59097       	81.15832       	80.61509       	81.85035       	82.028656      	82.162834      	80.71515       	80.646286      	81.636925      	81.458405      	81.38705       	80.995415      	81.77746       	81.86149       	80.44746       	79.31753       	79.69108       	78.9807        	80.61035       	81.56543       	82.78945       	83.49538       	81.310905      	81.45341       	82.394196      	80.84088       	81.48109       	83.07449       	82.47276       	81.78138       	82.06303       	83.87246       	84.31381       	77.131935      	75.98403       	80.9146        	
80.619064      	79.780815      	79.99966       	80.57101       	80.9023        	80.87268       	81.22759       	81.3647        	80.36322       	80.47979       	81.25196       	81.36956       	81.16474       	81.73671       	81.388596      	80.88823       	82.04803       	82.440025      	82.06507       	81.251595      	81.634384      	81.774734      	80.892075      	80.74869       	80.98995       	80.62255       	80.573235      	81.24739       	81.22982       	82.51883       	81.23125       	80.38442       	81.2155        	81.99671       	81.67276       	80.73091       	80.47156       	80.96264       	81.61907       	81.4379        	81.24679       	80.87107       	81.2387        	81.97212       	82.06892       	81.48253       	81.08708       	81.49092       	80.96317       	80.22081       	80.666         	80.62717       	80.559586      	80.177895      	81.744865      	81.629715      	83.573975      	81.52157       	81.42619       	81.18298       	80.62623       	81.10735       	80.91793       	81.25186       	82.47334       	80.656105      	81.87349       	82.029274      	81.64242       	81.838936      	81.20119       	80.9669        	80.292694      	81.6093        	81.1017        	82.00708       	82.422966      	81.74705       	81.09641       	79.25115       	78.82556       	79.20388       	79.39491       	81.141426      	82.63219       	82.707054      	82.514725      	80.1973        	82.69398       	82.13633       	81.452446      	81.98184       	81.498024      	82.01016       	82.60004       	83.30966       	83.96903       	83.14501       	82.27293       	81.5567        	
80.88685       	79.76561       	79.79054       	80.33749       	80.68587       	80.82701       	81.037964      	80.62634       	80.639496      	80.77848       	80.978355      	81.134224      	80.461136      	81.64084       	82.20726       	81.67437       	81.925964      	83.01138       	81.62855       	80.14573       	81.04058       	81.88101       	81.311844      	81.36151       	80.78423       	80.96974       	80.229485      	81.04645       	81.67529       	81.72713       	81.655846      	80.92696       	81.80709       	80.76869       	81.20231       	81.03931       	80.36224       	81.95264       	82.23092       	80.83328       	80.495125      	80.70096       	81.27176       	81.73436       	81.24568       	82.3807        	81.3271        	80.8661        	81.42579       	80.54147       	80.95521       	81.29641       	80.57883       	80.31885       	80.573654      	81.48251       	82.953896      	82.16041       	81.350525      	81.1261        	80.52527       	80.74199       	81.01074       	81.124084      	82.406296      	82.26578       	81.820755      	81.26805       	80.693275      	81.72222       	81.03484       	81.35705       	81.20645       	80.86134       	81.24466       	82.08036       	82.86688       	81.64419       	81.41943       	79.73822       	78.611435      	79.26175       	79.145996      	80.98386       	81.27497       	81.07158       	82.651276      	81.6173        	82.4088        	82.35923       	82.10188       	82.16148       	82.16784       	81.40134       	82.39161       	82.879974      	83.366585      	85.62266       	84.75283       	82.1186        	
81.080734      	80.66955       	80.109634      	79.98324       	80.170555      	80.94479       	81.022995      	80.35936       	80.477135      	80.76515       	80.91236       	80.46907       	80.839645      	81.23801       	81.74982       	82.61487       	81.33387       	82.70869       	81.31839       	80.64327       	81.4086        	81.38409       	80.87107       	81.40293       	81.50461       	80.92588       	80.542046      	81.066185      	81.34802       	81.192764      	81.93853       	81.828964      	81.38059       	80.51435       	80.619545      	80.85439       	81.04053       	82.437996      	82.56275       	80.90144       	80.81213       	80.26107       	81.0838        	80.623535      	82.04695       	81.55255       	80.53987       	81.26773       	82.038704      	81.08324       	81.18899       	81.27177       	81.12141       	80.58223       	80.65791       	80.63515       	82.76228       	82.977036      	81.096245      	81.58565       	80.91696       	80.17473       	81.00497       	81.62034       	81.91193       	82.36627       	81.99014       	81.98741       	81.69305       	80.52807       	80.62925       	80.66249       	81.36007       	81.024734      	81.53572       	81.846115      	82.78289       	81.56119       	81.73569       	80.84975       	79.16085       	79.146645      	79.655396      	80.39192       	80.97801       	80.30925       	80.86191       	82.74085       	81.90728       	82.26681       	81.923195      	82.02455       	82.481064      	81.603615      	82.623276      	82.71973       	85.1231        	88.17254       	85.95752       	82.15062       	
81.38349       	81.07365       	80.42924       	80.70608       	80.16192       	80.42594       	80.95317       	80.402145      	80.303345      	80.961914      	80.97749       	79.94761       	80.461555      	81.24721       	82.03429       	82.37495       	81.55772       	80.87766       	81.194275      	80.945244      	81.853615      	81.336         	81.37829       	81.080574      	82.031006      	81.028244      	80.64676       	81.22334       	81.00335       	80.75408       	81.46653       	82.40141       	81.881065      	80.243004      	80.58375       	81.25838       	81.442245      	82.53152       	81.826294      	80.58115       	81.1252        	80.996666      	80.915344      	81.038574      	81.49803       	81.24457       	80.808044      	80.79641       	81.41809       	81.34607       	81.570175      	81.35568       	81.46518       	80.555725      	80.47975       	81.14634       	82.89453       	81.95083       	80.68183       	81.40007       	81.51641       	80.45388       	80.5884        	81.60937       	81.85825       	81.42587       	83.065315      	82.192215      	82.09123       	80.54207       	80.204414      	80.88653       	80.79498       	81.3431        	81.66829       	81.057434      	83.105804      	82.08522       	81.33764       	81.456345      	80.15731       	79.51707       	79.516335      	80.50646       	80.715576      	81.12922       	81.59643       	82.00091       	81.27456       	81.368546      	81.545906      	81.50981       	82.069786      	81.92846       	82.67018       	82.93339       	86.43316       	88.38285       	84.74843       	81.66433       	
81.69037       	81.90541       	80.863846      	80.52455       	80.49642       	80.4538        	80.822174      	80.27606       	79.81896       	81.130745      	80.9839        	79.83205       	80.572136      	81.50682       	81.120026      	82.38641       	81.37291       	80.946754      	80.69101       	81.16796       	81.83096       	80.858475      	80.82274       	81.31999       	81.81124       	82.474525      	81.11397       	80.98892       	81.02975       	81.67927       	79.71148       	81.983406      	81.74413       	80.304245      	80.99076       	81.48365       	81.940834      	82.32131       	81.69087       	80.237724      	80.64401       	81.426895      	81.41038       	81.119385      	81.27208       	80.61485       	80.54304       	78.31787       	80.92426       	80.63322       	83.62503       	82.91148       	81.23844       	80.955284      	80.629745      	81.57327       	82.559135      	81.20666       	81.159325      	80.924034      	81.261696      	80.76381       	80.88507       	81.31069       	81.53778       	81.197845      	83.298996      	82.55934       	81.992355      	81.32351       	80.62852       	80.10385       	80.56843       	81.32816       	81.77156       	81.66952       	81.25492       	82.38157       	81.795944      	82.155556      	81.04463       	80.32469       	79.846596      	79.68445       	80.23437       	80.65397       	81.90883       	82.59928       	82.16333       	80.29315       	80.54409       	81.85337       	81.52279       	81.11753       	82.97246       	84.03027       	87.878044      	88.10403       	85.145386      	81.59896       	
81.82493       	82.68734       	81.469505      	80.61743       	80.66913       	80.326836      	80.4442        	80.24998       	80.260605      	80.60975       	80.37018       	80.351265      	80.98154       	81.37524       	81.20645       	81.47922       	81.83231       	81.18801       	80.690094      	81.03534       	81.40664       	81.22471       	81.008675      	80.75749       	81.679146      	82.476715      	81.96926       	81.025566      	80.78095       	81.170044      	80.82994       	82.196266      	81.43664       	80.589516      	80.6294        	81.18198       	82.081505      	81.94978       	81.40884       	80.417625      	80.83835       	81.53906       	81.64369       	81.38768       	80.76942       	79.787895      	79.677765      	80.47167       	80.02572       	80.443596      	83.23118       	82.89653       	82.591324      	80.89498       	80.6174        	81.18397       	81.63357       	82.02056       	80.613594      	80.65671       	81.33207       	80.87506       	80.98387       	81.15609       	81.30142       	80.822426      	81.6287        	82.98749       	82.835815      	82.46599       	81.23022       	80.39514       	79.6739        	80.76568       	81.9569        	81.152534      	81.8201        	81.6872        	82.36003       	82.868866      	81.75394       	80.81569       	79.47523       	79.56153       	79.28543       	81.34466       	81.192635      	83.12099       	82.132         	80.72935       	80.41293       	81.14425       	82.34059       	82.11574       	82.37317       	82.74835       	87.389946      	88.02856       	84.63878       	82.10812       	
81.44246       	82.62347       	81.55461       	81.054756      	81.3079        	80.7273        	80.41692       	79.64719       	79.88289       	80.53096       	80.35827       	80.521225      	81.25258       	81.06756       	81.39505       	81.0805        	81.50286       	81.67437       	80.867485      	80.938705      	81.03479       	81.65013       	81.21795       	80.97216       	80.98247       	82.24738       	81.55511       	81.39445       	80.98301       	81.39165       	81.46183       	81.12079       	81.84837       	81.592705      	80.82851       	80.48631       	81.711685      	81.580284      	81.098816      	80.94188       	81.14093       	81.329185      	81.72311       	81.65031       	81.01175       	79.93298       	80.66099       	80.555214      	80.17875       	81.11517       	82.38739       	82.97009       	81.48962       	81.18183       	80.99235       	81.365295      	81.17325       	81.82294       	80.61952       	80.72789       	81.12458       	81.16114       	81.44218       	79.37694       	78.43229       	79.08727       	81.69761       	82.48002       	84.30672       	81.99083       	81.74188       	80.8083        	78.99825       	80.90171       	81.12988       	80.96133       	81.42855       	82.3964        	82.73467       	82.543365      	81.55593       	81.36478       	80.09414       	79.233665      	80.08909       	81.15547       	80.79087       	82.410065      	81.51578       	81.15826       	80.88684       	81.64892       	82.22723       	83.3691        	82.505424      	80.947105      	86.660355      	87.62985       	84.27365       	82.27497       	
82.15243       	82.56758       	81.77623       	81.535614      	81.504166      	81.62874       	80.086         	79.9656        	80.03535       	80.17935       	79.97522       	80.864456      	81.031235      	81.37607       	80.87736       	80.858894      	81.15039       	81.7252        	80.923935      	80.844086      	80.78927       	81.80326       	81.48928       	80.847404      	81.129845      	80.752655      	82.19309       	82.0485        	81.25755       	81.69245       	81.56894       	81.56097       	80.99133       	81.6137        	81.244385      	81.12574       	81.403854      	80.99165       	80.954735      	81.51388       	81.12756       	81.142006      	81.54857       	81.66083       	80.71489       	80.6305        	80.39256       	80.51803       	80.849594      	81.66502       	82.127655      	82.05988       	81.45571       	81.460144      	80.54652       	82.19859       	81.430275      	81.825714      	80.5475        	80.6773        	80.953865      	81.24939       	81.748566      	80.67402       	80.523605      	80.35015       	80.616425      	82.2354        	84.2369        	82.685135      	81.718315      	80.730034      	79.96159       	80.69486       	80.74769       	80.1018        	81.353935      	82.51541       	82.42461       	82.35815       	81.64007       	81.92993       	80.60274       	79.88275       	79.84442       	80.80552       	81.28746       	81.35716       	81.35838       	81.61796       	81.492714      	81.05968       	82.29142       	83.5328        	83.59271       	80.520935      	83.82571       	86.31243       	84.19382       	82.10996       	
81.95955       	82.44445       	81.77587       	81.75325       	82.25151       	82.240234      	81.02369       	80.018486      	80.27917       	79.75512       	80.16704       	80.13598       	81.229576      	81.090454      	81.25064       	80.82419       	81.441635      	81.059586      	80.41638       	80.88025       	81.1145        	81.242775      	81.46218       	81.03895       	81.347084      	81.43607       	81.43485       	82.053505      	82.05972       	81.836006      	81.43139       	80.972916      	80.93602       	81.38351       	81.55659       	81.43237       	80.76949       	81.211914      	81.150856      	81.15255       	81.085655      	81.61737       	81.55515       	80.77723       	80.82542       	80.89458       	80.22948       	80.9034        	81.44026       	81.28149       	81.94446       	82.08579       	81.69471       	81.18131       	81.32745       	82.05207       	80.72391       	81.9037        	80.79235       	80.951935      	81.485344      	81.14727       	81.33353       	81.420166      	80.75643       	80.0452        	79.93521       	80.98825       	84.24039       	83.181564      	81.81699       	80.52064       	79.98897       	81.68774       	80.65673       	80.45508       	80.87545       	81.335205      	81.777         	82.69252       	82.496994      	82.43153       	80.79251       	79.79194       	79.88594       	81.10145       	81.018394      	81.08081       	81.80277       	81.63743       	81.29495       	81.33075       	80.85593       	82.75718       	84.07998       	81.96145       	82.58469       	85.50786       	85.55538       	84.42959       	
81.86797       	83.149315      	81.60348       	81.50991       	83.40195       	83.0639        	81.886566      	80.45285       	80.54716       	80.06099       	79.635666      	79.94286       	80.588196      	80.949745      	81.11039       	81.05781       	80.932304      	81.31256       	80.94197       	80.51679       	81.14427       	81.331116      	81.603226      	81.10469       	81.2864        	81.422226      	82.122604      	82.232         	81.59628       	81.38495       	81.50218       	81.45114       	80.66321       	81.50331       	81.82294       	80.11233       	78.848885      	81.14563       	81.16717       	81.45221       	81.261185      	81.538956      	81.00796       	80.939255      	81.496574      	80.76468       	80.76239       	81.05801       	81.25322       	81.36697       	82.00871       	81.85403       	81.55535       	81.006516      	80.568634      	81.888695      	81.247444      	81.21273       	81.06478       	81.2511        	81.63072       	81.511444      	81.77441       	81.80751       	80.551125      	79.390724      	79.50783       	81.034904      	83.042984      	83.57842       	82.340454      	80.488434      	79.753716      	82.46641       	80.78389       	80.73648       	81.01867       	81.13922       	80.8841        	82.71276       	83.374214      	82.23415       	81.014755      	80.26702       	79.7162        	80.48767       	81.26101       	81.04879       	81.668915      	81.77341       	80.812965      	80.87901       	80.77969       	81.20543       	83.33112       	83.39341       	83.57715       	86.2098        	85.55058       	84.54465       	
81.20005       	82.68101       	83.26628       	82.28495       	81.75746       	84.09716       	82.11897       	81.25567       	80.51175       	79.93428       	79.74301       	79.609695      	80.36297       	80.797714      	81.05864       	80.58188       	80.81356       	81.31954       	81.12511       	80.59755       	81.43436       	81.55008       	81.598816      	81.58918       	81.02647       	81.677635      	82.114296      	81.65095       	81.17832       	81.03243       	81.59721       	81.91519       	80.797745      	81.19531       	81.41515       	81.02513       	80.96553       	80.59185       	80.787285      	81.98574       	81.19581       	81.207115      	81.209755      	81.18188       	81.610855      	81.25948       	80.94944       	81.1283        	81.169395      	81.24924       	82.10799       	81.271935      	80.8701        	80.689026      	80.884346      	81.06243       	81.59003       	81.60316       	81.1839        	80.62954       	81.550735      	81.77099       	82.07772       	82.012314      	80.62577       	79.21458       	79.551765      	80.93519       	81.64259       	83.9992        	82.587524      	80.204666      	80.699486      	80.900696      	81.32028       	81.0197        	81.58825       	80.81962       	81.19498       	82.60802       	83.32667       	82.194084      	81.42797       	79.94867       	79.88102       	80.540504      	80.7106        	82.160904      	81.93054       	80.22892       	80.48559       	80.390465      	80.49553       	80.327545      	82.790344      	84.63785       	85.01271       	87.78813       	87.352066      	85.04214       	
80.58293       	83.038246      	83.593925      	82.19539       	82.441734      	82.173294      	83.38462       	81.78505       	80.94462       	79.9433        	80.03598       	79.55511       	80.04211       	80.27405       	81.01009       	80.835075      	80.448875      	80.74692       	81.326096      	81.276054      	81.13453       	82.25967       	81.54804       	81.229866      	81.521866      	81.52357       	81.598656      	81.210526      	81.48958       	81.33129       	81.2753        	81.9762        	80.82884       	80.67821       	81.29396       	80.81901       	81.18616       	81.1338        	81.164116      	82.14739       	81.13362       	80.79542       	81.243355      	81.60939       	81.29108       	81.32496       	81.491905      	81.46454       	81.066444      	81.15754       	81.72887       	81.06011       	80.6958        	81.31324       	80.92982       	80.65242       	80.86766       	82.73674       	81.25264       	81.36969       	81.067474      	81.18527       	81.45074       	82.00361       	80.63196       	79.43779       	79.90689       	80.65932       	79.867355      	82.1118        	83.81877       	82.0402        	80.53163       	79.06723       	81.173485      	81.511696      	82.094154      	81.20234       	81.0573        	81.973854      	82.92421       	82.63741       	81.515884      	80.35726       	79.49404       	80.78384       	82.074814      	82.191055      	80.84875       	80.497604      	79.41556       	80.17347       	79.97675       	79.99673       	81.35126       	84.052925      	86.00219       	88.21406       	87.70904       	85.966675      	
80.897484      	82.14225       	82.82235       	82.649956      	81.61543       	82.345924      	83.51434       	82.55858       	81.32361       	80.530334      	80.11686       	79.456375      	79.42571       	80.58684       	80.65198       	80.72697       	80.46109       	80.86061       	81.33528       	81.73679       	81.058         	81.86951       	81.70529       	80.985855      	81.67774       	81.46357       	81.26753       	81.88486       	81.56752       	81.11778       	80.370224      	81.48211       	80.97664       	80.60461       	81.37502       	81.34116       	81.26028       	81.1003        	82.03991       	82.07393       	80.42318       	80.44046       	81.069855      	81.24031       	81.44179       	81.723495      	81.763794      	81.306015      	80.96171       	81.54277       	81.3385        	80.89703       	81.11676       	81.56471       	80.96548       	80.75634       	81.55017       	81.99225       	81.75265       	81.05102       	80.84265       	81.43418       	81.53413       	82.02437       	80.42362       	80.06458       	80.07161       	80.311485      	79.95557       	82.120155      	84.0117        	82.10246       	81.098724      	80.299736      	81.41615       	81.79168       	81.0593        	81.46678       	81.61134       	81.42522       	82.34362       	82.68773       	81.826164      	80.47099       	80.04107       	81.25593       	81.52265       	80.85195       	82.84478       	80.825485      	79.72387       	79.63309       	79.29687       	79.068474      	81.30206       	82.95557       	86.462524      	88.52146       	88.62241       	87.70971       	
80.56005       	80.335915      	82.46169       	82.75764       	82.45374       	82.47241       	83.036545      	82.79367       	81.60953       	80.56575       	80.29906       	79.50568       	79.41531       	80.69819       	80.493454      	80.74161       	80.85649       	81.0445        	81.20518       	81.33725       	81.40948       	80.733376      	81.905396      	80.97787       	81.524925      	81.57005       	81.51473       	81.790146      	81.901855      	80.78285       	80.72162       	80.68441       	81.17758       	80.46854       	81.23666       	81.56177       	81.276215      	81.52799       	81.92465       	81.6929        	80.15554       	80.75705       	81.56761       	81.06132       	81.39791       	81.74126       	81.33741       	80.96007       	81.24265       	81.5664        	81.24788       	81.18329       	81.22016       	81.34209       	81.00666       	80.99077       	81.540115      	81.60868       	81.367516      	81.63299       	80.876854      	81.56501       	82.36294       	81.606514      	80.72134       	80.54359       	80.188614      	80.02571       	79.416824      	81.74214       	82.60764       	82.110756      	82.1369        	81.98125       	81.47736       	80.26384       	81.43026       	81.36644       	81.95092       	80.844574      	81.09906       	83.08922       	81.78789       	80.90193       	80.54529       	80.779785      	81.47426       	81.42565       	81.70202       	79.698235      	81.0236        	79.85981       	79.58409       	78.929955      	80.25075       	81.35749       	85.68941       	88.556984      	88.64027       	88.120384      	
80.461914      	80.014824      	82.31707       	82.28991       	83.10755       	82.95324       	83.342255      	82.83022       	81.50552       	81.11163       	80.51831       	79.789345      	79.66499       	80.44281       	80.321335      	80.43947       	81.2883        	81.01536       	81.22593       	81.13879       	81.24082       	80.79227       	81.37603       	81.1515        	81.78146       	81.21401       	81.72465       	81.5496        	81.64954       	81.15859       	81.0607        	80.596855      	80.72185       	81.46818       	80.98255       	81.52938       	81.45378       	81.67836       	81.522964      	81.15651       	80.983154      	81.00922       	81.40736       	81.01174       	81.256096      	81.233986      	81.34813       	80.95595       	81.58092       	81.145805      	80.27946       	82.00549       	81.82119       	81.24711       	80.74717       	81.95159       	81.09882       	80.51923       	81.3244        	81.62793       	81.63934       	81.49027       	82.52772       	81.78553       	81.30277       	80.58468       	80.32378       	80.19393       	80.01466       	80.111374      	81.19345       	82.24497       	82.72729       	81.88198       	81.74229       	80.878265      	81.283394      	81.81035       	82.024185      	81.33341       	81.459984      	82.35906       	81.93202       	81.21082       	80.47464       	79.91739       	81.89065       	81.5771        	81.91602       	81.13606       	80.60744       	80.54328       	79.01795       	79.65801       	79.72059       	80.92417       	84.73772       	88.34853       	88.580635      	87.79236       	
80.269424      	79.9503        	81.17124       	81.7386        	83.68899       	82.64731       	83.6767        	83.126045      	81.49035       	81.30542       	80.843094      	80.628494      	80.70827       	79.95367       	80.0829        	80.72865       	80.33369       	80.817795      	80.930565      	81.03725       	81.3608        	81.12361       	80.71855       	81.195015      	81.72397       	81.53163       	81.46072       	81.61986       	81.21636       	81.34612       	81.11929       	80.893524      	81.00493       	81.384346      	81.11976       	81.556526      	81.43722       	81.25777       	81.22726       	81.07124       	81.76833       	81.57859       	81.03623       	80.777756      	80.93822       	81.21518       	81.27643       	80.845276      	81.799416      	81.42801       	81.21907       	81.81411       	81.19087       	81.36839       	80.4442        	81.32833       	81.1148        	80.33882       	80.56085       	81.77135       	82.81447       	81.47222       	81.96678       	81.66595       	81.21623       	80.97983       	80.877304      	80.60642       	80.17518       	80.200645      	80.65809       	81.23169       	81.50339       	82.64175       	82.36336       	82.03837       	80.59081       	81.383545      	82.18593       	80.954834      	81.41433       	81.71756       	82.028336      	81.44528       	81.06624       	80.71803       	80.97798       	81.3504        	82.01469       	81.655         	80.6304        	80.67369       	80.32026       	79.78446       	79.50283       	80.95709       	83.20607       	87.40832       	88.40032       	87.02973       	
80.29224       	79.74415       	80.5855        	80.48703       	83.74532       	82.97843       	84.24478       	82.96893       	81.467964      	81.14514       	82.37553       	81.47006       	80.85963       	79.95839       	79.94015       	80.129906      	80.199875      	80.60934       	80.25104       	80.66931       	81.51741       	80.9832        	81.190414      	80.68745       	81.4278        	81.6629        	81.31945       	81.70656       	81.99437       	81.22408       	80.39874       	81.186485      	81.9672        	81.63145       	80.615524      	81.40278       	81.39376       	80.73456       	81.06088       	81.862465      	81.79512       	81.6203        	81.0561        	80.89501       	81.14552       	80.98974       	81.1617        	81.11977       	81.17257       	81.99028       	81.54162       	81.8684        	81.338684      	81.03623       	80.73898       	80.36183       	81.28797       	81.1587        	80.69287       	80.40283       	82.72466       	82.07923       	81.37082       	81.91944       	80.85132       	81.1963        	81.55079       	80.91998       	79.59474       	80.39658       	80.73448       	81.181854      	81.33448       	82.353195      	81.72087       	82.504944      	81.823074      	81.884735      	81.19889       	80.62106       	80.4899        	81.9825        	82.07505       	81.4556        	81.584724      	80.937775      	80.21571       	81.123924      	81.57927       	82.176544      	80.83613       	80.55835       	81.41581       	80.621056      	79.856186      	79.94247       	82.1358        	86.062035      	88.21621       	87.07986       	
80.09832       	80.156876      	79.62214       	80.22734       	83.151985      	83.73529       	84.20716       	83.73957       	81.64833       	80.78846       	82.89703       	82.09926       	81.43436       	80.00875       	79.33231       	79.99769       	80.18143       	80.63828       	80.59404       	80.4509        	80.803764      	81.48899       	81.35342       	80.65287       	80.8824        	81.407074      	81.60288       	80.53365       	82.364525      	81.620636      	81.22453       	80.81995       	81.94797       	81.811325      	81.376724      	81.07097       	81.25276       	80.89086       	81.046814      	81.65829       	81.9665        	81.424736      	80.89941       	80.97414       	81.23455       	80.964485      	81.385796      	81.29713       	81.57422       	81.73237       	81.58121       	81.52853       	81.2512        	81.20735       	80.265175      	80.66727       	81.03129       	81.20966       	81.06811       	81.156586      	81.17079       	81.51712       	81.574684      	81.724754      	81.11256       	81.18473       	82.270325      	81.06452       	79.67193       	80.414925      	80.48013       	80.69311       	81.566124      	81.264755      	82.865875      	82.68944       	81.35879       	82.01108       	81.50137       	79.867485      	81.15502       	81.4662        	82.21025       	82.238205      	81.44169       	80.92213       	80.741295      	80.43995       	81.46974       	81.26775       	81.144264      	81.452644      	81.16718       	81.09022       	80.24705       	80.05521       	79.93782       	85.00809       	87.98835       	86.72106       	
80.58632       	80.06287       	80.19021       	80.27135       	81.528755      	83.27379       	82.93724       	84.5293        	82.65086       	80.81003       	81.462204      	82.79205       	82.7722        	80.02131       	79.433464      	80.021614      	80.10971       	80.2326        	80.685715      	80.58614       	80.42702       	81.49315       	81.62949       	80.90774       	80.698975      	81.358         	81.34812       	80.70229       	81.50076       	81.72096       	81.36055       	81.35259       	81.35515       	81.99172       	81.47226       	81.71146       	81.412544      	81.29579       	80.10662       	81.700226      	81.85942       	81.09332       	80.564285      	80.85894       	81.17168       	81.3708        	81.37493       	81.03054       	82.12917       	82.174934      	81.38302       	80.992226      	81.66169       	81.38752       	81.04561       	81.05546       	81.377335      	81.09689       	80.15775       	80.75532       	81.41365       	81.27859       	81.70547       	81.5036        	81.418526      	81.56765       	81.320435      	81.06956       	80.42337       	80.615364      	80.418045      	80.05575       	80.9881        	81.912605      	81.79518       	82.34337       	83.24067       	81.23543       	81.11464       	81.14533       	80.81316       	81.68758       	81.51197       	81.36992       	82.41842       	81.61598       	81.01052       	80.298225      	80.61793       	81.043045      	80.939476      	82.277374      	81.608025      	80.69247       	79.59043       	80.910355      	79.471634      	84.07156       	87.699265      	87.32291       	
80.53689       	80.64565       	80.638466      	80.51163       	81.05879       	81.98263       	82.35441       	82.95186       	83.75295       	81.46149       	81.79792       	84.37831       	82.47818       	80.594505      	79.158035      	80.01544       	79.85938       	80.359726      	80.77785       	80.84001       	80.25311       	80.74498       	81.55367       	81.68875       	80.205864      	81.55283       	81.16074       	80.31827       	81.51681       	81.961845      	81.64482       	81.06014       	81.52594       	81.568596      	81.669174      	81.598976      	81.94746       	80.48858       	80.851105      	81.40261       	80.67584       	81.941025      	80.565346      	80.89545       	81.49271       	81.31699       	82.02188       	80.93249       	81.28564       	81.42791       	81.41385       	81.24831       	81.62814       	81.86512       	81.298096      	81.20388       	80.967964      	80.69819       	81.23808       	80.34798       	81.04387       	82.07464       	81.21217       	79.57341       	81.61268       	81.29352       	82.68827       	81.42909       	80.06333       	80.70738       	80.26301       	80.06191       	81.219376      	81.95196       	81.78902       	82.4478        	82.26306       	81.206245      	80.66865       	81.884415      	81.25077       	81.03602       	81.160065      	81.631744      	82.04738       	82.254974      	81.097725      	79.69656       	80.872665      	81.57199       	80.985054      	81.90689       	81.9442        	80.83173       	80.53296       	79.919624      	78.974754      	83.43034       	87.38255       	87.044205      	
80.64169       	80.95327       	80.7098        	80.50421       	80.70882       	81.238434      	81.67132       	82.35481       	82.16205       	82.845055      	83.44358       	84.44791       	82.41486       	81.453514      	80.32196       	79.254684      	79.69116       	80.09839       	80.976234      	80.83036       	80.08615       	80.68513       	81.55584       	81.17582       	81.19758       	80.87825       	80.76218       	81.16413       	80.95796       	81.636955      	81.42246       	81.35063       	81.40659       	81.63384       	81.15916       	81.571526      	82.31206       	80.768         	81.10684       	81.53953       	81.71674       	80.80438       	81.08773       	80.686195      	81.08981       	82.05512       	81.86791       	81.009445      	80.72359       	80.887825      	81.6456        	81.30197       	81.046776      	81.677         	81.91292       	81.161446      	80.9609        	81.51285       	81.33426       	81.01751       	80.323         	81.336525      	81.227005      	80.60347       	81.62194       	81.29934       	82.02759       	81.68232       	80.74953       	80.41103       	81.15107       	81.05311       	80.0443        	81.71462       	81.12422       	81.40283       	82.2305        	81.74455       	81.47465       	81.57387       	81.52875       	80.67253       	81.29777       	81.45534       	81.776924      	81.98917       	81.17241       	80.43201       	81.19736       	81.00848       	81.311035      	81.77188       	81.68508       	80.835075      	80.84388       	79.42397       	79.045815      	83.224365      	86.34501       	86.36391       	
81.13662       	80.98656       	81.10534       	79.74594       	80.399055      	80.86932       	81.13511       	81.54693       	82.29852       	82.92988       	84.76556       	83.31927       	83.638115      	82.56759       	81.105965      	79.4215        	79.07901       	79.38879       	81.10943       	80.57784       	80.34903       	80.50993       	81.363205      	81.458176      	81.09383       	80.74177       	81.197876      	80.934326      	80.995255      	81.784355      	81.49916       	81.26782       	81.242775      	80.46108       	82.79433       	81.994675      	81.05433       	81.2327        	79.86205       	82.38395       	81.90415       	80.92531       	81.587074      	81.59715       	81.76195       	81.52044       	81.27241       	80.45403       	80.66211       	80.82568       	81.2791        	80.95483       	80.92989       	81.598816      	81.06963       	81.946495      	81.42623       	81.53408       	82.177345      	80.05527       	82.19565       	80.80214       	81.30038       	80.17065       	81.40138       	81.166626      	81.82469       	81.43104       	81.96103       	81.00545       	81.321075      	80.71073       	81.14897       	80.71929       	80.36119       	80.58642       	81.70058       	81.99408       	81.78591       	82.002304      	81.07071       	81.28604       	81.31303       	82.02012       	81.3985        	81.631355      	81.435905      	80.472885      	80.78128       	81.645744      	81.49031       	81.77901       	81.400826      	80.23368       	81.093796      	79.19139       	79.88537       	82.9847        	84.88642       	85.96767       	
80.762566      	81.224625      	80.16522       	80.43148       	81.110855      	80.28883       	80.078964      	80.82582       	82.4163        	82.66356       	84.54853       	83.62236       	83.2765        	83.49657       	82.173065      	79.89211       	79.39835       	79.19453       	80.41675       	80.50529       	80.67637       	80.76035       	80.85781       	80.86752       	81.09225       	81.21687       	81.23445       	81.17944       	81.037315      	81.62797       	81.62468       	81.41477       	81.15891       	80.70049       	82.52936       	81.601456      	80.730774      	80.70392       	81.07051       	80.83699       	81.26603       	81.46166       	81.40847       	81.716805      	81.89403       	81.42053       	81.09374       	80.90044       	80.912125      	81.17041       	81.01118       	80.57284       	80.54908       	81.674355      	81.939316      	82.132706      	81.94303       	81.689026      	81.234795      	81.29018       	81.147804      	80.319         	81.44169       	79.80646       	80.95764       	82.258194      	82.21319       	81.613846      	81.11918       	81.58371       	80.98167       	81.104416      	80.93134       	79.79215       	80.78933       	80.83985       	80.71072       	82.02315       	81.88288       	81.300644      	81.38654       	82.15215       	81.34591       	82.09036       	81.95811       	81.61461       	81.02452       	80.9488        	80.353806      	81.561516      	81.725494      	81.00142       	81.30885       	81.11887       	80.16148       	79.32729       	80.85345       	82.360886      	83.271545      	85.462975      	
81.41708       	80.97805       	80.824844      	81.19335       	79.41983       	80.54161       	80.47349       	80.30016       	81.20812       	82.743675      	84.20413       	83.82019       	83.24531       	82.60252       	83.73391       	81.2658        	79.03876       	79.69177       	80.05898       	80.00977       	80.7254        	80.82745       	80.46519       	81.148705      	81.04598       	81.158455      	80.856346      	81.24039       	81.70119       	81.930305      	81.71719       	81.39027       	80.83284       	81.114006      	80.54447       	82.573616      	80.0164        	80.83068       	80.64676       	80.7875        	81.15401       	81.46337       	81.56167       	81.23985       	81.41797       	80.83991       	81.489876      	81.10509       	81.41835       	81.259995      	81.09387       	81.12356       	81.06573       	81.317154      	82.04109       	82.16309       	82.50438       	80.30558       	81.37672       	81.05477       	80.59929       	81.131714      	81.06552       	80.40156       	82.263756      	81.693886      	82.39883       	80.75978       	80.9935        	81.9523        	81.571686      	80.45251       	80.10165       	80.98992       	80.07615       	80.590675      	80.648735      	81.52776       	82.426674      	79.51556       	81.80178       	81.99173       	82.38528       	81.45689       	81.87619       	81.5907        	81.207726      	80.95261       	80.5243        	81.08037       	81.954056      	81.9147        	80.50348       	81.049904      	80.6891        	79.65326       	80.696175      	81.17762       	83.630615      	84.236946      	
81.07007       	81.16979       	81.44583       	79.850685      	80.23176       	79.58151       	79.97081       	80.59232       	81.10513       	82.3709        	83.557304      	83.16701       	83.08708       	83.34052       	83.46986       	82.31796       	80.3339        	79.84028       	80.13871       	80.00324       	80.16252       	80.690544      	80.283844      	81.318405      	81.65734       	80.65435       	80.38395       	81.43212       	81.75272       	81.89226       	81.9096        	81.01982       	81.05773       	81.086716      	79.612175      	81.090866      	78.48106       	81.038704      	80.430786      	80.53159       	80.521736      	81.384705      	81.36151       	81.263535      	81.385994      	80.58118       	81.03308       	81.283356      	81.2808        	80.79988       	81.40145       	82.12125       	81.3315        	81.06378       	81.71095       	81.88909       	82.214874      	80.92007       	81.191956      	81.50426       	78.89541       	80.581024      	81.15099       	81.789856      	81.747246      	81.74403       	82.16435       	80.574615      	80.64865       	81.04699       	81.11622       	81.85127       	79.919846      	80.816666      	80.74879       	81.77625       	80.32166       	80.78733       	81.63007       	82.89031       	81.98567       	80.92353       	81.45625       	81.64516       	81.75833       	81.79376       	81.46662       	80.7277        	80.446266      	81.78339       	81.8186        	81.6662        	81.24093       	81.07209       	81.04646       	80.9102        	79.9065        	80.303764      	82.61047       	83.1158        	
81.30834       	81.22445       	80.70558       	80.042984      	79.661736      	79.50776       	79.921265      	80.230354      	81.02873       	81.83575       	82.99773       	82.760956      	82.47379       	83.04277       	83.60202       	84.34547       	81.54763       	80.35826       	79.623215      	79.94184       	80.16184       	79.80889       	80.85631       	81.57858       	81.141685      	80.346664      	80.46012       	81.07381       	82.157974      	81.77737       	81.44961       	81.18892       	80.87272       	81.4014        	81.18713       	81.8055        	80.99864       	81.60501       	80.56524       	80.63881       	80.75449       	81.25819       	81.692604      	81.57332       	80.851074      	80.74167       	81.15709       	81.33785       	81.23352       	81.07021       	81.58453       	81.39921       	80.57199       	81.22739       	81.625206      	81.49915       	81.93018       	81.58312       	81.71659       	79.297165      	82.14376       	82.96505       	81.59089       	80.61571       	81.81599       	81.42052       	80.84694       	80.19353       	80.21855       	80.739494      	81.046684      	81.990585      	81.08757       	81.1022        	81.68276       	81.747505      	80.55949       	80.334145      	81.53321       	81.88          	81.70462       	81.30096       	80.90794       	81.29519       	80.60808       	82.177986      	82.08431       	81.18899       	81.00619       	81.89369       	80.75869       	81.34155       	81.72509       	81.13446       	81.14571       	81.85168       	80.72851       	80.33189       	81.946945      	82.74221       	
80.91366       	80.673256      	80.28198       	80.094955      	79.81119       	79.57361       	80.14658       	80.0961        	80.648254      	81.388664      	82.2822        	82.56874       	82.79474       	82.909836      	83.87134       	84.68233       	82.72805       	81.211975      	80.13016       	80.15889       	79.61367       	79.80054       	80.44201       	81.0773        	80.77787       	80.35769       	80.622925      	81.67058       	81.3493        	81.94804       	81.47009       	81.00765       	81.71196       	80.86192       	81.147705      	81.06517       	80.80199       	81.76936       	80.97311       	80.96299       	80.94851       	81.342766      	82.002335      	81.829346      	80.72375       	80.65389       	80.98014       	81.50627       	81.36613       	81.13427       	81.34956       	80.89629       	80.33346       	81.088104      	81.93284       	81.40204       	81.422356      	82.64384       	83.45789       	80.94516       	82.8301        	81.19004       	82.03757       	81.044945      	81.37771       	79.13012       	80.50665       	79.92506       	80.09113       	81.04114       	81.28826       	81.850716      	82.04526       	81.18141       	83.024414      	81.1975        	79.39179       	80.436646      	80.70212       	80.41647       	81.7968        	82.74457       	81.62187       	80.54395       	80.44355       	81.87563       	81.62489       	81.74792       	81.15534       	81.798         	81.60445       	81.06403       	81.64176       	81.0812        	81.27059       	81.769424      	80.85524       	81.41625       	81.60368       	80.992714      	
81.1774        	80.015274      	80.42729       	80.6752        	80.56074       	79.237785      	80.22478       	80.29925       	80.67607       	81.02154       	82.042534      	81.60511       	82.40394       	82.74734       	84.08114       	84.2454        	83.23267       	82.44773       	81.410355      	80.26226       	79.253296      	79.29306       	79.97317       	79.99849       	81.0372        	80.672         	80.93046       	81.496895      	81.266785      	81.715515      	81.64747       	81.06544       	81.90033       	80.61517       	80.70549       	80.89979       	80.67396       	81.021736      	81.65505       	81.557106      	81.2788        	81.08204       	81.82485       	82.21896       	81.39177       	80.80663       	80.74067       	81.64513       	81.08769       	80.830376      	80.890114      	80.58701       	80.669495      	81.21289       	81.55364       	82.54732       	81.41944       	85.32699       	82.862625      	79.35667       	81.31115       	80.676216      	81.10255       	80.07022       	79.930534      	80.23718       	80.04362       	80.322044      	79.740875      	81.575005      	81.61903       	81.74511       	81.57666       	82.18138       	82.35058       	80.68455       	80.529686      	81.77381       	80.94666       	80.36263       	80.7302        	82.511856      	80.81054       	80.97174       	79.59805       	82.00176       	80.968254      	82.34312       	81.55447       	81.689995      	81.21863       	82.108055      	81.92008       	81.032104      	81.59603       	80.34759       	81.23297       	81.10564       	79.814415      	79.61269       	
80.50945       	80.562744      	80.74329       	80.82396       	80.694405      	80.76183       	80.298096      	79.437935      	80.533104      	82.00683       	83.05068       	81.743004      	81.02759       	82.34898       	82.983154      	83.49336       	83.391975      	83.23876       	82.744         	80.930145      	79.5629        	79.030365      	78.98684       	80.12295       	80.73987       	81.143074      	81.02313       	80.90498       	80.59077       	82.22485       	81.95486       	81.45716       	80.45056       	80.01173       	81.493065      	81.062195      	81.151695      	81.31784       	80.124016      	81.68512       	81.83457       	81.306404      	81.95119       	81.88215       	81.52942       	81.606606      	80.86845       	80.65977       	81.85495       	80.36267       	80.5792        	80.86837       	80.80105       	83.21555       	81.9103        	83.55123       	82.441505      	84.62427       	82.305016      	82.088806      	81.04727       	79.68858       	80.19206       	79.82033       	79.13431       	79.87594       	79.72559       	79.68207       	79.766106      	80.7895        	81.17233       	81.42453       	81.832245      	81.28926       	82.56695       	80.93415       	81.226135      	81.49636       	82.595116      	80.78934       	80.12616       	81.23333       	80.99759       	81.96517       	80.896034      	81.16442       	80.28396       	81.711754      	82.67401       	81.389755      	81.297905      	81.92403       	81.985565      	81.45521       	81.94164       	80.622696      	80.10795       	81.29732       	80.91556       	80.118576      	
80.412735      	80.55156       	80.921165      	80.66135       	82.04749       	80.76154       	80.09198       	79.4352        	80.15514       	81.51738       	83.48617       	81.53018       	81.666084      	81.63114       	83.273094      	82.74377       	83.179436      	83.4167        	82.62209       	81.66306       	80.256165      	79.318794      	79.15449       	79.50075       	80.71958       	81.14755       	80.67213       	80.87656       	81.17557       	81.84735       	81.89753       	81.488205      	79.60463       	80.57875       	81.29476       	81.161865      	81.33817       	81.52249       	81.578224      	81.50597       	80.42895       	81.38512       	81.67264       	81.24188       	81.64076       	81.36229       	80.97843       	81.52864       	80.92501       	81.09659       	81.04688       	80.58578       	82.5172        	82.25773       	84.13771       	83.68506       	84.01245       	83.90885       	82.621025      	80.81416       	80.214905      	79.40368       	79.65329       	80.54389       	80.27208       	79.13279       	79.142044      	79.49236       	79.3517        	79.75373       	81.32674       	80.70602       	81.77549       	81.881134      	79.80825       	79.38355       	82.42935       	79.87769       	82.303696      	80.9914        	81.781494      	80.66055       	82.11727       	79.95862       	80.42714       	80.25985       	82.24751       	81.60965       	82.152534      	81.08668       	81.05401       	81.33038       	82.116264      	82.17526       	82.676216      	80.76504       	80.11755       	81.3858        	80.715675      	79.89828       	
80.74894       	80.754234      	81.30071       	81.851204      	82.09987       	81.190475      	79.235214      	79.13232       	80.603745      	81.9235        	81.92896       	81.2928        	82.30191       	81.438324      	82.788994      	83.566284      	83.05551       	83.50933       	82.28175       	82.167755      	80.69101       	80.49155       	79.57649       	79.736244      	80.15124       	80.53065       	80.54533       	80.46125       	81.56731       	80.47007       	80.93101       	80.86771       	81.29003       	80.741425      	80.77589       	81.22703       	81.39356       	81.46468       	81.79881       	81.888275      	81.39618       	81.53547       	80.76888       	81.01817       	81.18388       	81.64268       	81.0997        	80.86183       	81.09392       	81.216576      	81.02899       	82.305244      	83.007675      	83.4163        	84.48219       	83.99297       	83.51795       	81.43899       	82.19118       	80.78675       	79.60916       	80.757065      	80.98841       	80.68464       	79.57981       	79.14779       	79.11971       	77.70128       	78.971344      	80.06898       	79.758224      	81.41361       	80.68929       	82.057205      	81.535065      	80.28634       	80.71415       	80.56754       	81.69248       	81.24518       	81.6001        	81.38021       	81.25708       	82.00516       	81.45669       	80.361         	80.65879       	82.12803       	81.42544       	81.77435       	81.09347       	81.44605       	81.36141       	83.26103       	82.75842       	81.47022       	80.85348       	81.61898       	80.93082       	79.90671       	
80.840324      	80.56367       	81.18284       	82.12496       	81.8963        	81.05338       	80.141136      	79.332504      	80.779076      	81.289734      	81.55464       	80.74609       	81.21604       	81.6201        	82.69196       	83.73788       	83.94267       	82.843254      	82.44085       	82.099106      	81.37637       	80.4916        	80.393036      	79.76694       	80.125946      	80.30965       	79.97871       	80.50463       	81.05136       	80.86523       	81.59116       	81.36688       	81.04141       	80.512405      	81.00657       	81.41214       	81.46006       	81.308525      	81.99054       	82.01928       	81.521935      	81.199974      	81.547485      	80.989         	81.26122       	81.07148       	81.24019       	80.49029       	80.68708       	81.295         	82.75139       	83.0393        	84.14877       	84.29645       	82.92296       	82.641754      	82.302765      	82.83277       	81.62918       	80.95689       	80.614456      	80.932686      	81.28047       	80.4502        	79.67779       	79.68667       	79.039215      	78.41356       	78.478615      	79.35336       	79.42596       	80.71367       	81.48593       	81.23927       	81.97642       	80.61378       	80.68727       	81.18148       	81.27726       	81.21316       	81.45546       	80.88449       	81.66018       	81.162796      	81.23637       	81.34883       	81.9349        	81.11239       	80.100105      	81.921616      	81.93972       	81.55802       	81.0398        	82.64354       	82.91301       	82.056         	81.2198        	81.599655      	81.29385       	80.80968       	
80.81864       	80.15443       	80.71598       	81.39221       	82.16488       	81.94182       	80.8736        	80.15872       	81.71403       	80.98842       	79.604774      	80.1434        	81.33956       	81.16818       	81.82445       	83.008865      	85.21985       	83.52788       	82.068375      	81.74521       	81.58018       	80.890686      	80.527016      	80.69947       	79.87829       	79.81961       	79.7094        	80.81444       	80.672554      	81.26402       	81.12937       	80.96353       	80.89085       	80.68377       	81.635315      	81.51399       	81.583084      	80.99367       	81.652794      	81.51248       	81.77355       	81.40666       	81.62633       	81.31934       	81.70706       	80.8812        	80.1661        	80.882675      	81.307236      	81.69239       	82.85035       	84.27731       	84.76429       	82.94811       	83.17137       	81.43042       	82.109375      	82.5564        	81.75819       	81.15738       	81.5402        	80.60567       	81.54156       	80.2552        	79.33751       	79.420815      	78.66332       	79.60396       	78.21527       	78.82208       	79.35053       	80.56696       	81.55025       	81.26096       	82.25327       	80.735664      	80.985344      	80.63923       	81.002945      	81.86561       	80.95331       	80.239784      	81.573456      	82.03623       	81.10689       	80.66253       	82.552025      	80.43966       	80.23783       	81.11224       	81.768196      	81.82868       	81.21379       	82.168816      	83.18301       	82.8443        	81.60113       	81.70735       	81.52499       	81.196304      	
80.71207       	80.56241       	81.08515       	80.88474       	81.41316       	81.6134        	81.92755       	82.079414      	81.54465       	80.00444       	78.49762       	79.43493       	81.25005       	81.53529       	82.36443       	82.41186       	84.115456      	84.47437       	82.18528       	81.33726       	81.29559       	80.999374      	81.3397        	81.493835      	80.277054      	79.36182       	79.72562       	80.59418       	81.24209       	80.668365      	80.481674      	80.86196       	80.96626       	80.707535      	80.89827       	82.067856      	81.62188       	81.23001       	81.57813       	81.64493       	81.26735       	80.82083       	81.87249       	82.524         	80.288124      	82.068275      	80.66708       	80.8314        	80.719345      	82.2142        	83.405525      	83.913055      	84.59925       	81.74299       	81.523125      	81.65186       	82.304054      	82.13887       	82.48981       	81.227394      	80.71419       	81.38664       	81.685555      	79.23738       	78.790825      	78.972435      	78.22586       	79.99724       	78.34934       	78.53715       	80.11753       	81.00952       	81.22126       	82.72044       	81.093185      	80.18943       	81.20859       	81.099495      	81.16245       	81.475525      	80.88296       	80.59662       	81.5275        	81.85478       	81.16043       	80.67086       	80.35347       	80.29521       	80.74742       	81.10029       	81.29217       	82.11727       	81.71049       	81.38311       	82.229965      	83.02682       	82.496475      	81.855865      	81.928055      	81.372375      	
80.92641       	80.8503        	81.44942       	81.1261        	81.63526       	81.437454      	81.402725      	81.980515      	80.84023       	78.96694       	78.0291        	80.233604      	81.179016      	81.019104      	82.65392       	83.00356       	83.68378       	84.12868       	82.03163       	81.844086      	81.250946      	81.76615       	81.989586      	82.40402       	79.01722       	78.88338       	79.790764      	80.44361       	81.15777       	80.69066       	80.269966      	81.11725       	80.69441       	80.92963       	81.042015      	81.527824      	81.63327       	81.14117       	81.848625      	81.440956      	81.08946       	81.62716       	82.246216      	81.25643       	80.63323       	82.00865       	79.019585      	81.60646       	81.56239       	81.720146      	82.94294       	83.403984      	83.62564       	81.79198       	81.727806      	82.58129       	81.87086       	82.144714      	83.25903       	80.834595      	81.99179       	81.98497       	81.82186       	79.8737        	78.68005       	78.35077       	78.48019       	79.08646       	78.39454       	79.32162       	81.23606       	81.157616      	81.49243       	81.43387       	80.84904       	80.47095       	81.07615       	81.495605      	81.46554       	81.98598       	80.83797       	80.46781       	82.209335      	81.5864        	80.66061       	79.909676      	80.82736       	80.7002        	80.365425      	80.72302       	81.86923       	80.487404      	82.177315      	81.47272       	81.39326       	83.02986       	82.66427       	82.080536      	82.60176       	82.34285       	
81.03701       	81.0005        	81.349144      	82.05914       	81.72362       	80.17447       	81.14836       	81.305084      	80.15889       	79.25867       	79.58367       	80.92306       	80.75529       	81.01603       	82.73839       	83.00468       	82.84348       	83.735886      	82.414665      	81.460304      	81.75076       	82.17613       	83.49273       	82.30025       	79.81458       	78.89363       	79.47569       	79.81078       	80.78886       	80.344894      	80.11671       	81.11294       	80.900505      	81.325005      	81.31141       	81.34709       	81.792816      	81.132034      	80.64959       	80.83869       	81.77075       	81.69268       	82.39094       	80.82166       	81.86737       	80.31081       	80.60525       	81.93564       	80.292046      	82.73596       	82.586464      	82.43028       	83.12373       	83.67932       	82.880554      	83.015335      	82.84416       	82.605415      	82.9105        	81.0177        	80.88768       	82.13297       	80.73457       	80.098595      	79.24696       	78.459076      	78.15525       	78.30688       	78.61804       	81.1064        	81.9832        	80.71994       	80.71795       	81.54551       	80.1257        	80.62374       	81.54938       	81.4592        	82.02397       	81.65854       	80.22098       	80.66371       	81.81258       	82.254074      	81.219154      	79.507576      	79.97023       	80.71189       	80.799095      	80.96769       	82.02844       	81.1691        	80.16777       	81.264496      	82.10794       	83.33805       	82.1546        	82.36045       	83.49725       	83.01052       	
80.6654        	81.51901       	81.592094      	82.392555      	81.55619       	80.43881       	80.566345      	80.45653       	80.1573        	80.03479       	80.41562       	80.56313       	80.899055      	82.26806       	81.996216      	82.87512       	82.75803       	82.44013       	82.56849       	81.69885       	82.206604      	82.25134       	82.88218       	83.52148       	80.956795      	78.89247       	79.12113       	79.50445       	80.191         	80.52815       	80.299995      	80.7672        	81.74987       	81.28096       	81.193275      	81.13044       	81.727776      	81.417076      	80.44628       	80.504135      	81.10558       	81.68046       	82.493195      	81.43591       	81.53311       	80.975334      	79.84355       	80.34234       	82.11859       	82.36014       	82.08563       	83.03075       	82.9195        	83.803986      	84.32343       	83.539825      	82.9694        	82.311165      	83.06181       	80.55011       	82.22481       	81.91028       	80.29437       	79.26693       	79.18628       	77.18361       	77.23572       	78.7715        	79.97247       	81.2962        	81.15316       	81.678665      	80.86567       	81.473076      	80.59381       	80.95612       	81.35635       	81.39986       	80.72383       	81.61236       	81.048035      	80.604805      	81.75692       	82.44283       	81.02753       	80.300476      	80.17214       	80.518265      	80.79701       	80.40783       	80.708824      	81.20933       	81.75093       	81.46166       	81.67685       	82.55304       	81.58847       	82.316505      	83.515335      	83.42318       	
80.60964       	81.56435       	80.581635      	82.0526        	82.09209       	81.233         	81.05421       	79.85035       	80.13201       	80.40184       	81.06579       	80.80049       	81.311554      	81.209724      	81.87444       	83.66835       	82.86771       	81.86658       	81.73686       	81.99336       	81.44527       	83.16136       	82.94243       	83.44908       	81.29506       	79.7034        	79.53986       	79.23014       	80.00147       	80.84052       	80.117256      	80.92789       	81.60542       	81.03788       	80.71221       	81.378716      	81.51122       	81.1822        	80.94359       	81.34023       	81.11127       	81.4355        	81.189384      	81.63835       	81.964905      	81.46788       	79.159355      	81.27282       	81.35924       	82.019684      	82.02719       	82.46635       	83.266075      	84.26437       	84.40437       	82.40499       	82.55997       	82.44326       	83.102295      	81.716225      	80.14106       	81.161606      	80.08409       	79.886696      	78.47361       	76.176025      	75.57344       	78.893654      	79.602455      	80.77573       	81.15697       	81.98216       	81.75806       	81.412605      	80.91683       	81.644135      	81.74693       	80.66705       	80.68304       	81.081276      	81.0272        	80.62725       	80.92983       	83.06596       	81.25116       	81.01646       	80.65122       	80.429474      	81.145096      	79.91908       	79.98531       	81.385864      	81.70705       	81.47816       	81.89705       	81.27412       	83.265396      	84.00596       	81.631294      	80.91116       	
80.610306      	81.90522       	81.58034       	80.976006      	81.4251        	81.67095       	81.15992       	80.437294      	79.96499       	80.82504       	80.967804      	81.25499       	81.18763       	81.15144       	82.69432       	83.25143       	82.26842       	81.49176       	81.261185      	81.71315       	81.748604      	82.58041       	83.023575      	83.261665      	82.23705       	80.52827       	80.173386      	79.06989       	79.70788       	80.60636       	80.58092       	80.70306       	81.42659       	80.04985       	80.45514       	81.24555       	81.60508       	81.55178       	81.47492       	81.49056       	80.9093        	81.11195       	80.8458        	82.26689       	80.32103       	81.88589       	80.60545       	80.476036      	81.80934       	81.3984        	82.31599       	81.967766      	83.462685      	84.35937       	83.708824      	83.320595      	83.23888       	82.861725      	83.83519       	81.81905       	82.09227       	80.20483       	80.72283       	79.58118       	77.33824       	76.40457       	76.62831       	79.753716      	78.58713       	80.87137       	81.551834      	81.93998       	80.35685       	82.55434       	81.52906       	82.22494       	81.91301       	80.5682        	80.280716      	81.06244       	81.02373       	80.729454      	81.08155       	82.34903       	80.650536      	81.8873        	81.57052       	81.082664      	81.2804        	80.20167       	80.13952       	80.40515       	80.47697       	82.439644      	82.3077        	81.55135       	84.40936       	83.7267        	80.91256       	79.77792       	
80.66744       	81.31535       	81.69135       	81.668686      	81.44914       	81.69275       	81.88607       	80.81573       	80.184685      	80.27363       	80.678986      	81.32885       	81.25378       	81.33861       	82.4343        	82.47484       	81.95252       	81.558075      	81.759224      	80.76006       	81.11754       	82.138466      	84.225555      	83.77429       	82.993195      	82.05154       	79.81242       	78.88629       	79.388016      	80.8844        	80.23758       	80.90947       	80.68976       	80.018715      	80.24869       	81.37717       	81.05021       	81.83615       	81.90776       	82.16602       	81.13742       	80.36416       	80.03909       	81.778435      	82.32332       	81.169785      	80.28525       	80.964195      	81.654655      	81.695854      	81.54531       	81.88965       	83.202675      	82.61328       	84.10398       	83.590454      	83.36788       	83.509315      	83.440384      	82.63527       	82.16186       	81.96114       	80.3861        	79.43562       	76.53421       	76.27945       	77.89664       	78.03983       	79.49817       	80.72249       	81.68286       	81.3015        	81.12366       	81.92606       	81.54024       	82.028656      	81.791756      	80.6277        	80.4829        	81.14614       	81.627556      	81.15241       	80.74616       	81.0563        	80.46499       	81.75133       	82.17143       	81.382034      	81.23004       	80.88308       	80.913925      	81.35794       	80.50037       	80.627174      	82.22392       	82.75718       	82.712975      	81.98081       	81.12435       	80.675026      	
80.33316       	81.295296      	81.68119       	81.84362       	82.045235      	82.121506      	81.90132       	80.56827       	80.681244      	80.60215       	79.846634      	81.48971       	81.48746       	80.49591       	82.26613       	82.069046      	81.07864       	82.60689       	81.53405       	81.12879       	80.96135       	82.31441       	83.534874      	84.158806      	83.83545       	82.148796      	80.20759       	78.563065      	79.65869       	80.5281        	80.17621       	80.45461       	80.13883       	80.19249       	80.33064       	81.537994      	81.941574      	81.42627       	81.826         	81.532814      	80.90584       	80.719986      	81.22816       	81.284874      	81.55368       	82.23728       	81.26218       	80.74963       	81.01961       	81.59633       	81.35372       	81.950356      	81.66271       	82.27688       	83.5834        	84.93154       	84.306175      	84.759735      	83.454666      	81.40062       	81.779175      	80.76512       	79.5781        	78.92626       	76.94528       	78.064186      	78.363686      	77.10672       	80.04219       	81.21614       	81.045105      	81.09624       	81.06314       	82.0852        	81.909294      	81.63452       	81.43854       	81.17437       	80.56633       	81.28181       	81.24991       	80.98422       	81.4172        	80.5877        	80.026474      	82.58897       	81.776505      	81.926575      	80.893524      	81.37686       	81.602646      	81.033165      	80.763954      	81.04813       	82.27428       	82.38377       	80.900085      	80.0662        	80.76554       	81.955635      	
80.631676      	80.172226      	82.13741       	82.51806       	82.48539       	81.54884       	81.38362       	80.735214      	80.432076      	80.53978       	80.34461       	80.4009        	81.1328        	80.91256       	82.29013       	81.864975      	81.406235      	81.96177       	82.23976       	80.945076      	81.37072       	82.69664       	83.841         	83.71298       	83.86235       	82.15878       	80.59267       	78.57518       	80.16646       	80.14019       	80.19804       	79.91595       	79.90876       	80.35508       	80.95834       	81.54738       	81.9081        	81.40546       	81.41319       	81.70056       	80.8904        	80.75585       	81.63524       	81.87245       	81.40819       	81.62104       	82.1995        	81.15626       	80.98549       	80.96827       	81.63586       	79.9694        	80.929375      	82.8787        	83.51195       	84.45378       	84.47992       	85.76011       	82.68169       	82.06485       	81.53764       	79.17505       	78.80315       	78.7766        	78.62348       	78.38064       	78.11182       	79.01368       	79.68627       	81.23765       	81.056335      	81.54776       	80.867645      	81.74327       	81.93373       	82.26377       	81.279884      	80.841805      	81.07936       	80.97284       	81.06973       	81.0274        	81.02115       	81.06493       	80.22907       	81.52618       	82.69191       	81.66957       	80.85941       	81.528435      	81.72572       	81.486115      	80.721504      	81.33612       	82.38992       	82.18853       	79.87393       	79.05853       	80.848145      	82.09204       	
80.47131       	81.23669       	81.417076      	82.6972        	82.097336      	81.092926      	80.36933       	80.61195       	80.96529       	81.05673       	79.75707       	80.247665      	80.47435       	80.979996      	81.50171       	82.31648       	81.01908       	80.96456       	82.823166      	82.081085      	82.239456      	82.43683       	84.0309        	83.639015      	83.33771       	82.2187        	80.55868       	79.867516      	80.0912        	80.03315       	80.25503       	79.93179       	79.973335      	80.508095      	80.91197       	80.96383       	81.48708       	81.6478        	81.70891       	81.147675      	80.89808       	81.12303       	81.92385       	81.314514      	82.11873       	81.34017       	82.119675      	80.86262       	80.30708       	81.13738       	81.998604      	81.10464       	81.3378        	81.50024       	83.03045       	84.02563       	84.67484       	85.65304       	83.21629       	82.181175      	81.10811       	79.20328       	78.4636        	78.83484       	77.93266       	78.43962       	78.27737       	79.988815      	80.45922       	80.25136       	81.27151       	81.73922       	81.36789       	81.815346      	82.1944        	82.72732       	81.24729       	80.83566       	80.286995      	80.53664       	81.78099       	81.24855       	81.05757       	81.065544      	81.07963       	81.557594      	81.40169       	81.78845       	80.79902       	80.869064      	81.50737       	81.52278       	81.362885      	81.916664      	81.76457       	82.403114      	81.13927       	78.93449       	79.6376        	80.86155       	
80.66335       	80.78958       	82.34931       	83.39495       	81.74041       	80.41926       	78.914986      	81.12605       	81.845535      	80.71135       	79.88621       	79.44605       	80.00828       	80.70938       	81.63395       	81.533905      	80.59745       	81.253685      	83.09234       	83.02314       	82.31993       	83.243935      	83.50189       	83.17129       	82.435104      	82.56537       	81.23332       	80.62575       	80.13372       	80.40939       	80.23815       	79.87883       	80.92319       	80.21078       	80.49261       	80.40083       	81.26629       	82.16022       	81.14233       	81.46349       	81.166534      	81.40784       	81.511955      	81.04045       	81.95983       	82.22101       	80.825874      	80.863014      	80.73231       	81.526505      	79.722145      	82.15512       	81.50674       	80.92681       	82.71583       	84.20904       	84.52555       	84.7356        	83.5054        	81.80751       	80.372         	79.886375      	79.98844       	76.98688       	78.26123       	78.86439       	78.63136       	80.65641       	80.67475       	80.31973       	81.95286       	82.164375      	81.60582       	82.621704      	81.99713       	81.64681       	81.930244      	80.531494      	80.28257       	80.159325      	81.11134       	81.43275       	81.128         	81.47556       	81.84375       	81.47087       	80.275345      	81.70784       	80.48908       	80.748116      	80.53685       	81.78984       	82.01771       	81.68021       	81.92295       	82.70592       	82.6954        	79.01475       	79.83344       	80.6018        	
80.85732       	81.031715      	82.35994       	82.8871        	82.18813       	80.09378       	79.68193       	81.360245      	82.00351       	80.41465       	80.01624       	79.48507       	79.58597       	80.09125       	80.751015      	80.76837       	80.89443       	81.375595      	82.94036       	84.17658       	83.16106       	82.89085       	82.52556       	82.296906      	82.02276       	82.32845       	81.60288       	81.1767        	81.514656      	80.21765       	80.504265      	80.53306       	80.94716       	80.500854      	80.31447       	80.20621       	80.4842        	81.97641       	80.69177       	81.0429        	81.8324        	81.58921       	81.42443       	82.02998       	80.942696      	80.38629       	81.47497       	81.45458       	81.21164       	80.808685      	81.438576      	80.75246       	80.9832        	81.60266       	82.20399       	83.528984      	83.53248       	84.519485      	82.62904       	82.159744      	80.59772       	80.620476      	78.77272       	78.22428       	77.65734       	78.83331       	80.33311       	79.67552       	80.79939       	81.35168       	82.37393       	82.48901       	82.369415      	82.226         	81.17031       	81.39431       	81.97777       	80.8892        	79.60939       	81.18764       	81.49455       	80.27702       	80.79553       	81.31257       	82.268265      	81.89284       	81.019615      	81.13909       	80.50986       	80.2557        	80.872314      	80.91442       	81.883675      	81.4591        	83.38706       	82.53578       	83.051994      	79.73267       	79.51132       	80.925446      	
80.74314       	80.92265       	82.20013       	82.45011       	82.44607       	81.254295      	79.68005       	81.677795      	81.67442       	80.98761       	79.41878       	79.48923       	79.31552       	79.04973       	80.00034       	80.47129       	81.10121       	81.67162       	82.58137       	83.48455       	82.7083        	81.45531       	82.30663       	82.14803       	82.687515      	82.22884       	82.391556      	82.219925      	81.92241       	80.574005      	80.51289       	80.7018        	80.74258       	80.477516      	80.60556       	80.53917       	80.32098       	81.201195      	80.51732       	81.417206      	81.685486      	81.986565      	82.14954       	81.37145       	80.06141       	82.353134      	81.967606      	81.244064      	80.39713       	80.85123       	81.40945       	81.015564      	79.8718        	82.455635      	81.74015       	82.574554      	83.327995      	82.493355      	82.936195      	82.396866      	80.18871       	79.02843       	79.59391       	78.46578       	80.72164       	80.002174      	80.14546       	79.73849       	80.99308       	82.2457        	81.870636      	81.82932       	82.61267       	81.676094      	81.33034       	81.45284       	80.88079       	81.04637       	80.72717       	81.77341       	81.852455      	80.60243       	80.56641       	81.35935       	80.81955       	81.89436       	82.35774       	81.71041       	80.62805       	80.18035       	80.4691        	80.66587       	80.59792       	82.22546       	83.11598       	82.446304      	84.42685       	80.7177        	79.07894       	80.07953       	
80.755035      	80.88112       	81.730484      	82.56136       	82.76238       	81.439224      	80.32703       	80.92886       	82.542595      	80.21523       	79.90628       	79.30589       	78.56763       	78.926865      	79.61645       	80.21256       	81.08777       	81.75399       	80.74217       	82.903206      	83.607666      	82.00158       	81.67963       	81.72364       	83.052025      	82.81746       	82.40723       	82.916         	82.06519       	80.85941       	79.23425       	81.063995      	80.917015      	80.249084      	81.29213       	80.88582       	80.43594       	80.204666      	80.21878       	81.14649       	81.59292       	82.396835      	82.185165      	81.34081       	81.81263       	82.05432       	82.25487       	79.85472       	80.72448       	81.19201       	80.977646      	81.12961       	81.05087       	81.334         	81.47976       	81.66167       	82.108635      	83.014336      	81.91201       	81.93653       	79.36571       	77.97391       	79.97818       	79.86115       	83.10676       	78.90422       	81.01179       	80.289276      	80.91154       	82.353325      	82.64484       	81.37442       	80.796036      	81.21701       	81.03491       	80.87325       	80.93357       	81.164955      	81.12819       	83.39731       	82.08073       	81.266045      	81.53697       	80.44144       	80.05536       	81.61171       	82.29674       	82.070625      	81.5608        	81.12632       	80.19025       	79.78283       	80.560486      	81.026924      	82.74432       	82.95885       	84.10704       	81.35819       	78.92407       	78.995804      	
80.406525      	80.84678       	81.56302       	82.48536       	83.11355       	80.901215      	80.79441       	80.520134      	82.20448       	80.727455      	79.25315       	79.32399       	79.52125       	79.21074       	79.57343       	80.11945       	80.40954       	80.96557       	81.115456      	81.95732       	82.24975       	82.54628       	82.17341       	82.08302       	83.145836      	82.17347       	82.92163       	82.65964       	82.29012       	81.75592       	81.6055        	81.1475        	80.96584       	80.854706      	81.56656       	80.879         	80.237236      	80.453285      	80.14608       	80.98928       	81.47657       	81.493164      	82.07467       	82.00937       	81.64683       	82.65742       	81.859924      	80.393684      	80.39228       	80.69263       	81.287994      	81.45837       	81.842224      	80.629875      	81.4561        	81.3612        	81.04741       	82.33131       	80.36819       	82.34959       	78.63457       	79.44281       	80.62714       	81.19515       	82.030205      	82.03324       	80.62569       	80.6517        	81.3436        	82.99827       	82.18141       	81.25887       	80.27774       	80.79117       	81.00416       	80.84287       	81.00503       	80.67878       	81.31941       	82.31362       	83.2659        	81.945435      	81.38114       	81.52066       	81.10136       	80.460045      	81.66299       	81.60935       	81.510574      	81.298386      	81.19726       	79.765015      	80.20807       	81.04104       	81.742546      	83.29118       	84.2471        	82.176384      	79.226364      	78.89089       	
80.53421       	80.98825       	81.42749       	82.288574      	81.9287        	81.225204      	80.18904       	80.52587       	82.083084      	81.43715       	79.23214       	79.34851       	79.26554       	79.54678       	79.61106       	80.738266      	78.93698       	80.82124       	81.057526      	81.62987       	81.73463       	82.41807       	81.89957       	82.3838        	82.46792       	82.64584       	82.80677       	83.26372       	82.29492       	81.936554      	81.637344      	81.127266      	81.36153       	81.68912       	81.397484      	81.33927       	80.693054      	80.08714       	80.71305       	80.70816       	81.110664      	82.028114      	81.61052       	81.83862       	81.620804      	81.45849       	82.19806       	80.93235       	80.734856      	81.408554      	81.40966       	81.44527       	81.99662       	81.37411       	81.2338        	81.34977       	80.52496       	80.40404       	80.08777       	81.27074       	81.32933       	80.135666      	80.99688       	79.97036       	83.362946      	81.4622        	80.904236      	80.821205      	80.60568       	82.31888       	83.26006       	80.98018       	80.18101       	80.30836       	81.24529       	80.59233       	80.88695       	81.36969       	81.23141       	81.70674       	81.81956       	81.62773       	82.711815      	81.856606      	81.370285      	82.281906      	81.100716      	80.49354       	81.046425      	81.58077       	81.77178       	80.16927       	80.26631       	80.52518       	81.25371       	83.52132       	85.02218       	82.29903       	79.624855      	78.804245      	
80.32626       	81.17224       	80.94667       	82.19946       	81.869736      	80.43223       	80.14457       	80.43641       	82.58559       	80.87162       	79.63522       	79.0831        	79.46018       	80.28143       	80.248856      	79.82109       	79.99965       	79.471344      	82.23085       	81.47273       	82.58684       	82.35502       	81.57378       	82.23294       	81.04743       	82.55697       	82.44463       	82.47565       	83.01997       	82.24183       	81.582184      	81.07165       	81.8244        	81.99835       	81.89971       	81.43641       	80.89178       	80.779854      	80.61128       	80.95994       	81.45595       	81.24347       	81.17862       	81.41498       	80.77341       	82.31365       	81.73261       	81.45097       	80.35973       	80.33067       	81.54755       	82.39922       	81.28609       	81.82472       	81.28213       	81.2417        	80.59775       	80.45667       	80.7646        	80.55588       	81.21193       	81.138054      	80.88377       	82.39387       	81.36313       	81.541336      	81.45092       	81.29969       	81.306145      	80.556694      	82.08508       	82.12442       	80.41782       	79.978874      	80.342636      	81.142815      	81.555565      	81.11423       	81.20384       	81.09758       	81.566         	81.78858       	81.431114      	81.66832       	82.13266       	82.26929       	81.56432       	80.71379       	80.6042        	81.844215      	82.16028       	80.934074      	80.28599       	79.863464      	80.93597       	83.56386       	85.1472        	84.022736      	80.62897       	78.93428       	
80.64078       	80.66448       	80.544464      	82.46585       	81.51461       	80.52897       	79.62795       	80.61895       	82.63281       	81.06706       	79.62306       	79.55673       	80.09487       	80.39567       	79.58734       	78.91863       	81.20715       	81.31117       	80.39814       	81.649895      	81.92892       	81.95177       	82.01819       	82.10369       	81.82335       	82.22734       	81.53495       	82.121056      	82.017944      	81.76288       	81.839455      	81.88351       	82.54306       	82.16617       	81.91716       	81.63796       	81.169975      	80.561646      	80.70238       	81.51594       	81.335884      	80.789925      	80.639725      	81.61463       	81.63725       	81.432014      	82.164215      	78.93142       	81.07901       	79.60464       	81.850876      	82.201         	80.94046       	81.739136      	80.96574       	82.37987       	79.6703        	80.105225      	80.524284      	81.29264       	81.69641       	80.41879       	82.06755       	81.161224      	81.04032       	81.730545      	81.81235       	81.79015       	81.132774      	81.21437       	81.68239       	81.2942        	80.40504       	80.28489       	80.553734      	80.89628       	82.16978       	80.870094      	80.985085      	80.854095      	81.62382       	81.066635      	81.24258       	81.15395       	81.97328       	81.794975      	81.614876      	80.92957       	81.11309       	82.42716       	82.519806      	81.448654      	79.782196      	80.40354       	80.472694      	83.44677       	84.90867       	84.602776      	80.576904      	79.14547       	
80.725204      	80.14876       	80.31134       	81.75072       	81.71417       	80.21358       	80.30675       	80.73504       	82.797516      	81.29654       	80.14312       	80.03779       	80.80142       	80.96239       	79.43308       	79.502235      	80.780334      	80.747444      	81.393616      	80.97568       	81.73278       	80.16937       	83.0841        	82.18277       	79.964676      	80.837975      	80.349106      	81.3523        	80.080154      	80.333824      	80.90012       	81.87824       	83.08529       	82.589455      	80.96602       	81.235344      	80.8329        	80.68466       	80.85155       	81.33068       	81.49383       	81.211044      	80.99968       	81.05674       	81.35575       	81.16847       	81.78743       	80.81369       	79.78791       	80.343315      	81.21912       	82.53275       	81.76444       	80.859604      	81.768394      	81.55467       	81.96509       	80.49264       	80.43809       	81.1084        	81.334145      	82.12078       	81.520096      	80.52549       	80.97883       	81.29911       	81.74826       	81.58937       	81.429115      	81.2015        	81.84787       	81.325905      	80.42662       	80.59788       	81.26028       	80.55479       	81.95074       	80.67171       	81.07399       	81.58632       	80.686424      	80.80123       	80.59175       	81.104965      	81.55951       	81.04745       	81.13492       	81.094604      	81.83358       	82.70794       	82.96556       	80.959         	81.11944       	80.2469        	79.40457       	83.54761       	86.44702       	84.10761       	80.55719       	79.63097       	
80.70469       	79.97262       	80.159805      	81.1242        	81.00209       	80.77004       	80.85367       	80.95415       	82.46836       	81.53076       	80.85887       	81.391396      	81.51501       	81.76995       	81.03056       	80.21301       	80.38601       	80.35927       	82.29554       	81.72126       	80.02712       	82.26574       	81.510445      	83.305046      	81.205345      	82.54706       	82.55928       	81.62195       	80.00854       	80.02652       	80.02157       	80.45806       	83.26229       	82.46161       	81.38734       	80.795715      	80.73012       	81.13701       	80.638306      	80.9603        	81.662224      	81.70639       	81.377754      	81.19046       	81.03213       	81.22087       	81.263405      	81.19931       	80.159584      	80.846466      	80.598595      	80.979034      	81.6526        	81.57843       	82.006966      	81.37419       	80.96287       	80.67281       	80.55268       	82.68382       	82.05374       	82.499405      	81.38962       	79.98611       	80.30066       	81.34995       	81.53471       	81.45522       	81.25097       	81.3729        	81.93846       	81.651855      	80.72491       	80.74942       	81.29558       	81.48242       	80.388725      	80.45379       	81.243866      	82.00003       	80.94018       	80.70196       	80.64148       	80.40526       	81.27657       	81.021225      	81.001915      	81.881546      	82.0196        	81.49339       	82.15392       	81.15151       	81.03697       	80.73062       	79.40203       	82.75206       	86.96652       	83.723175      	81.216446      	80.45287       	
80.51001       	79.74786       	79.96011       	80.784195      	80.81295       	80.698235      	82.12653       	80.76789       	81.820595      	82.63027       	81.449814      	80.68616       	82.13134       	82.779045      	81.906784      	80.29783       	81.18593       	81.91817       	80.848175      	81.13627       	82.4904        	81.62004       	81.2976        	81.51231       	83.10902       	82.768456      	82.55335       	81.67256       	80.07227       	79.90058       	78.97131       	80.891235      	81.65871       	81.94112       	81.67781       	81.61308       	81.832344      	81.37193       	80.05024       	80.86861       	82.145164      	80.779945      	81.43406       	81.28675       	81.37321       	80.85333       	81.835594      	81.30325       	80.33133       	80.53414       	80.66664       	80.91295       	81.384445      	81.889786      	81.76253       	81.04506       	80.33834       	80.45066       	81.598915      	82.37263       	82.6581        	82.44099       	81.30339       	80.52821       	80.849594      	80.9967        	81.7807        	81.23061       	80.48339       	81.08418       	82.273796      	82.146355      	81.14812       	80.828026      	81.125114      	81.415146      	80.38304       	80.54559       	81.5281        	81.544         	81.09654       	81.18833       	80.26561       	80.32606       	80.73986       	80.70408       	80.4418        	81.84636       	82.45077       	81.16861       	80.760895      	81.071556      	81.91266       	80.84954       	79.4585        	81.89788       	86.66829       	84.01532       	81.88759       	81.65841       	
80.141174      	79.59795       	80.04465       	80.44211       	82.027664      	82.3179        	80.38836       	81.270096      	82.01691       	81.73843       	82.307365      	81.81182       	81.68301       	83.21418       	81.77867       	81.31732       	81.55021       	81.74587       	82.330055      	83.24561       	81.97616       	80.68591       	80.13762       	80.5011        	81.902664      	82.42919       	82.8387        	81.36559       	80.29165       	80.15622       	79.18503       	80.61139       	81.099075      	80.69776       	82.43036       	81.89424       	82.552505      	81.550545      	80.16318       	80.7743        	81.42907       	81.10467       	79.96927       	81.893135      	81.3999        	81.876945      	81.83798       	80.536674      	80.968544      	80.71978       	80.62466       	80.37906       	81.57721       	82.405426      	81.6114        	80.34589       	80.081764      	80.61056       	81.51679       	82.34039       	82.73539       	81.85332       	81.5591        	80.95761       	80.78943       	81.34276       	81.140526      	80.69082       	80.94599       	81.491585      	81.7707        	81.929054      	81.95237       	80.52496       	81.347496      	81.44492       	80.615814      	80.76857       	80.901764      	81.55988       	81.66878       	80.9256        	80.397804      	79.899605      	80.51257       	81.07197       	81.298096      	80.721176      	78.81435       	81.575226      	81.3543        	80.4018        	82.79293       	82.25586       	80.61552       	80.04739       	84.09832       	84.746155      	84.36649       	83.47856       	
80.58815       	79.589645      	80.12108       	82.26833       	82.28177       	82.683105      	81.732506      	79.46177       	81.49069       	81.494         	82.52016       	81.9578        	81.794655      	83.762115      	81.754036      	80.80014       	81.95067       	82.75838       	83.4554        	83.13374       	81.8417        	79.852295      	79.22409       	78.57598       	81.04928       	83.024895      	82.46791       	80.28453       	81.43207       	80.36669       	80.15508       	80.23723       	80.546036      	80.56281       	81.2639        	83.091644      	82.68098       	81.981995      	81.12673       	80.7368        	81.02437       	80.81691       	80.41449       	80.80917       	81.75329       	82.0686        	81.30736       	81.56293       	81.07398       	81.03985       	80.794655      	80.78957       	81.15154       	81.92714       	81.21086       	80.52612       	80.672356      	80.92237       	80.984215      	82.05282       	82.75549       	82.157555      	81.60957       	81.29531       	80.63146       	81.25138       	80.01622       	80.68925       	81.20351       	81.36345       	81.561066      	82.0214        	81.87798       	81.310616      	80.96257       	81.746574      	80.692276      	80.474945      	80.66281       	81.59005       	81.75989       	81.35403       	81.068726      	81.02705       	80.16525       	81.16603       	83.03546       	80.29174       	78.41058       	78.80666       	81.08546       	81.30304       	82.784706      	83.23179       	80.974556      	78.79021       	80.36281       	83.87221       	85.37517       	84.34668       	
80.71734       	80.226906      	81.14798       	82.93108       	82.486786      	83.00379       	80.98279       	81.05032       	80.46953       	81.40858       	82.06          	81.48346       	82.76027       	82.711624      	82.53287       	81.08571       	82.23505       	83.300575      	84.061485      	81.90422       	81.424515      	79.792534      	78.853386      	78.17283       	81.84309       	81.93328       	81.33698       	80.87916       	80.778404      	80.742935      	80.89106       	80.87492       	80.51875       	79.36053       	80.664764      	82.678085      	82.6825        	82.94334       	81.409805      	81.77271       	80.29164       	80.84369       	80.73014       	81.18366       	81.13448       	80.9868        	82.16073       	81.99133       	80.823074      	81.10112       	80.93077       	81.18103       	81.32765       	81.21097       	80.74491       	80.57918       	81.24908       	81.00574       	81.2695        	81.49934       	82.41699       	82.12204       	81.7018        	81.4167        	80.9807        	80.60435       	80.238396      	80.62987       	80.89049       	80.78912       	81.1657        	82.44857       	82.33382       	81.91708       	81.18864       	80.93904       	80.63575       	80.61101       	80.48285       	81.03182       	82.051384      	81.7677        	82.26317       	80.9028        	81.07471       	82.03586       	81.96673       	79.923386      	79.61443       	79.366066      	81.14677       	81.44198       	81.99616       	81.38088       	81.39327       	78.99782       	79.72309       	82.26491       	83.8465        	83.684395      	
80.72603       	81.14068       	81.92256       	81.99891       	83.62447       	82.75228       	80.87354       	80.02537       	80.560844      	81.78705       	81.42773       	82.221146      	82.718254      	82.63676       	83.00779       	81.85116       	82.251144      	83.8739        	82.86703       	81.06787       	80.636505      	80.06014       	79.115364      	79.534996      	80.55926       	81.208694      	80.58679       	80.85214       	81.24584       	81.07128       	80.51447       	81.379616      	80.932236      	80.622696      	78.102394      	82.05816       	82.080956      	83.07525       	82.006996      	82.019615      	80.59492       	81.25284       	81.74514       	81.779526      	80.96788       	80.47916       	80.286865      	81.31654       	80.84993       	81.21435       	81.2825        	81.25255       	81.60402       	81.08715       	81.092514      	81.22661       	81.66306       	80.93191       	80.722664      	81.35682       	81.71428       	82.111565      	81.36123       	81.64316       	81.26409       	80.6456        	80.41361       	80.17058       	80.704765      	80.70177       	80.992226      	81.66361       	83.79823       	81.686134      	81.40472       	81.08822       	80.48283       	80.43639       	80.57245       	80.77995       	83.105156      	81.778366      	81.72209       	81.68519       	81.55541       	81.047615      	81.292755      	80.62504       	80.56457       	80.42106       	81.49613       	80.90466       	81.21169       	81.082794      	81.28778       	79.55006       	80.11047       	82.15802       	82.72745       	83.03064       	
80.59592       	81.12776       	81.22749       	82.3366        	83.6469        	82.13415       	81.23847       	80.45933       	81.36863       	81.4806        	81.72201       	82.55346       	83.00382       	83.164925      	82.96687       	82.206505      	81.862114      	81.65281       	82.08645       	80.786964      	80.42789       	79.87417       	79.98006       	80.37135       	80.46091       	81.221565      	80.76624       	80.367424      	81.05047       	81.03295       	80.93031       	81.67481       	80.93222       	80.92279       	80.403244      	81.108376      	80.56066       	81.67945       	82.685844      	81.793465      	81.202194      	81.389175      	82.68633       	81.93329       	81.55331       	80.66841       	80.394295      	80.255516      	80.59071       	81.039986      	80.756134      	81.45245       	82.26645       	81.27354       	81.42727       	81.16613       	81.87504       	80.56969       	81.26462       	81.56496       	81.12786       	80.87337       	82.02267       	82.00286       	81.50842       	80.60588       	79.846535      	80.48515       	80.65112       	80.59503       	81.09709       	81.58316       	83.71264       	81.470764      	81.44882       	81.36586       	81.20191       	80.30876       	79.843315      	81.15121       	82.67419       	81.49645       	81.476364      	82.403595      	82.117355      	80.17885       	80.79673       	80.61525       	81.19723       	81.35111       	81.28082       	81.08598       	81.070915      	80.79844       	80.89758       	81.2778        	82.13381       	82.27332       	81.6393        	82.99209       	
81.10619       	81.55866       	81.01055       	82.37896       	82.32468       	82.14925       	81.6887        	81.2689        	81.61628       	81.8805        	82.38917       	82.65708       	83.2663        	82.73362       	82.14792       	81.703545      	80.657974      	80.94045       	80.698616      	80.62137       	80.48282       	79.56464       	80.35087       	80.85948       	81.04909       	81.078865      	81.02697       	80.609245      	80.67324       	80.62171       	81.70009       	81.702446      	81.46117       	81.01099       	80.58352       	80.45979       	80.62247       	81.535675      	82.2455        	81.34466       	80.95451       	81.34689       	82.9648        	82.11773       	80.81523       	78.424576      	79.99031       	80.76739       	80.58378       	80.84534       	81.59421       	81.247055      	81.65386       	81.13918       	80.86759       	81.60912       	81.826164      	81.18151       	80.80552       	82.08007       	81.36499       	80.454124      	80.95395       	82.51501       	81.67058       	80.87146       	79.79665       	80.77626       	80.95855       	80.192245      	80.82425       	82.42628       	82.04753       	81.9325        	80.97288       	81.62056       	81.43388       	80.503716      	80.840034      	81.33621       	81.86092       	79.92429       	80.28944       	84.12324       	82.23457       	80.65542       	80.36186       	80.29475       	81.68077       	81.779785      	81.08579       	81.528076      	81.363914      	80.5958        	80.92002       	81.72182       	83.31294       	82.24353       	82.54469       	83.11068       	
81.127075      	83.20948       	81.14146       	81.52278       	82.5006        	81.83059       	81.76227       	81.3345        	82.43947       	82.503365      	82.66787       	82.52863       	82.71366       	81.976616      	81.7488        	80.35633       	79.63382       	80.472786      	80.64235       	80.37941       	80.57746       	80.23459       	81.015076      	81.0194        	81.21523       	81.12166       	80.40095       	80.99436       	80.646286      	81.40694       	82.01099       	81.307816      	81.53234       	81.03954       	80.63975       	80.891624      	81.12975       	81.458855      	80.93462       	80.907166      	80.82698       	81.195595      	81.42871       	82.96825       	81.065254      	81.91437       	80.9414        	80.70997       	81.141815      	81.42044       	81.86047       	81.39648       	81.20031       	80.60256       	81.046455      	81.67314       	80.79175       	80.886925      	81.4174        	82.39607       	81.73971       	80.70052       	80.24117       	81.75803       	82.30927       	80.89529       	80.52957       	80.96023       	80.847916      	80.02805       	80.90855       	81.87916       	82.30915       	81.30675       	80.63295       	81.81192       	81.47635       	81.24242       	81.33082       	81.58863       	80.867226      	80.23584       	81.02419       	83.378395      	81.12009       	80.7991        	80.78238       	80.368965      	81.32232       	81.69471       	81.34434       	82.11608       	81.42092       	80.97132       	80.9208        	82.801445      	83.23648       	82.52492       	82.60241       	82.07014       	
80.83864       	84.99982       	80.94219       	80.65254       	82.397995      	82.215485      	81.574135      	82.29148       	82.24406       	82.57623       	81.99157       	81.20009       	80.43966       	80.26466       	80.52876       	79.52314       	80.09589       	80.769356      	80.872055      	80.697876      	80.7765        	80.63952       	80.7829        	81.73611       	81.00461       	80.537926      	80.6419        	80.79502       	81.820145      	82.1227        	81.919495      	81.297165      	81.29971       	80.58784       	80.51895       	80.96351       	81.891716      	80.85451       	80.85556       	80.60711       	80.64068       	79.909515      	82.909584      	82.25425       	80.85355       	81.290565      	80.97782       	80.55854       	81.06544       	82.70772       	81.57797       	81.4328        	81.15056       	81.39448       	81.29971       	81.00261       	80.92181       	79.877         	81.76015       	82.08188       	82.44297       	81.1967        	80.05269       	81.6081        	82.559044      	81.43013       	80.85016       	81.11726       	80.752686      	80.33214       	80.621124      	81.14786       	82.15058       	80.64619       	79.70107       	80.64952       	83.219666      	81.63439       	81.83756       	81.95264       	81.074425      	81.04363       	81.69633       	81.21146       	80.737885      	81.204124      	81.63246       	80.859825      	80.60619       	81.45018       	82.02915       	81.90244       	81.4349        	81.17163       	81.69163       	82.53787       	83.028076      	83.244606      	81.98596       	81.12506       	
81.140205      	83.643036      	79.32108       	81.74736       	82.47661       	82.28779       	81.97059       	82.192276      	81.815994      	81.73571       	80.806         	81.14934       	80.75271       	79.53351       	80.25173       	80.00275       	80.62429       	81.22558       	81.232056      	81.47789       	81.01158       	80.56381       	80.52317       	80.977646      	80.81821       	80.554146      	79.602455      	82.67403       	82.34339       	82.50213       	81.68771       	80.98126       	81.06089       	80.76608       	80.68479       	81.36899       	81.28504       	81.05756       	80.85199       	80.12464       	79.10165       	81.82839       	82.46688       	81.738365      	80.971214      	81.09182       	80.898605      	80.80913       	80.725464      	82.587875      	81.59325       	81.22295       	81.02063       	81.51365       	81.44162       	81.014946      	81.32226       	80.87522       	81.66363       	81.32756       	81.983604      	81.94593       	80.53624       	81.08935       	82.18226       	81.71888       	80.6749        	81.32485       	80.88423       	81.101074      	81.06159       	81.04847       	80.81295       	79.67468       	80.63627       	80.91821       	82.05212       	82.409355      	81.48018       	82.15126       	81.037476      	81.972275      	81.704346      	80.14347       	80.66641       	81.84142       	81.45398       	81.4101        	80.56893       	81.03024       	82.00875       	81.80283       	81.62312       	81.468956      	81.40383       	82.25682       	82.72945       	82.98062       	81.77253       	80.41671       	
81.291046      	82.21695       	82.96565       	81.927376      	82.37795       	81.83143       	81.07757       	81.48253       	82.03225       	80.70135       	79.553185      	79.49553       	80.76467       	81.03408       	80.44226       	80.53722       	81.02367       	81.34421       	81.438095      	81.98978       	81.229416      	80.07823       	80.48694       	81.32866       	80.50136       	80.633865      	80.817215      	82.35655       	82.22158       	82.377365      	81.64229       	80.87882       	80.944496      	80.66937       	80.97074       	81.53386       	80.82481       	81.23019       	80.70369       	80.64677       	79.69332       	81.583145      	82.1348        	81.377         	81.00189       	81.050186      	81.05208       	80.699974      	80.37313       	82.72755       	81.019295      	81.40295       	80.918976      	81.36981       	81.06542       	81.69795       	81.29855       	81.36057       	81.141174      	81.31756       	81.725         	82.866554      	81.23488       	80.5221        	81.262405      	81.10826       	80.70925       	81.26789       	81.12367       	81.24825       	80.96075       	80.86894       	80.45088       	80.810486      	81.51689       	81.43173       	80.745316      	81.73924       	81.79039       	82.34901       	81.360725      	82.32583       	81.15838       	80.141815      	80.34574       	81.186295      	81.93132       	81.508804      	80.80783       	81.03953       	81.57437       	81.921936      	81.653534      	81.31208       	82.04618       	82.53142       	83.298325      	82.19173       	80.45372       	80.26421       	
81.43115       	82.925545      	82.42838       	81.84927       	81.0564        	80.802086      	80.2629        	81.491066      	81.21823       	80.27759       	78.85439       	79.46209       	80.761         	81.04146       	81.28943       	80.89244       	81.25538       	81.88489       	82.12168       	81.48897       	80.30589       	80.270485      	80.2905        	81.765144      	81.18017       	80.797646      	81.27212       	82.36874       	82.28247       	81.725365      	80.94278       	80.72228       	81.025986      	80.737564      	81.541664      	80.94938       	81.45511       	80.78453       	80.39606       	81.02771       	80.6091        	80.47503       	81.776054      	81.90172       	81.35416       	81.50557       	80.7161        	80.971405      	81.11885       	81.43958       	81.33031       	81.26151       	80.63741       	81.35857       	82.21384       	80.94055       	81.250435      	80.63739       	80.25027       	81.801384      	81.95085       	82.51625       	81.775185      	80.56829       	81.42063       	80.69635       	80.156204      	80.65225       	81.48832       	81.30459       	81.544624      	80.593124      	80.71756       	82.66588       	81.35173       	80.299446      	81.07467       	81.90603       	81.99261       	82.05319       	81.82139       	82.11108       	81.01885       	79.4655        	80.50474       	81.66616       	81.802155      	81.40989       	81.05281       	81.34315       	81.6924        	81.404655      	80.6346        	81.4735        	81.90201       	84.24877       	81.98531       	80.947586      	80.87978       	81.58894       	
81.32421       	81.83995       	81.62418       	79.5406        	81.103294      	79.82832       	80.02502       	81.10142       	80.53822       	79.81731       	79.43287       	79.63551       	80.64945       	81.25642       	81.77187       	81.712975      	81.0763        	81.871605      	81.610435      	80.97574       	80.733795      	80.763115      	81.20771       	81.374054      	81.3881        	81.39768       	81.71897       	81.751884      	81.688         	81.19158       	80.4637        	81.04248       	80.8885        	81.269875      	80.94704       	81.41328       	81.42305       	81.192924      	80.81529       	80.81876       	80.322296      	80.52866       	81.08251       	82.24979       	81.751526      	81.78391       	80.76153       	80.57822       	81.098526      	81.30418       	81.40041       	80.96965       	80.82609       	82.63361       	82.72083       	81.24927       	80.50103       	80.250465      	80.49198       	80.71205       	81.72406       	81.731766      	81.06032       	80.94035       	81.70143       	80.6715        	80.283134      	80.99277       	82.25223       	82.02458       	81.33165       	81.53181       	81.41065       	81.58317       	80.73516       	80.303246      	81.92191       	81.67607       	81.796745      	81.9036        	81.39454       	81.33766       	80.703636      	80.027374      	80.70171       	81.54208       	81.89837       	80.92219       	81.841125      	81.489494      	81.58921       	80.78497       	80.86037       	81.20859       	82.24108       	83.90247       	81.32561       	81.042076      	81.84468       	82.50873       	
81.97315       	80.71128       	80.06829       	77.73584       	79.632545      	80.014626      	79.937874      	80.47251       	80.20521       	80.34854       	80.07089       	80.16595       	81.005424      	82.01107       	81.98548       	81.481476      	81.10596       	80.82519       	81.02258       	80.6464        	81.003555      	81.5148        	81.55888       	81.49836       	81.65738       	81.659645      	81.66618       	81.210365      	81.16565       	80.90852       	80.847534      	80.78963       	81.39491       	80.69186       	81.03904       	81.430664      	81.75149       	81.62947       	81.09316       	80.4835        	80.245125      	81.10798       	81.384865      	81.6646        	81.43931       	81.78428       	81.56103       	80.9198        	80.377235      	81.24845       	81.60098       	80.290085      	81.73363       	83.08438       	81.54301       	80.7657        	80.57973       	79.93806       	80.62619       	81.433846      	81.63438       	80.523834      	81.08359       	80.76601       	80.90988       	80.99398       	81.08334       	82.09255       	83.65288       	81.833046      	81.105965      	81.32555       	81.26913       	80.550514      	80.56075       	81.02195       	82.81354       	81.60629       	81.58423       	81.85168       	81.040634      	80.21534       	80.69873       	80.68448       	81.343414      	81.26035       	81.2367        	81.43938       	81.786385      	81.89918       	81.44607       	80.78877       	80.27413       	81.74652       	82.77366       	83.03972       	80.95046       	81.77674       	82.24364       	81.56669       	
81.286354      	80.056015      	79.90711       	79.69515       	80.27794       	79.881645      	79.965645      	80.82447       	80.72165       	80.56453       	80.39963       	80.5582        	82.08638       	82.41059       	82.06463       	81.50912       	80.64462       	80.18574       	80.55528       	80.95461       	80.49159       	81.421234      	82.293594      	82.164955      	82.08745       	81.66993       	80.98509       	80.45634       	80.408394      	81.120735      	81.242195      	81.6336        	80.593925      	80.86445       	81.38993       	80.70691       	81.97082       	82.172585      	81.043655      	80.85222       	80.94446       	81.39117       	81.608925      	81.82456       	81.17812       	81.92466       	81.05997       	80.59866       	80.8169        	81.44642       	81.07055       	80.870895      	81.56098       	81.85683       	80.71042       	80.40936       	81.064095      	80.690315      	81.121864      	81.49293       	81.48534       	80.26715       	80.337166      	80.722885      	80.054596      	81.77139       	82.01623       	82.88346       	83.58839       	81.46744       	80.95656       	81.782196      	80.51136       	79.9496        	81.37538       	81.77854       	82.37273       	81.11966       	81.89482       	81.40361       	80.60836       	80.3278        	80.651474      	81.551155      	81.170845      	80.58015       	81.63165       	81.540634      	82.03316       	81.68947       	81.11548       	80.565956      	81.17583       	81.65505       	83.18389       	81.23708       	81.154015      	82.60111       	82.07298       	81.13761       	
80.890976      	80.25778       	80.02589       	79.78035       	79.92226       	80.731674      	81.07413       	80.79655       	80.73041       	80.48874       	80.34123       	81.913536      	82.046936      	82.61127       	81.698425      	81.139626      	80.86587       	80.04716       	80.617645      	81.2824        	80.97597       	81.208725      	82.384445      	82.19998       	82.00486       	81.506676      	80.375015      	80.09277       	80.13714       	81.17307       	81.3857        	81.29733       	80.92111       	81.23882       	82.24016       	81.31762       	80.78494       	80.83659       	81.86616       	82.09661       	81.499275      	81.23824       	81.74328       	81.96451       	81.2965        	81.29376       	81.38091       	80.50857       	81.166245      	81.490074      	80.575645      	80.893326      	80.716446      	81.080284      	80.890816      	80.71475       	81.57158       	81.62942       	81.276634      	80.75513       	80.83599       	80.333824      	80.510796      	81.23508       	80.9314        	81.76819       	82.5339        	81.94077       	82.290955      	80.601974      	81.62089       	82.26398       	80.62861       	80.47776       	81.75101       	81.626724      	81.55806       	81.626434      	81.35943       	81.01896       	80.17303       	80.68707       	81.32697       	81.71865       	80.96259       	80.90305       	81.1947        	82.088806      	82.04889       	80.85691       	80.52439       	81.034546      	81.55546       	82.45555       	82.30324       	80.26976       	82.2452        	82.33907       	81.418465      	81.40373       	
80.74309       	80.69972       	80.229294      	79.98788       	80.35256       	81.2832        	81.94825       	81.213005      	80.52306       	80.11762       	81.157265      	81.81482       	82.44242       	82.09825       	81.26111       	81.26909       	80.6899        	80.47997       	81.13265       	81.20803       	81.32393       	81.41855       	81.772675      	82.26612       	81.705505      	81.04389       	80.39659       	80.37699       	80.46524       	80.764984      	81.05372       	81.000496      	81.85314       	82.33093       	81.91694       	80.81983       	80.302155      	80.42409       	81.82657       	82.396416      	81.63267       	81.60753       	82.04312       	81.679756      	81.35904       	81.47566       	80.62498       	80.60645       	81.06557       	80.9266        	80.326416      	80.229614      	80.87248       	81.55638       	81.61673       	81.97829       	81.02145       	81.12816       	80.87995       	80.69972       	80.955605      	80.49706       	80.64263       	82.229546      	82.44815       	81.79365       	81.73517       	80.543976      	81.22939       	80.49442       	81.92957       	82.886444      	81.118385      	81.02067       	81.07795       	81.28846       	80.64515       	81.91295       	82.13824       	80.07888       	80.52378       	81.1586        	81.054886      	81.850266      	81.383705      	80.909485      	81.35701       	82.3473        	81.2011        	80.290825      	81.09066       	81.28594       	81.44942       	82.558624      	81.69005       	81.243904      	82.373405      	81.8275        	81.71925       	82.44658       	
80.608826      	80.9192        	80.64115       	80.56609       	81.350365      	81.56757       	80.497185      	81.57899       	81.070786      	80.790146      	81.1018        	82.3336        	82.28033       	81.56807       	80.68249       	81.717834      	80.75424       	80.6794        	81.24203       	81.609634      	81.07977       	80.57616       	81.68994       	82.746284      	81.38412       	81.209366      	80.773994      	80.76575       	80.731636      	80.0035        	81.99191       	82.1234        	81.941826      	81.94558       	80.944534      	80.78693       	80.16285       	80.40757       	81.525024      	82.08513       	82.59277       	82.03927       	82.14497       	80.78685       	80.92356       	81.49047       	80.65053       	80.35798       	80.0086        	80.27232       	80.03424       	80.86648       	81.52809       	82.24027       	82.386215      	81.86557       	80.94105       	80.58094       	79.813545      	80.42209       	81.12503       	81.65452       	81.47593       	83.1593        	82.205605      	80.763504      	81.01884       	80.899864      	81.09144       	81.82189       	81.95642       	81.51044       	81.07856       	81.452446      	81.38786       	80.434715      	81.42939       	82.20587       	81.638985      	80.70169       	80.616585      	80.727806      	80.959236      	81.137985      	81.72132       	80.95564       	81.743034      	81.92044       	80.60578       	80.76111       	80.90915       	81.44225       	81.83033       	81.86281       	81.317635      	81.88642       	82.3395        	81.33705       	82.32033       	82.9494        	
80.271935      	80.44174       	81.261215      	81.66173       	81.46443       	81.69973       	81.52481       	81.27932       	81.08964       	80.14054       	80.3525        	82.26681       	82.35796       	81.55382       	80.8442        	80.936584      	80.639206      	81.246864      	81.26229       	81.6331        	80.70028       	80.911674      	82.06962       	81.38381       	81.574326      	81.30816       	80.60065       	80.798065      	80.608055      	78.51191       	82.90385       	81.82844       	82.55719       	81.30938       	80.51982       	80.23472       	80.6204        	81.1524        	81.32413       	81.75766       	82.59195       	81.87577       	81.312416      	80.21895       	80.75089       	80.92699       	81.04323       	80.03621       	80.057175      	79.90134       	81.192856      	81.875244      	81.88098       	82.47293       	81.61868       	81.27136       	81.07762       	80.659256      	80.16904       	80.743965      	81.885155      	81.79786       	82.32512       	82.09049       	80.708084      	79.83015       	80.903336      	81.174255      	82.27742       	82.54389       	81.197296      	80.46779       	81.34621       	81.72306       	81.395134      	80.91227       	82.46759       	81.67519       	80.84816       	81.19365       	80.31784       	81.02625       	80.581635      	80.94026       	81.47307       	81.49472       	81.92473       	81.3759        	80.731064      	81.21864       	80.51593       	81.10128       	82.37907       	81.546486      	81.69006       	82.02019       	82.10543       	81.839424      	82.9134        	83.47593       	
80.60811       	80.38887       	82.13235       	81.635864      	81.6775        	81.96088       	81.23579       	82.00604       	80.987274      	80.33927       	80.799095      	81.76397       	82.05952       	81.86645       	80.23951       	80.14733       	80.99312       	81.366425      	81.20105       	81.08978       	81.36361       	80.812386      	81.55353       	82.20047       	81.71204       	81.34337       	80.86888       	80.61816       	81.184944      	81.22663       	82.51593       	82.282135      	81.60598       	81.040825      	80.20496       	80.499695      	81.5842        	81.29354       	81.76824       	81.7369        	81.77838       	81.59288       	81.07684       	79.909134      	80.263695      	80.891205      	80.5588        	80.399124      	80.165306      	80.976204      	82.22443       	82.91797       	81.755646      	81.26997       	80.62254       	80.35838       	81.467514      	81.163536      	80.998436      	81.957245      	82.14227       	82.09519       	81.64756       	81.387245      	80.18075       	79.69149       	80.388504      	82.02812       	82.631775      	82.42862       	80.3108        	79.62113       	82.039215      	81.90496       	81.25248       	81.4303        	83.08203       	81.044266      	80.66664       	80.282425      	80.93235       	81.08445       	80.33858       	81.811295      	81.115456      	81.72763       	82.00276       	81.73047       	80.78157       	81.105576      	80.45003       	81.235245      	81.858574      	81.65022       	81.28008       	82.57338       	80.96923       	82.071495      	84.01776       	84.058685      	
80.773254      	80.98103       	81.8653        	81.570045      	81.75624       	82.12268       	81.43021       	81.586586      	81.01251       	80.31718       	81.557205      	82.00591       	81.60335       	81.5037        	80.26931       	79.885086      	80.97415       	81.36124       	81.84615       	80.7236        	80.94436       	79.86982       	82.068436      	82.041245      	82.19834       	81.166176      	81.474556      	81.344025      	81.30936       	80.79847       	81.23325       	82.01111       	81.16716       	81.15787       	81.65101       	81.63958       	80.805534      	81.26808       	80.81417       	81.22139       	81.120575      	81.64125       	81.050026      	79.712524      	80.56972       	80.93479       	80.59919       	80.70074       	81.49415       	81.15735       	82.72574       	82.87501       	81.574875      	80.46082       	80.08867       	80.65475       	81.21124       	81.81099       	82.01457       	82.57259       	82.32563       	81.667175      	81.410484      	80.50138       	79.81122       	79.86918       	81.20796       	81.98019       	82.29767       	81.77066       	80.76804       	80.69847       	81.56413       	81.10529       	81.17862       	82.65578       	82.6084        	80.80069       	80.10189       	80.25989       	81.5075        	81.03315       	81.193245      	81.019844      	81.40599       	82.274315      	81.71159       	81.551056      	81.03387       	80.46062       	80.75125       	81.52636       	82.12874       	81.598045      	80.91805       	81.36268       	81.04703       	82.76838       	83.960335      	82.459145      	
80.814964      	81.11038       	81.972275      	82.009415      	81.50743       	81.21265       	81.08016       	81.04086       	81.10081       	82.05062       	81.58265       	81.213646      	81.43169       	81.03046       	80.16764       	80.47213       	81.12975       	81.216286      	81.17271       	81.12083       	80.7167        	80.910385      	81.22673       	82.28558       	81.68199       	81.18157       	82.13691       	81.67456       	80.44473       	80.68088       	81.31487       	81.339005      	81.02762       	81.55654       	81.56653       	81.60879       	81.041916      	80.62791       	80.66442       	80.303024      	80.3612        	81.346054      	81.01653       	80.102776      	81.34856       	81.257225      	81.06393       	81.86271       	81.77992       	82.05427       	82.40064       	81.676476      	81.04181       	80.456856      	80.567566      	81.11189       	81.14964       	82.08548       	82.23234       	82.37198       	81.69046       	81.99232       	80.893234      	79.90239       	79.734344      	80.6987        	81.46819       	82.336586      	81.600624      	82.02959       	80.96007       	80.50991       	80.92307       	81.27626       	81.19912       	82.9543        	81.9522        	80.054886      	79.94885       	81.68409       	82.1596        	81.79724       	81.23144       	80.581856      	81.34979       	82.418465      	80.90901       	80.84048       	81.07051       	81.009544      	81.26042       	81.73308       	82.157425      	81.81227       	80.778625      	80.37999       	81.80709       	83.66151       	82.96027       	81.30521       	
81.21852       	81.61414       	81.67526       	81.44767       	81.36802       	80.746574      	80.85996       	81.13859       	81.986984      	81.54478       	81.55015       	81.09053       	80.756645      	80.62727       	80.89766       	80.75455       	81.03135       	81.19136       	80.977394      	80.72211       	81.314575      	81.631065      	81.916245      	81.49732       	80.9312        	81.89124       	82.461         	80.93938       	80.237015      	80.6102        	81.19853       	81.43266       	81.59804       	80.86345       	81.851425      	81.03582       	80.51164       	80.55179       	80.50245       	80.35561       	80.263756      	80.804756      	81.553696      	81.833664      	81.29698       	81.09934       	81.49221       	82.236145      	82.278465      	82.65131       	81.83233       	80.5426        	80.22113       	80.95627       	80.919304      	80.984375      	81.11086       	82.69402       	82.13887       	81.61564       	81.6988        	81.72474       	80.54835       	80.09557       	80.203094      	81.164764      	82.00865       	82.522095      	81.73121       	81.278206      	80.350494      	79.48155       	80.83931       	81.57682       	81.38364       	83.105286      	80.78573       	79.73181       	81.09822       	82.38025       	82.398285      	82.37711       	80.76971       	80.92535       	81.55107       	81.37048       	80.66928       	80.49812       	81.25044       	81.846985      	81.44239       	81.53272       	82.26529       	81.56323       	80.31461       	80.54292       	82.43085       	82.97701       	82.12958       	81.14554       	
81.41775       	80.97468       	81.24324       	81.050514      	81.38646       	80.64595       	81.16458       	81.79513       	81.59046       	80.92933       	81.10501       	80.75794       	80.89101       	81.15269       	81.37402       	80.96421       	80.46686       	81.310646      	81.385445      	81.34311       	81.72993       	81.35699       	81.67135       	81.13572       	80.744064      	82.00709       	81.47233       	80.78887       	80.26036       	80.920105      	81.91058       	81.66962       	81.17868       	80.996475      	80.78716       	81.23468       	79.79067       	80.32269       	80.65623       	80.23506       	80.683105      	81.794914      	82.28756       	81.40781       	81.44528       	80.87898       	82.12788       	83.02812       	82.25376       	82.08705       	80.87341       	79.81225       	80.37797       	81.05066       	80.62166       	80.79598       	81.218315      	82.70237       	81.98074       	81.65661       	81.724754      	81.12305       	80.10418       	79.518845      	79.92999       	82.54066       	81.83144       	82.2377        	81.4505        	80.9564        	79.66774       	79.84848       	81.16353       	81.23992       	81.3858        	82.18685       	80.654816      	80.94443       	81.002846      	82.15947       	82.47098       	82.17834       	81.21585       	81.20361       	80.82411       	80.711174      	80.83855       	81.42436       	80.582634      	82.025055      	81.72856       	82.05602       	81.63181       	80.77215       	80.490685      	81.30758       	83.9359        	82.53347       	81.06456       	80.89693       	
80.982735      	80.871765      	80.0068        	80.79625       	81.54259       	81.6112        	82.04685       	81.519005      	80.519646      	80.74746       	80.64774       	80.83189       	81.28978       	82.03035       	81.20393       	81.02619       	80.91486       	81.47461       	82.02966       	80.98757       	81.68164       	81.359764      	81.583206      	80.79608       	81.039375      	81.15941       	80.756065      	81.36447       	80.862305      	81.45974       	81.52774       	80.894585      	79.993835      	80.587234      	80.57113       	80.98386       	81.083626      	80.65238       	80.14731       	80.60091       	82.08237       	82.208984      	82.42808       	81.0925        	81.22026       	81.56467       	82.08048       	82.402374      	82.84299       	80.51819       	80.00317       	80.07832       	80.82745       	80.79184       	80.00356       	81.08481       	81.715256      	81.8885        	81.58361       	82.599335      	81.70501       	80.534706      	80.06859       	80.6698        	82.34717       	82.67375       	82.410065      	81.68384       	80.93264       	80.21884       	79.83966       	80.83774       	81.972694      	81.85403       	80.161514      	80.727196      	81.30534       	82.05494       	81.56217       	81.30246       	82.04052       	81.99395       	81.8368        	80.57614       	80.07897       	81.392586      	81.50321       	81.42591       	81.15653       	82.0912        	82.21154       	81.89636       	80.70942       	80.27759       	80.91776       	82.579185      	83.83711       	81.98102       	80.92391       	80.73143       	
80.99749       	80.72177       	80.51658       	80.84698       	81.32865       	81.70136       	82.02221       	81.11485       	80.08692       	80.502396      	80.736         	82.17018       	82.029816      	81.38627       	81.5034        	80.47655       	81.84033       	81.88013       	81.629776      	81.147064      	80.7266        	80.615685      	82.1016        	81.62526       	80.36697       	80.37789       	81.02903       	81.971245      	80.95557       	80.97639       	81.02628       	80.48322       	79.75434       	79.90459       	80.890114      	80.7235        	82.04601       	81.14387       	80.9474        	80.7016        	82.04411       	83.30819       	81.211205      	80.356865      	81.04913       	82.565315      	82.71393       	82.78318       	81.157776      	79.64677       	79.23686       	81.431114      	81.00573       	80.68298       	81.06992       	81.08875       	81.3832        	81.42342       	81.66755       	81.94995       	81.73056       	80.40266       	80.75217       	80.81795       	81.73354       	82.87784       	82.21968       	81.575         	80.47192       	80.555786      	80.73268       	81.11326       	82.255615      	81.339         	80.4954        	80.86229       	80.983635      	82.20659       	81.5417        	81.64614       	81.94652       	82.51232       	81.22514       	79.810524      	80.083855      	81.86736       	81.46795       	81.060936      	81.84979       	82.59948       	81.84062       	81.31785       	80.55143       	80.233734      	81.42922       	83.05827       	82.784706      	81.45612       	81.12283       	81.307014      	
