# www.neaspec.com
# Scan:	 	AFM
# Project:	 	20251007_PS
# Description:	 	
# Date:	 	10/07/2025 11:59:45
# Scanner Center Position (X, Y):	[µm]	49.99	50.01	 
# Rotation:	[°]	0	 	 
# Scan Area (X, Y, Z):	[µm]	5.000	5.000	0.000
# Pixel Area (X, Y, Z):	[px]	100	100	1
# Averaging:	 	1	 	 
# Integration time:	[ms]	5	 	 
# Laser Source:	 	4.5-15 µm nano-FTIR laser
# Detector:	 	R
# Target Wavelength:	[µm]	7.502	 	 
# Demodulation Mode:	 	Fourier
# Tip Frequency:	[Hz]	241,340.500	 	 
# Tip Amplitude:	[mV]	45.700	 	 
# Tapping Amplitude:	[nm]	80.938	 	 
# Modulation Frequency:	[Hz]	0.000	 	 
# Modulation Amplitude:	[mV]	0.000	 	 
# Modulation Offset:	[mV]	0.000	 	 
# Setpoint:	[%]	79.75	 	 
# Regulator (P, I, D):	 	4.206850	8.625812	1.000000
# Tip Potential:	[mV]	0.000	 	 
# M1A Scaling:	[nm/V]	0.426	 	 
# M1A Cantilever Factor:	 	1,000	 	 
# Q-Factor:	 	487.4	 	 
# Version:	 	2.1.11536.0
930.61426      	930.5735       	930.51404      	930.5453       	930.53424      	930.5103       	930.4869       	930.35864      	930.44617      	930.41644      	930.4391       	930.44055      	930.43884      	930.5224       	930.5811       	930.49963      	930.4728       	930.4336       	930.40985      	930.4756       	930.3661       	930.3987       	930.4021       	930.3617       	930.51044      	930.4534       	930.53894      	930.53766      	930.53937      	930.5189       	930.4866       	930.4013       	930.4308       	930.3433       	930.3949       	930.5536       	930.5388       	930.6184       	930.5945       	930.6061       	930.4978       	930.4287       	930.3931       	930.265        	930.2211       	930.3004       	930.309        	930.3305       	930.35736      	930.14355      	930.1582       	930.16516      	930.2504       	930.33813      	930.44965      	930.4227       	930.38745      	930.42004      	930.3316       	930.34534      	930.3546       	930.40076      	930.3471       	930.34436      	930.2362       	930.27673      	930.3609       	930.4701       	930.32104      	930.3558       	930.4011       	930.39685      	930.3824       	930.3149       	930.31836      	930.2679       	930.2601       	930.31934      	930.29535      	930.3569       	930.2585       	930.19275      	930.2555       	930.4444       	930.5769       	930.5269       	930.51685      	930.4628       	930.4691       	930.47015      	930.48755      	930.3573       	930.30365      	930.32935      	930.2548       	930.1659       	930.30817      	930.3104       	930.2917       	930.32776      	
930.91473      	930.94867      	930.8222       	930.84534      	930.8525       	930.7861       	930.8079       	930.7135       	930.75305      	930.7975       	930.9034       	930.7348       	930.691        	930.86005      	930.92786      	930.8692       	930.87634      	930.8033       	930.8549       	930.8103       	930.8316       	930.84094      	930.77924      	930.73706      	930.7835       	930.86194      	930.88934      	930.94336      	930.918        	930.892        	930.8463       	930.792        	930.7767       	930.7328       	930.8291       	930.91376      	930.90436      	930.9324       	930.97034      	930.914        	930.84015      	930.8482       	930.83167      	930.80273      	930.7189       	930.7038       	930.75336      	930.7013       	930.60675      	930.4758       	930.68665      	930.69226      	930.62103      	930.58716      	930.6887       	930.72266      	930.7357       	930.8164       	930.7694       	930.7145       	930.7356       	930.77905      	930.8938       	930.7952       	930.7396       	930.6555       	930.71967      	930.81586      	930.83746      	930.8873       	930.84705      	930.83405      	930.81604      	930.8073       	930.6842       	930.7494       	930.65955      	930.6917       	930.62573      	930.6641       	930.6508       	930.5939       	930.57947      	930.8149       	930.95447      	930.9589       	930.9309       	931.00037      	930.8837       	930.87006      	930.9336       	930.8245       	930.7362       	930.76984      	930.71063      	930.55524      	930.7093       	930.6643       	930.7083       	930.7579       	
930.8941       	930.88293      	930.92096      	930.9052       	930.9186       	930.8173       	930.9092       	930.84937      	930.8613       	930.91125      	930.8476       	930.8149       	930.80664      	930.9219       	930.91364      	930.93677      	930.9898       	930.8349       	930.9221       	930.8747       	930.9148       	930.9081       	930.8649       	930.86694      	930.8545       	930.8773       	930.9386       	930.973        	930.9384       	930.9158       	930.93463      	930.8839       	930.88403      	931.00775      	930.86975      	930.9181       	931.01373      	931.0939       	930.99774      	930.95447      	930.8941       	930.9216       	931.03937      	930.85034      	930.9687       	930.95734      	930.9078       	930.93097      	930.6366       	930.70575      	930.8871       	930.94885      	930.87317      	930.63837      	930.74054      	930.7888       	930.8792       	930.9869       	930.9491       	930.83997      	930.8468       	930.92896      	931.0812       	931.0421       	930.90094      	930.7904       	930.8495       	930.944        	931.00006      	931.06256      	930.9954       	930.9597       	930.9544       	930.9376       	930.8481       	930.86676      	930.8487       	930.8663       	930.8398       	930.806        	930.7807       	930.7953       	930.7359       	930.94403      	931.0481       	931.1116       	931.1149       	931.12445      	931.1305       	931.03186      	931.0487       	931.02374      	930.95593      	930.92816      	930.953        	930.75964      	930.8385       	930.78735      	930.78357      	930.85345      	
930.74457      	930.7559       	930.6698       	930.73505      	930.731        	930.6604       	930.73236      	930.6477       	930.73157      	930.7269       	930.7051       	930.6853       	930.7648       	930.7323       	930.7595       	930.7198       	930.7714       	930.6684       	930.767        	930.69653      	930.66174      	930.72534      	930.73566      	930.71875      	930.7192       	930.6716       	930.7358       	930.7721       	930.7773       	930.7386       	930.75543      	930.7179       	930.70715      	930.8468       	930.7445       	930.6189       	930.73035      	930.7588       	930.822        	930.72925      	930.7156       	930.7246       	930.68945      	930.84705      	930.8522       	930.82806      	930.7898       	930.7014       	930.5433       	930.61615      	930.7398       	930.8207       	930.6849       	930.55176      	930.4011       	930.57776      	930.7019       	930.7653       	930.6771       	930.63696      	930.77014      	930.7856       	930.916        	930.7963       	930.71844      	930.5639       	930.58777      	930.6337       	930.7338       	930.84155      	930.8243       	930.7797       	930.694        	930.65753      	930.7223       	930.6624       	930.7169       	930.6683       	930.6422       	930.5943       	930.49963      	930.4407       	930.5264       	930.6199       	930.70715      	930.7666       	930.88513      	930.9813       	930.9556       	930.91235      	930.8831       	930.9049       	930.8135       	930.7829       	930.7366       	930.72906      	930.7083       	930.59436      	930.57214      	930.6534       	
930.55914      	930.47516      	930.50006      	930.44727      	930.51306      	930.5724       	930.56964      	930.5035       	930.60974      	930.41125      	930.51215      	930.5424       	930.5133       	930.5676       	930.62933      	930.5194       	930.5384       	930.6015       	930.4808       	930.5658       	930.48926      	930.5283       	930.57983      	930.5522       	930.5498       	930.5462       	930.5244       	930.5445       	930.66644      	930.49963      	930.4955       	930.5325       	930.51337      	930.5163       	930.5231       	930.41406      	930.4763       	930.5515       	930.6146       	930.5339       	930.5723       	930.5186       	930.52594      	930.7324       	930.6113       	930.68713      	930.71515      	930.57367      	930.37244      	930.4736       	930.59937      	930.6615       	930.5261       	930.39966      	930.2532       	930.32153      	930.5179       	930.4776       	930.44946      	930.5052       	930.5922       	930.7299       	930.69525      	930.644        	930.6288       	930.48425      	930.41016      	930.5921       	930.55786      	930.6539       	930.7333       	930.64813      	930.6259       	930.50433      	930.55725      	930.6214       	930.66003      	930.6246       	930.52277      	930.5121       	930.3111       	930.3154       	930.5004       	930.4671       	930.3729       	930.5023       	930.5928       	930.755        	930.90247      	930.83984      	930.7551       	930.79987      	930.7334       	930.6102       	930.6195       	930.58795      	930.53357      	930.48254      	930.4662       	930.4925       	
930.29846      	930.33386      	930.2104       	930.18805      	930.29877      	930.4013       	930.35126      	930.31177      	930.1938       	930.3564       	930.34827      	930.37665      	930.35925      	930.3773       	930.3814       	930.3266       	930.19696      	930.29065      	930.3522       	930.1546       	930.15955      	930.1937       	930.24524      	930.2323       	930.24774      	930.32965      	930.29846      	930.36554      	930.31744      	930.28503      	930.2716       	930.10834      	930.27606      	930.2588       	930.1988       	930.20044      	930.2187       	930.1534       	930.2309       	930.2695       	930.24817      	930.238        	930.364        	930.3734       	930.3735       	930.3968       	930.3898       	930.34796      	930.1939       	930.2461       	930.35425      	930.4193       	930.3912       	930.1328       	930.1874       	930.0732       	930.2331       	930.1039       	930.1788       	930.29236      	930.3927       	930.43524      	930.494        	930.3894       	930.2926       	930.2257       	930.1228       	930.23413      	930.29895      	930.2787       	930.4519       	930.40356      	930.3636       	930.26074      	930.2382       	930.2974       	930.4195       	930.41864      	930.3315       	930.1528       	930.04846      	930.06085      	930.1781       	930.2259       	930.1644       	930.1927       	930.2313       	930.3837       	930.5214       	930.55695      	930.42004      	930.4478       	930.4016       	930.33716      	930.32544      	930.3223       	930.226        	930.24457      	930.2024       	930.16705      	
930.2927       	930.0956       	930.0153       	929.9807       	930.13306      	930.24567      	930.27014      	930.07825      	930.1233       	930.12756      	930.22614      	930.2172       	930.24194      	930.1835       	930.16077      	930.13245      	930.10065      	930.0929       	930.1459       	930.1175       	930.05817      	930.1152       	930.08746      	929.97095      	930.13586      	930.2216       	930.20874      	930.19617      	930.19476      	930.2064       	930.15906      	930.07886      	930.197        	930.15063      	930.16437      	930.1649       	930.2157       	930.2109       	930.0401       	930.2074       	930.20935      	930.19037      	930.21063      	930.24945      	930.2802       	930.27057      	930.359        	930.2422       	930.05206      	930.0424       	930.2931       	930.35614      	930.264        	930.2415       	930.1576       	930.05804      	930.0155       	930.11255      	930.0671       	930.1698       	930.1671       	930.31195      	930.3378       	930.25885      	930.21155      	930.0896       	930.03296      	930.02313      	930.2183       	930.13116      	930.165        	930.3239       	930.27637      	930.199        	930.1229       	930.19196      	930.23035      	930.2765       	930.1783       	930.04297      	929.91626      	929.936        	930.0023       	929.9689       	930.01135      	930.0999       	930.0942       	930.1998       	930.3108       	930.3098       	930.3263       	930.3077       	930.3524       	930.28064      	930.19977      	930.2366       	930.0735       	930.0592       	930.0948       	930.13715      	
930.21063      	930.02515      	930.09045      	930.15344      	930.1738       	930.2721       	930.1758       	930.05164      	930.1716       	930.12317      	930.1803       	930.1946       	930.2006       	930.2236       	930.1407       	930.15015      	930.0491       	930.0837       	930.18494      	930.1313       	930.13574      	930.1171       	930.03815      	929.8958       	930.1003       	930.207        	930.11774      	930.10046      	930.07544      	930.15405      	930.2159       	930.0852       	930.0235       	930.15564      	930.11395      	930.1269       	930.16797      	930.1269       	929.9762       	930.10376      	930.10876      	930.0671       	930.1347       	930.10156      	930.0925       	930.2367       	930.3551       	930.2763       	930.0121       	929.9791       	930.1271       	930.3418       	930.2854       	930.1954       	930.235        	930.22955      	930.1109       	930.0544       	930.0165       	930.2164       	930.186        	930.23425      	930.2216       	930.26294      	930.2016       	930.10535      	930.0264       	930.08246      	930.25494      	930.2102       	930.0446       	930.2687       	930.2821       	930.2101       	930.1846       	930.1549       	930.15686      	930.22095      	930.10876      	930.0686       	929.86957      	929.8382       	929.92017      	929.8892       	930.0064       	930.02985      	930.07227      	930.09576      	930.07886      	930.1847       	930.22296      	930.2913       	930.3324       	930.25024      	930.1908       	930.1654       	929.90234      	929.86487      	930.0106       	930.06537      	
930.17474      	930.0015       	930.0989       	930.205        	930.1947       	930.18097      	930.12         	930.19147      	930.17535      	930.13763      	930.15094      	930.27185      	930.26306      	930.2686       	930.1757       	930.1205       	930.1566       	930.19         	930.16614      	930.18695      	930.1468       	930.14813      	930.0479       	930.00433      	930.0645       	930.218        	930.1358       	930.0009       	930.1277       	930.18335      	930.29987      	930.2617       	930.07153      	930.1582       	930.1887       	930.1868       	930.0893       	930.08984      	930.0863       	930.1591       	930.1366       	930.09125      	930.0931       	930.06445      	930.0631       	930.1892       	930.2987       	930.2523       	930.1493       	929.98016      	930.1514       	930.2191       	930.15125      	930.2372       	930.2652       	930.2939       	930.3323       	930.04626      	930.2006       	929.9085       	930.2282       	930.1433       	930.2276       	930.189        	930.1832       	930.14484      	930.08374      	930.1337       	930.2413       	930.13434      	930.0355       	930.135        	930.2198       	930.23035      	930.21295      	930.2168       	930.1902       	930.14813      	930.1962       	930.0961       	929.8799       	929.90594      	930.05725      	929.8687       	930.03         	930.07166      	930.111        	930.107        	929.94464      	930.0294       	930.14874      	930.3085       	930.3564       	930.3061       	930.22424      	930.1721       	929.9014       	929.8596       	930.0382       	930.1015       	
930.1594       	930.04205      	930.06177      	930.10754      	930.07434      	929.9586       	930.1221       	930.128        	930.088        	930.0359       	930.0678       	930.0729       	930.17194      	930.14154      	930.12415      	930.03723      	930.1036       	930.18097      	930.21124      	930.1267       	930.1328       	930.1653       	930.1215       	929.9752       	930.0277       	930.0956       	930.0644       	929.9677       	930.0052       	930.11224      	930.14557      	930.2057       	930.1383       	930.1342       	930.10455      	930.2189       	930.03723      	930.028        	930.0283       	930.0912       	930.0763       	930.1012       	930.0574       	930.04254      	930.08813      	930.16864      	930.1498       	930.19324      	930.1573       	930.17706      	930.06824      	930.08685      	930.10895      	930.1306       	930.28973      	930.32446      	930.2711       	930.23047      	930.1179       	930.136        	930.16565      	930.1302       	930.03674      	930.1147       	930.15247      	930.07874      	930.08386      	930.13354      	930.1516       	930.14465      	930.0653       	930.07         	930.1762       	930.19324      	930.2029       	930.19147      	930.25183      	930.22534      	930.2578       	930.15125      	929.9859       	929.8356       	929.9219       	929.9667       	929.93665      	930.0706       	930.03485      	930.01495      	929.86176      	929.94464      	930.0265       	930.31244      	930.4274       	930.29724      	930.263        	930.23004      	930.0237       	929.91315      	930.01587      	930.1325       	
930.05676      	930.0406       	930.07605      	930.03784      	929.95825      	930.10974      	930.096        	930.13763      	930.051        	929.9717       	930.00055      	930.02875      	930.0576       	930.0853       	930.0609       	930.00256      	930.03937      	930.1283       	930.1479       	930.18646      	930.03705      	930.04974      	930.11786      	930.0015       	930.0052       	929.94617      	930.015        	929.96606      	929.9844       	930.0639       	930.1072       	930.17145      	930.1478       	930.1005       	930.081        	930.1483       	930.0604       	929.9785       	929.9664       	930.0497       	930.0354       	930.089        	929.96606      	930.0045       	930.0911       	930.1117       	930.0466       	930.1273       	930.1939       	930.13715      	930.07837      	930.01624      	929.95575      	930.0852       	930.23804      	930.2367       	930.2476       	930.2706       	930.27985      	930.2024       	930.14154      	930.08636      	929.99994      	930.02856      	930.1231       	930.1588       	930.1306       	930.1699       	930.15393      	930.0263       	930.14844      	930.1183       	930.12885      	930.00446      	930.0733       	930.1156       	930.1175       	930.09656      	930.2355       	930.11914      	930.08746      	929.9121       	929.828        	929.8903       	929.9939       	929.96344      	929.9876       	929.97894      	929.78754      	929.6804       	929.94366      	930.13806      	930.2219       	930.2224       	930.23004      	930.204        	930.0693       	929.8729       	929.9272       	930.0281       	
930.2221       	930.1718       	930.23535      	929.9503       	930.13806      	930.1842       	930.151        	930.1772       	930.13635      	930.0678       	930.1365       	930.10223      	930.1159       	930.1257       	930.22797      	930.1608       	930.11523      	930.1422       	930.2338       	930.1897       	930.2231       	930.2037       	930.05383      	930.1272       	930.0361       	930.0072       	930.122        	930.18066      	930.1017       	929.941        	930.15564      	930.1881       	930.18823      	930.224        	930.10895      	930.1751       	930.1607       	930.0071       	930.02386      	930.14514      	930.0616       	930.1215       	930.01355      	930.0522       	930.14575      	930.01074      	930.1539       	930.1582       	930.192        	930.1622       	930.13666      	930.0878       	930.0956       	930.08887      	930.26575      	930.1621       	930.3213       	930.3916       	930.3676       	930.3723       	930.222        	930.0769       	930.1277       	930.1008       	930.1703       	930.12695      	930.1884       	930.25385      	930.03455      	930.13116      	930.0115       	930.1026       	930.08716      	930.0606       	930.0299       	929.99207      	930.1046       	930.0247       	930.1105       	930.1686       	930.0934       	929.9435       	929.8913       	929.9128       	930.0169       	929.9695       	929.9032       	929.87573      	929.7058       	929.7566       	929.8901       	930.0599       	930.06805      	930.0922       	930.2226       	930.35016      	930.19116      	929.98926      	929.9851       	929.9785       	
930.5468       	930.48303      	930.4789       	930.41705      	930.41595      	930.5439       	930.5214       	930.5063       	930.4742       	930.4926       	930.5685       	930.5071       	930.41437      	930.5177       	930.53577      	930.5784       	930.5053       	930.4626       	930.5258       	930.61633      	930.531        	930.4854       	930.48145      	930.41833      	930.3976       	930.38477      	930.49194      	930.52026      	930.4563       	930.3788       	930.4097       	930.4563       	930.45026      	930.47473      	930.4774       	930.4776       	930.5215       	930.35376      	930.3472       	930.41144      	930.39185      	930.3874       	930.3676       	930.317        	930.3383       	930.41156      	930.4462       	930.5071       	930.4203       	930.43274      	930.5483       	930.4485       	930.4182       	930.38745      	930.4238       	930.4176       	930.5017       	930.66705      	930.62683      	930.55817      	930.45325      	930.37854      	930.2493       	930.3756       	930.35785      	930.51117      	930.6265       	930.545        	930.4671       	930.4681       	930.3151       	930.3047       	930.3515       	930.3724       	930.2685       	930.2037       	930.33093      	930.22253      	930.32544      	930.4225       	930.3461       	930.281        	930.1967       	930.1969       	930.2735       	930.2755       	930.1939       	930.0114       	930.03973      	930.11163      	930.2419       	930.2468       	930.2655       	930.35046      	930.42096      	930.5892       	930.51324      	930.33295      	930.31445      	930.21295      	
930.6635       	930.5423       	930.4989       	930.58044      	930.4822       	930.55084      	930.6251       	930.6099       	930.5885       	930.62524      	930.6466       	930.67505      	930.51624      	930.5335       	930.5922       	930.59106      	930.57935      	930.56555      	930.5611       	930.7386       	930.7083       	930.577        	930.6371       	930.5758       	930.55664      	930.5424       	930.5781       	930.5823       	930.6239       	930.4648       	930.52405      	930.5891       	930.6108       	930.5729       	930.59735      	930.6074       	930.66125      	930.56964      	930.5348       	930.56116      	930.59375      	930.54034      	930.6185       	930.4639       	930.5585       	930.6458       	930.6063       	930.6117       	930.5771       	930.57086      	930.744        	930.667        	930.5872       	930.54987      	930.5899       	930.5211       	930.6697       	930.75183      	930.79553      	930.7722       	930.731        	930.63904      	930.45825      	930.6187       	930.59265      	930.6674       	930.77985      	930.86         	930.971        	930.72546      	930.33344      	930.41125      	930.59436      	930.54944      	930.457        	930.38275      	930.4249       	930.48926      	930.4602       	930.55725      	930.5778       	930.47565      	930.6497       	930.5356       	930.43445      	930.46985      	930.38666      	930.30865      	930.22565      	930.3949       	930.4372       	930.4238       	930.43256      	930.4607       	930.54         	930.7637       	930.78625      	930.6226       	930.5078       	930.3866       	
930.66614      	930.4867       	930.62683      	930.6202       	930.5374       	930.5645       	930.49115      	930.52747      	930.5257       	930.5479       	930.58276      	930.6097       	930.538        	930.44293      	930.52484      	930.567        	930.47394      	930.5404       	930.55695      	930.6166       	930.61633      	930.5875       	930.57855      	930.59894      	930.6124       	930.51044      	930.51715      	930.47797      	930.5147       	930.5987       	930.39935      	930.499        	930.57104      	930.58496      	930.52106      	930.5224       	930.6074       	930.61554      	930.4882       	930.4837       	930.511        	930.5194       	930.6288       	930.47974      	930.598        	930.61914      	930.55066      	930.5781       	930.5731       	930.5346       	930.6648       	930.61554      	930.5159       	930.48834      	930.50964      	930.5553       	930.525        	930.6334       	930.69147      	930.76855      	930.65955      	930.6405       	930.45575      	930.56696      	930.56335      	930.6271       	930.7245       	930.763        	930.85004      	930.8427       	930.56775      	930.57587      	930.57227      	930.61395      	930.485        	930.42316      	930.35675      	930.51013      	930.56616      	930.4052       	930.4632       	930.477        	930.5787       	930.5593       	930.51215      	930.43976      	930.41565      	930.24646      	930.2939       	930.36707      	930.375        	930.4459       	930.54645      	930.29535      	930.4428       	930.65784      	930.8744       	930.7002       	930.51044      	930.4864       	
930.58014      	930.5463       	930.5678       	930.5858       	930.4906       	930.5712       	930.3193       	930.5063       	930.52527      	930.55176      	930.54944      	930.58844      	930.5179       	930.52386      	930.5907       	930.53784      	930.51465      	930.5368       	930.53064      	930.54016      	930.54614      	930.53973      	930.56226      	930.6114       	930.6101       	930.51373      	930.53973      	930.49744      	930.4291       	930.5166       	930.51276      	930.4392       	930.5283       	930.5491       	930.5332       	930.5052       	930.58813      	930.54895      	930.47876      	930.4232       	930.5353       	930.5476       	930.59656      	930.5981       	930.5338       	930.55725      	930.54553      	930.56445      	930.57465      	930.5339       	930.60144      	930.55853      	930.461        	930.48004      	930.5743       	930.59753      	930.59753      	930.6072       	930.6461       	930.6733       	930.6673       	930.60114      	930.4653       	930.5676       	930.6049       	930.5431       	930.57117      	930.82965      	930.74634      	930.7077       	930.6071       	930.63824      	930.61816      	930.70276      	930.5524       	930.44617      	930.4363       	930.38763      	930.5157       	930.5365       	930.4089       	930.38446      	930.3987       	930.4557       	930.46313      	930.327        	930.3534       	930.27026      	930.2512       	930.35516      	930.16754      	930.3131       	930.43616      	930.2639       	930.2138       	930.39966      	930.7526       	930.7691       	930.6149       	930.4525       	
930.2389       	930.2052       	930.2864       	930.296        	930.32227      	930.2395       	930.1615       	930.2639       	930.3399       	930.30316      	930.30457      	930.34894      	930.3417       	930.389        	930.37494      	930.36005      	930.3354       	930.3825       	930.34265      	930.35187      	930.3403       	930.45044      	930.5106       	930.5173       	930.5103       	930.4405       	930.37067      	930.4475       	930.3763       	930.4622       	930.4846       	930.4033       	930.42816      	930.552        	930.58234      	930.5382       	930.546        	930.48413      	930.4729       	930.32263      	930.42004      	930.447        	930.4743       	930.47296      	930.4269       	930.4557       	930.45123      	930.4182       	930.39984      	930.4371       	930.4259       	930.33215      	930.2465       	930.31116      	930.3644       	930.50494      	930.3905       	930.3624       	930.4231       	930.4638       	930.46765      	930.4132       	930.3185       	930.3085       	930.3822       	930.1947       	930.2712       	930.41656      	930.3949       	930.41754      	930.32416      	930.3725       	930.2821       	930.4059       	930.38824      	930.2516       	930.1413       	930.1363       	930.1327       	930.225        	930.10706      	930.0862       	930.0062       	930.0279       	930.0652       	930.0842       	930.02673      	930.0358       	930.0858       	930.01666      	929.87115      	929.86774      	929.98645      	929.98895      	929.72546      	929.9202       	930.3852       	930.4913       	930.3434       	930.13904      	
931.13153      	931.0206       	931.0509       	931.0654       	931.00073      	931.0036       	930.977        	930.91284      	930.98663      	930.9729       	930.9196       	930.9496       	930.8971       	931.01575      	930.9606       	930.9276       	930.91754      	930.9886       	930.8733       	930.80914      	930.82074      	930.9848       	931.08746      	931.0896       	931.05365      	930.96106      	930.922        	930.93005      	930.9436       	931.0185       	930.936        	930.94135      	930.9375       	931.00415      	931.0159       	931.066        	930.97095      	931.002        	931.04224      	930.96106      	930.93835      	930.9734       	930.9964       	931.0484       	931.0489       	931.0867       	931.0922       	931.0566       	931.0341       	931.1024       	931.00684      	930.96185      	930.941        	930.917        	931.08356      	931.23376      	931.1726       	931.01984      	931.1068       	931.12756      	931.16113      	931.1406       	931.0524       	931.0066       	930.98566      	931.0189       	930.94946      	931.0546       	931.0764       	931.1146       	931.08594      	931.0456       	931.0424       	931.12683      	931.04407      	930.9686       	930.98676      	930.9492       	930.8959       	930.865        	930.78         	930.8281       	930.5993       	930.49927      	930.5717       	930.709        	930.6199       	930.6094       	930.66345      	930.60815      	930.3736       	930.3334       	930.3871       	930.4081       	930.2958       	930.1754       	930.63086      	930.85925      	930.69476      	930.53516      	
934.8886       	934.91644      	934.9368       	934.9817       	934.94867      	934.88965      	934.85425      	934.9567       	934.9108       	934.9365       	934.97064      	934.8998       	934.8689       	934.97327      	934.96375      	935.01         	934.91187      	935.0231       	934.98895      	935.0218       	934.83765      	935.0087       	935.1657       	935.1747       	935.12726      	935.09875      	935.04724      	935.0556       	935.12305      	935.1352       	935.14087      	935.1071       	935.1754       	935.25574      	935.20435      	935.23645      	935.2056       	935.2097       	935.24384      	935.20636      	935.1036       	935.141        	935.18835      	935.1497       	935.2727       	935.25836      	935.2717       	935.2188       	935.2691       	935.2356       	935.2672       	935.21027      	935.28156      	935.13306      	935.1695       	935.2994       	935.3841       	935.26215      	935.24097      	935.3061       	935.3004       	935.376        	935.32654      	935.316        	935.1495       	935.22455      	935.171        	935.18933      	935.25287      	935.26965      	935.28894      	935.2289       	935.2246       	935.2919       	935.29645      	935.2104       	935.1735       	935.2162       	935.328        	935.1725       	935.1147       	935.0958       	935.0244       	934.73285      	934.8747       	934.99585      	934.9535       	934.85785      	934.9534       	934.98083      	934.7599       	934.6608       	934.7669       	934.69885      	934.74774      	934.5675       	934.8503       	935.06836      	935.01733      	934.9561       	
932.7169       	932.7835       	932.7727       	932.7362       	932.6801       	932.6645       	932.70764      	932.74115      	932.7689       	932.76843      	932.74536      	932.7817       	932.6669       	932.699        	932.75183      	932.86523      	932.7271       	932.81683      	932.7675       	932.7397       	932.7017       	932.7601       	932.93414      	932.9337       	932.92         	932.8848       	932.85645      	932.86725      	932.8976       	932.95544      	932.9857       	932.8697       	932.9158       	932.9286       	932.92413      	932.9563       	933.00616      	932.95325      	932.9937       	932.9783       	932.9342       	932.9453       	933.0514       	933.0059       	933.0847       	933.15234      	933.1416       	933.10754      	933.12915      	933.1315       	933.16754      	933.2543       	933.17896      	933.1124       	933.04175      	933.1324       	933.21545      	933.14557      	933.1546       	933.15656      	933.20306      	933.28815      	933.3965       	933.1483       	933.14197      	933.21765      	933.301        	933.251        	933.1316       	933.23254      	933.2949       	933.2608       	933.22943      	933.2926       	933.3288       	933.36487      	933.2819       	933.3129       	933.41187      	933.5038       	933.53125      	933.47235      	933.48645      	933.3861       	933.0364       	933.2861       	933.4394       	933.3041       	933.4278       	933.49634      	933.38794      	933.2848       	933.3624       	933.35114      	933.44556      	933.2413       	933.1702       	933.72375      	933.79565      	933.62573      	
931.0036       	931.10144      	931.0315       	930.9901       	930.9961       	930.9205       	930.9794       	931.0138       	931.0141       	931.0372       	931.01575      	931.05853      	930.9638       	930.97534      	931.0081       	931.0277       	930.9516       	930.9153       	930.9589       	931.0019       	930.9523       	931.00104      	931.1879       	931.1483       	931.1161       	931.131        	931.1084       	931.15466      	931.0873       	931.1497       	931.2597       	931.2471       	931.0958       	931.291        	930.9408       	931.2356       	931.31323      	931.24774      	931.23047      	931.26434      	931.161        	931.2781       	931.2642       	931.22327      	931.25775      	931.3378       	931.2864       	931.3114       	931.36664      	931.3746       	931.42175      	931.5077       	931.463        	931.34955      	931.3867       	931.2315       	931.37054      	931.3795       	931.36395      	931.4591       	931.4428       	931.51404      	931.5478       	931.45447      	931.31476      	931.47644      	931.54193      	931.4042       	931.38257      	931.39996      	931.558        	931.547        	931.42523      	931.4391       	931.47015      	931.4964       	931.4264       	931.41785      	931.559        	931.7058       	931.6593       	931.7208       	931.60675      	931.5349       	931.37213      	931.30133      	931.5622       	931.54047      	931.45447      	931.60425      	931.5372       	931.3899       	931.4294       	931.53125      	931.49084      	931.32465      	931.19037      	931.6042       	931.67035      	931.59906      	
931.4018       	931.47485      	931.4623       	931.3502       	931.3524       	931.3386       	931.30414      	931.29895      	931.37366      	931.3927       	931.30414      	931.2907       	931.3321       	931.2425       	931.2978       	931.36615      	931.2472       	931.1426       	931.1632       	931.30035      	931.24225      	931.2327       	931.28766      	931.3319       	931.363        	931.3229       	931.3614       	931.32623      	931.28815      	931.1433       	931.3108       	931.3738       	931.2614       	931.1939       	931.2535       	931.34015      	931.37836      	931.33655      	931.25757      	931.3015       	931.2956       	931.3192       	931.25757      	931.19586      	931.2002       	931.2623       	931.31586      	931.27747      	931.34204      	931.36847      	931.33997      	931.3626       	931.4102       	931.43207      	931.26373      	931.2433       	931.0726       	931.24567      	931.2354       	931.31573      	931.32495      	931.3023       	931.292        	931.2408       	931.12695      	931.27893      	931.138        	931.12146      	931.1391       	931.10376      	931.1592       	931.189        	931.2343       	931.111        	931.1559       	931.0283       	930.95215      	931.0654       	931.1178       	931.2652       	931.3154       	931.3048       	931.29456      	931.089        	930.92737      	930.91016      	930.9209       	931.11847      	930.88336      	930.94885      	930.98413      	930.93787      	930.9674       	930.87103      	930.8627       	930.80005      	930.69214      	930.75494      	930.811        	930.9378       	
931.3717       	931.47266      	931.4594       	931.4354       	931.38605      	931.38666      	931.31055      	931.4039       	931.40857      	931.387        	931.3772       	931.34503      	931.40375      	931.30365      	931.2431       	931.2815       	931.24585      	931.1412       	931.26215      	931.40784      	931.371        	931.2722       	931.35315      	931.33954      	931.4179       	931.3939       	931.4602       	931.4115       	931.33887      	931.3424       	931.3448       	931.416        	931.36536      	931.44574      	931.4124       	931.4704       	931.5228       	931.36         	931.3333       	931.47064      	931.495        	931.4583       	931.4333       	931.38794      	931.41626      	931.26886      	931.4215       	931.4846       	931.4489       	931.5348       	931.50037      	931.4522       	931.5011       	931.56995      	931.54816      	931.4272       	931.2998       	931.34155      	931.43054      	931.47034      	931.5145       	931.4939       	931.4686       	931.44586      	931.28864      	931.3044       	931.33264      	931.40594      	931.3782       	931.1925       	931.3695       	931.35657      	931.3796       	931.3841       	931.3216       	931.2681       	931.15015      	931.2832       	931.3066       	931.4426       	931.59015      	931.5224       	931.5398       	931.39136      	931.3701       	931.3888       	931.21906      	931.3199       	931.24536      	931.2445       	931.2807       	931.31067      	931.2838       	931.3698       	931.2563       	931.1692       	931.07776      	930.87         	930.93915      	931.2096       	
931.316        	931.3356       	931.38513      	931.404        	931.37897      	931.3302       	931.292        	931.369        	931.3771       	931.3135       	931.3516       	931.39026      	931.3684       	931.31415      	931.25354      	931.1593       	931.31165      	931.14856      	931.261        	931.33795      	931.2937       	931.29034      	931.35455      	931.32776      	931.2864       	931.3457       	931.36633      	931.35767      	931.30536      	931.30896      	931.26306      	931.275        	931.3109       	931.3912       	931.4433       	931.4158       	931.3897       	931.27356      	931.20703      	931.3824       	931.41986      	931.4771       	931.39966      	931.4231       	931.27057      	931.3602       	931.38367      	931.365        	931.26715      	931.3495       	931.3651       	931.3256       	931.40356      	931.4287       	931.43164      	931.42865      	931.17535      	931.098        	931.35474      	931.32477      	931.3669       	931.4481       	931.377        	931.29193      	931.2501       	931.19916      	931.2038       	931.2015       	931.162        	931.31573      	931.32935      	931.3196       	931.2559       	931.2932       	931.2451       	931.17126      	931.07587      	931.152        	931.1884       	931.2521       	931.44244      	931.4618       	931.3883       	931.32825      	931.23865      	931.3372       	931.3036       	931.11383      	931.1576       	931.14325      	931.18304      	931.1986       	931.13727      	931.2491       	931.1266       	931.1308       	930.85535      	930.5162       	930.6845       	931.06274      	
931.5316       	931.5202       	931.5781       	931.55676      	931.63385      	931.56226      	931.5475       	931.60645      	931.6133       	931.55945      	931.59143      	931.68494      	931.6176       	931.55035      	931.4724       	931.4091       	931.4863       	931.5823       	931.52747      	931.55286      	931.4265       	931.49         	931.5209       	931.5436       	931.41016      	931.5312       	931.5768       	931.5162       	931.51794      	931.5629       	931.4708       	931.3971       	931.42175      	931.6288       	931.59375      	931.5297       	931.50024      	931.3941       	931.41046      	931.55145      	931.5356       	931.5558       	931.51434      	931.51044      	931.4656       	931.4655       	931.5357       	931.5541       	931.4669       	931.49554      	931.45886      	931.46423      	931.4587       	931.5622       	931.5431       	931.4869       	931.3155       	931.3764       	931.51245      	931.4394       	931.3906       	931.5357       	931.5084       	931.3854       	931.3388       	931.3803       	931.1615       	931.26245      	931.29285      	931.4531       	931.46356      	931.3803       	931.4039       	931.3278       	931.28         	931.3492       	931.1084       	931.2029       	931.31177      	931.2675       	931.39856      	931.50757      	931.5346       	931.4457       	931.41766      	931.4061       	931.32166      	931.2689       	931.35754      	931.3633       	931.36456      	931.3436       	931.29987      	931.32086      	931.22327      	931.1786       	930.78217      	930.5782       	930.9238       	931.2337       	
931.7306       	931.69556      	931.78845      	931.846        	931.8379       	931.87476      	931.8128       	931.85864      	931.9099       	931.79895      	931.8112       	931.9193       	931.8398       	931.78815      	931.8272       	931.6638       	931.7753       	931.8383       	931.88586      	931.8497       	931.7204       	931.84735      	931.8601       	931.76746      	931.7757       	931.6611       	931.7809       	931.86743      	931.835        	931.7282       	931.98956      	931.764        	931.8272       	931.93036      	931.8298       	931.77893      	931.7234       	931.66364      	931.7153       	931.90424      	931.82104      	931.7231       	931.75793      	931.7637       	931.765        	931.8223       	931.83167      	932.04254      	931.7592       	931.8599       	931.5136       	931.58276      	931.7517       	931.78815      	931.82574      	931.7626       	931.6409       	931.7183       	931.7679       	931.7659       	931.7425       	931.77765      	931.74         	931.7319       	931.6894       	931.73145      	931.511        	931.5385       	931.6025       	931.6661       	931.73346      	931.81775      	931.74677      	931.6671       	931.6041       	931.5847       	931.664        	931.5248       	931.5982       	931.5308       	931.65344      	931.76465      	931.7975       	931.82007      	931.79407      	931.72095      	931.6215       	931.5359       	931.57886      	931.77374      	931.7751       	931.68005      	931.64813      	931.71313      	931.5397       	931.40265      	930.94763      	930.9216       	931.18726      	931.59094      	
931.7232       	931.6113       	931.7402       	931.83765      	931.81         	931.8578       	931.8235       	931.85474      	931.91675      	931.8542       	931.8474       	931.8818       	931.8675       	931.80927      	931.7911       	931.7851       	931.76355      	931.8048       	931.8926       	931.8612       	931.82104      	931.80994      	931.84186      	931.89087      	931.8178       	931.6939       	931.76         	931.8255       	931.86615      	931.8331       	931.8373       	931.69226      	931.78296      	931.85455      	931.90875      	931.8036       	931.7282       	931.76196      	931.7878       	931.88806      	931.87067      	931.83765      	931.80457      	931.82806      	931.9259       	931.98047      	931.94305      	931.9203       	931.99347      	931.998        	931.6312       	931.62836      	931.69763      	931.8773       	931.927        	931.8271       	931.7822       	931.7677       	931.8854       	931.9067       	931.84265      	931.8772       	931.8431       	931.8033       	931.83276      	931.8728       	931.77094      	931.62134      	931.6105       	931.63684      	931.7656       	931.8761       	931.939        	931.8085       	931.73145      	931.80237      	931.7157       	931.70386      	931.6513       	931.596        	931.7574       	931.79517      	931.97455      	931.97         	931.99896      	931.7899       	931.80035      	931.5896       	931.68787      	931.857        	931.92676      	931.86224      	931.7104       	931.7272       	931.734        	931.6884       	931.1859       	931.032        	931.3684       	931.6384       	
931.86145      	931.6657       	931.79913      	931.899        	931.83777      	931.88745      	931.94336      	932.0141       	932.019        	931.984        	931.9864       	931.9791       	931.87146      	931.88214      	931.8798       	931.9275       	931.8571       	931.8316       	931.9234       	931.94836      	931.91754      	931.84344      	931.9148       	931.9267       	931.90564      	931.82587      	931.8861       	931.92456      	931.93024      	931.9735       	931.9171       	931.93915      	931.9124       	931.8972       	931.9791       	932.0061       	931.8731       	931.9093       	931.9093       	931.90784      	931.9311       	931.872        	931.82465      	931.8412       	931.8932       	932.0254       	931.9337       	931.96844      	932.0181       	931.9267       	931.76587      	931.66376      	931.83344      	931.85614      	931.8783       	931.8508       	931.871        	931.77014      	931.8901       	931.88837      	931.86694      	931.8189       	931.80334      	931.9942       	931.78         	931.5727       	931.75464      	931.6427       	931.4223       	931.66077      	931.7158       	931.8062       	931.9658       	931.79333      	931.7422       	931.797        	931.72797      	931.6425       	931.64105      	931.6028       	931.74426      	931.72925      	931.9055       	931.9889       	931.9312       	931.83276      	931.8476       	931.66016      	931.8007       	931.8206       	931.8444       	931.782        	931.711        	931.6068       	931.67145      	931.86786      	931.23627      	931.08435      	931.4153       	931.66504      	
932.2757       	932.19116      	932.30786      	932.2969       	932.2679       	932.2884       	932.401        	932.43835      	932.4814       	932.4433       	932.4843       	932.3607       	932.36285      	932.3728       	932.42004      	932.3632       	932.3806       	932.336        	932.39465      	932.4311       	932.3995       	932.3151       	932.3134       	932.38574      	932.3853       	932.3909       	932.2318       	932.2712       	932.30524      	932.3223       	932.3185       	932.34894      	932.37213      	932.31195      	932.35504      	932.3672       	932.30896      	932.3531       	932.318        	932.2998       	932.2901       	932.2868       	932.246        	932.2383       	932.2908       	932.32043      	932.3744       	932.3351       	932.3015       	932.2425       	932.1044       	932.11975      	932.24207      	932.2418       	932.32263      	932.1432       	932.24115      	932.18756      	932.3339       	932.31964      	932.30725      	932.2425       	932.1558       	932.2645       	932.2977       	932.2877       	932.2439       	932.08765      	931.84314      	932.0219       	932.0951       	932.19727      	932.32916      	932.24536      	932.2214       	932.31683      	932.17804      	932.04193      	932.05927      	932.0328       	932.1184       	932.0632       	932.18884      	932.2929       	932.3152       	932.1569       	932.13684      	932.1482       	932.15515      	932.1111       	932.12585      	932.1681       	932.017        	931.88904      	931.7963       	932.1205       	931.8233       	931.5226       	931.7588       	931.9879       	
932.9153       	932.8568       	932.90326      	932.89264      	932.84674      	932.8603       	932.94965      	933.09674      	933.0647       	933.1119       	933.0719       	933.04364      	933.014        	932.9921       	932.9912       	933.02246      	932.99445      	933.0724       	933.10803      	933.0964       	933.0652       	933.0088       	933.0196       	933.07196      	933.0738       	933.0784       	933.02844      	932.96246      	932.9655       	932.9692       	933.01685      	933.0616       	933.04364      	932.99457      	932.9452       	932.97986      	933.045        	933.0072       	933.017        	933.01666      	933.00806      	932.9218       	932.9336       	933.03094      	932.9923       	932.9817       	933.0527       	933.0032       	932.9552       	932.94525      	932.86945      	932.83655      	932.8863       	932.9071       	932.91956      	932.8457       	932.9602       	932.89417      	932.9405       	932.923        	932.90424      	932.8612       	932.89         	932.8729       	932.9608       	933.01556      	933.02216      	932.9339       	932.5833       	932.6563       	932.78735      	932.9434       	932.98663      	932.7984       	932.91907      	932.9297       	932.8874       	932.79175      	932.7717       	932.6692       	932.7002       	932.70465      	932.86285      	932.9736       	932.95337      	932.8284       	932.8852       	932.87866      	932.8137       	932.7814       	932.81946      	932.8469       	932.8471       	932.6536       	932.5558       	932.76465      	932.6895       	932.3695       	932.3873       	932.4785       	
932.69995      	932.55066      	932.69073      	932.72723      	932.5335       	932.52185      	932.72845      	932.88226      	932.89703      	932.9326       	932.9688       	933.0015       	932.9679       	932.8943       	932.8814       	932.9239       	932.898        	932.9037       	932.91833      	932.97034      	932.9485       	932.92786      	932.93256      	932.9368       	932.95056      	932.9566       	932.8727       	932.88416      	932.917        	932.90454      	932.90356      	932.87976      	933.01135      	932.89075      	932.8689       	933.0375       	932.83636      	932.87683      	932.92773      	932.9414       	932.95056      	932.97107      	933.0039       	933.02936      	932.98004      	932.94727      	932.9974       	932.9815       	932.948        	932.9346       	932.83276      	932.89935      	932.9298       	932.9329       	933.0179       	932.8653       	932.9337       	932.92834      	932.94135      	932.9093       	932.86536      	932.88745      	932.86975      	932.8821       	933.00464      	933.0979       	933.10034      	932.9369       	932.7306       	932.662        	932.7894       	933.0023       	933.06903      	932.81616      	932.98956      	932.99603      	932.9315       	932.9687       	932.97504      	932.83344      	932.7285       	932.8277       	932.953        	933.03705      	933.09753      	933.0518       	932.9731       	932.97437      	932.9225       	932.9142       	933.02673      	933.0407       	933.0541       	933.0169       	932.7694       	932.74036      	932.74506      	932.4452       	932.5001       	932.60474      	
932.35065      	932.20795      	932.12964      	932.223        	932.2904       	932.1119       	932.24896      	932.347        	932.46136      	932.5063       	932.5316       	932.5442       	932.5024       	932.4823       	932.43463      	932.52454      	932.4564       	932.4545       	932.4425       	932.50354      	932.4706       	932.4147       	932.42664      	932.43756      	932.50037      	932.44336      	932.3838       	932.44293      	932.4643       	932.5146       	932.4552       	932.45074      	932.52496      	932.4944       	932.3851       	932.4401       	932.46783      	932.4861       	932.46375      	932.3735       	932.42035      	932.38446      	932.4496       	932.4443       	932.371        	932.42426      	932.47144      	932.43646      	932.4186       	932.42566      	932.32043      	932.39966      	932.41223      	932.47205      	932.47003      	932.4223       	932.3741       	932.3728       	932.41046      	932.4629       	932.3684       	932.3818       	932.32025      	932.3207       	932.47174      	932.6223       	932.58954      	932.4413       	932.4091       	932.1298       	932.27014      	932.55164      	932.45966      	932.49023      	932.40826      	932.46094      	932.4322       	932.5015       	932.46844      	932.3273       	932.2513       	932.3608       	932.4275       	932.59753      	932.6071       	932.54156      	932.5046       	932.3605       	932.39386      	932.61847      	932.5985       	932.59467      	932.6097       	932.62555      	932.4021       	932.2064       	932.13245      	931.77527      	931.80927      	932.02045      	
932.1329       	931.9092       	931.837        	931.9916       	932.0159       	931.98737      	931.91016      	932.0726       	932.1631       	932.26575      	932.2802       	932.3249       	932.3103       	932.2771       	932.23676      	932.2679       	932.2598       	932.277        	932.2281       	932.249        	932.2357       	932.131        	932.2549       	932.2216       	932.23596      	932.24994      	932.22876      	932.2747       	932.24255      	932.2657       	932.2524       	932.18134      	932.3217       	932.3302       	932.2847       	932.3295       	932.28894      	932.2763       	932.25934      	932.17395      	932.2177       	932.24207      	932.2234       	932.1606       	932.1963       	932.2214       	932.1884       	932.14636      	932.2071       	932.2057       	932.12885      	932.19727      	932.2585       	932.19037      	932.2041       	932.2797       	932.2572       	932.04724      	932.18494      	932.18304      	932.21106      	932.2178       	932.19543      	932.0936       	932.2607       	932.4027       	932.35864      	932.2944       	932.32117      	931.86884      	931.9447       	932.1142       	932.27625      	932.42194      	932.1783       	932.09625      	932.1713       	932.266        	932.29144      	932.1669       	932.0649       	932.0729       	932.18365      	932.3157       	932.379        	932.24713      	932.1475       	932.13794      	932.0782       	932.3024       	932.44073      	932.34674      	932.3835       	932.4348       	932.27386      	931.99023      	931.78186      	931.5188       	931.5303       	931.72046      	
931.89886      	931.81256      	931.68616      	931.7311       	931.8213       	931.7765       	931.65173      	931.724        	931.8774       	931.9599       	932.01636      	932.0785       	932.13776      	932.07117      	932.04785      	932.0077       	932.0551       	932.0225       	932.0107       	931.97565      	932.04126      	931.9234       	931.94916      	932.1078       	932.0074       	932.0691       	932.0851       	932.00867      	932.06305      	932.10266      	932.153        	932.0281       	932.05493      	932.0944       	931.97754      	932.031        	932.0261       	932.0351       	931.94147      	931.9442       	932.0769       	932.0784       	932.00073      	931.96704      	931.9433       	931.93677      	931.91016      	931.95807      	931.97534      	931.918        	931.94763      	931.973        	931.9884       	931.9304       	931.9786       	932.0217       	931.9401       	931.91077      	931.89874      	931.9822       	932.02094      	931.95087      	932.00586      	931.98315      	932.0912       	932.11646      	932.1263       	932.12396      	932.1285       	931.9145       	931.73785      	931.9047       	932.0113       	932.0954       	931.97327      	931.953        	932.03876      	932.0094       	932.0281       	932.0117       	931.9193       	931.8965       	931.9644       	932.1172       	932.1775       	932.0596       	932.02905      	932.0624       	931.88605      	932.0764       	932.24243      	932.2222       	932.2705       	932.3233       	932.12274      	931.9346       	931.5645       	931.31946      	931.28394      	931.4142       	
931.45984      	931.4669       	931.2719       	931.2764       	931.31573      	931.3235       	931.2067       	931.25256      	931.4322       	931.5039       	931.57355      	931.62396      	931.672        	931.58466      	931.58466      	931.5752       	931.5935       	931.573        	931.5687       	931.5387       	931.5509       	931.6271       	931.47327      	931.6207       	931.52515      	931.5189       	931.519        	931.543        	931.5492       	931.59735      	931.6443       	931.6468       	931.5798       	931.6646       	931.5562       	931.54926      	931.53253      	931.47766      	931.4609       	931.47626      	931.6366       	931.5932       	931.49176      	931.5102       	931.48694      	931.45703      	931.53613      	931.5351       	931.5419       	931.5188       	931.4991       	931.56537      	931.5553       	931.51996      	931.55286      	931.5635       	931.50714      	931.496        	931.496        	931.4584       	931.59875      	931.4979       	931.4194       	931.52454      	931.5984       	931.61816      	931.69946      	931.6716       	931.7647       	931.55725      	931.44464      	931.49536      	931.52405      	931.4971       	931.5533       	931.718        	931.5788       	931.6103       	931.55206      	931.6199       	931.5693       	931.41223      	931.5644       	931.699        	931.7246       	931.72876      	931.6703       	931.65094      	931.6182       	931.7051       	931.6391       	931.84143      	931.87006      	931.91754      	931.8093       	931.6989       	931.2295       	930.90466      	930.8629       	930.9176       	
930.8486       	930.93066      	930.6729       	930.6977       	930.6108       	930.6293       	930.6034       	930.68787      	930.82184      	930.8675       	930.9378       	931.0173       	931.05023      	930.9597       	930.96246      	931.0045       	930.86707      	930.94305      	930.9099       	930.9082       	930.9097       	930.93774      	930.8993       	930.9398       	930.8499       	930.92114      	930.8607       	930.8771       	930.8575       	930.95355      	930.92126      	930.96246      	930.9503       	930.90027      	930.915        	930.8679       	930.8812       	930.8272       	930.85535      	930.87683      	930.8877       	930.8726       	930.831        	930.8733       	930.86646      	930.8561       	930.8265       	930.88245      	930.8173       	930.8341       	930.9502       	930.77185      	930.80817      	930.8302       	930.92194      	930.8272       	930.8939       	930.98004      	930.8665       	930.8446       	930.83923      	930.8744       	930.7848       	930.86237      	930.91376      	930.9838       	931.0332       	931.05927      	931.0972       	931.08685      	931.0221       	930.92786      	930.8538       	930.9446       	930.9755       	931.1067       	931.07935      	930.9929       	931.0165       	931.0667       	931.04926      	930.9876       	931.03644      	931.17554      	931.20807      	931.28156      	931.1146       	931.10156      	931.08307      	931.17194      	931.2605       	931.25476      	931.392        	931.35266      	931.3395       	931.2386       	930.8126       	930.40454      	930.4153       	930.44635      	
930.74426      	930.8418       	930.6967       	930.63855      	930.43524      	930.4886       	930.3927       	930.47095      	930.6048       	930.67084      	930.6986       	930.7384       	930.76965      	930.80963      	930.81067      	930.6953       	930.76764      	930.6851       	930.61975      	930.65326      	930.5771       	930.5911       	930.6364       	930.57623      	930.5217       	930.56146      	930.53503      	930.5111       	930.5277       	930.49347      	930.5099       	930.5215       	930.46814      	930.4576       	930.4662       	930.42065      	930.3819       	930.3877       	930.38153      	930.37695      	930.26495      	930.27875      	930.35004      	930.38385      	930.3427       	930.30994      	930.29144      	930.3018       	930.2362       	930.22894      	930.2337       	930.1778       	930.2513       	930.2447       	930.34467      	930.2031       	930.25195      	930.311        	930.26         	930.1754       	930.04114      	930.1673       	930.0776       	930.1259       	930.2179       	930.2454       	930.2356       	930.26556      	930.3103       	930.27856      	930.2585       	930.21277      	930.18555      	930.04407      	930.07196      	930.14386      	930.3085       	930.20715      	930.1075       	930.2706       	930.212        	930.1956       	930.11804      	930.2086       	930.2702       	930.266        	930.30396      	930.2307       	930.1696       	930.18616      	930.261        	930.2754       	930.35925      	930.4148       	930.4867       	930.31354      	930.0898       	929.6324       	929.49384      	929.63745      	
931.15765      	931.2011       	931.157        	931.11633      	930.746        	930.8269       	930.68585      	930.8209       	930.9573       	930.9886       	930.8901       	930.91595      	930.98627      	931.0712       	931.05676      	931.05035      	931.0276       	930.9776       	931.0111       	930.90436      	930.8438       	930.9184       	930.8824       	930.9146       	930.8305       	930.7737       	930.806        	930.75836      	930.72485      	930.7587       	930.8015       	930.73724      	930.6441       	930.6698       	930.75055      	930.6568       	930.6745       	930.7093       	930.6349       	930.5347       	930.50134      	930.5117       	930.56696      	930.5958       	930.59564      	930.5475       	930.564        	930.6008       	930.5358       	930.4584       	930.48334      	930.4652       	930.49976      	930.5146       	930.58167      	930.5858       	930.52075      	930.5211       	930.57166      	930.58044      	930.3213       	930.37836      	930.4333       	930.37006      	930.5105       	930.47614      	930.4017       	930.52527      	930.62946      	930.5896       	930.5427       	930.5392       	930.4965       	930.348        	930.3863       	930.2093       	930.3894       	930.40796      	930.4556       	930.5575       	930.58215      	930.38         	930.3894       	930.4376       	930.41656      	930.4813       	930.57214      	930.51337      	930.46027      	930.414        	930.5302       	930.53754      	930.48395      	930.5917       	930.6594       	930.69147      	930.44666      	929.98175      	929.7421       	929.8242       	
932.8852       	932.9195       	932.9426       	932.9366       	932.62006      	932.50336      	932.46906      	932.5176       	932.7372       	932.837        	932.62134      	932.6962       	932.77594      	932.9481       	933.0143       	932.9616       	932.9381       	932.89606      	932.9141       	932.8825       	932.8651       	932.8024       	932.81384      	932.8712       	932.862        	932.777        	932.7452       	932.857        	932.6638       	932.7096       	932.75256      	932.7917       	932.67065      	932.6394       	932.66864      	932.704        	932.68427      	932.6863       	932.6614       	932.6031       	932.54877      	932.63         	932.6416       	932.5906       	932.58844      	932.574        	932.5437       	932.55066      	932.4942       	932.45374      	932.52234      	932.5059       	932.51465      	932.56506      	932.65375      	932.58014      	932.547        	932.5126       	932.55414      	932.5488       	932.49207      	932.4632       	932.4984       	932.46814      	932.52875      	932.4746       	932.36285      	932.4938       	932.5801       	932.5003       	932.5434       	932.51215      	932.3966       	932.42633      	932.2081       	932.26953      	932.3888       	932.2506       	932.40015      	932.5433       	932.38324      	932.37036      	932.3009       	932.2844       	932.3314       	932.35767      	932.42957      	932.45215      	932.2923       	932.303        	932.33075      	932.3092       	932.32886      	932.31824      	932.4502       	932.45636      	932.4655       	931.89746      	931.5608       	931.6547       	
933.0664       	933.1358       	933.1401       	933.1388       	933.04926      	932.8672       	932.8987       	932.7688       	932.94696      	933.1854       	933.13324      	932.9849       	932.9711       	933.3106       	933.39636      	933.35004      	933.3393       	933.3545       	933.30237      	933.3356       	933.3765       	933.27747      	933.2104       	933.3014       	933.30725      	933.2461       	933.2532       	933.31903      	933.2716       	933.2232       	933.23755      	933.26587      	933.2663       	933.1839       	933.2149       	933.22107      	933.2587       	933.2548       	933.3802       	933.2233       	933.18884      	933.2986       	933.3567       	933.3256       	933.27594      	933.2858       	933.2766       	933.29596      	933.2341       	933.15955      	933.27893      	933.3417       	933.2704       	933.3114       	933.316        	933.34863      	933.3222       	933.2976       	933.45386      	933.37213      	933.3041       	933.3357       	933.3093       	933.3116       	933.3395       	933.3451       	933.3497       	933.35187      	933.44666      	933.47         	933.4932       	933.47943      	933.423        	933.35394      	933.3312       	933.2765       	933.113        	933.3831       	933.40466      	933.337        	933.4326       	933.294        	933.3149       	933.3181       	933.23676      	933.3108       	933.3754       	933.4496       	933.43256      	933.3808       	933.39624      	933.28064      	933.3382       	933.41675      	933.5531       	933.41986      	933.5664       	933.0468       	932.64636      	932.6689       	
932.4187       	932.42084      	932.40326      	932.4909       	932.39624      	932.2984       	932.2472       	932.22565      	932.144        	932.3604       	932.359        	932.0921       	932.2754       	932.4858       	932.6555       	932.5731       	932.58954      	932.55786      	932.5527       	932.5282       	932.5841       	932.5408       	932.4564       	932.46497      	932.5862       	932.471        	932.4934       	932.62915      	932.4804       	932.4727       	932.4805       	932.50134      	932.44305      	932.4476       	932.4516       	932.40814      	932.3652       	932.4617       	932.4474       	932.37024      	932.4664       	932.347        	932.499        	932.4854       	932.39905      	932.41406      	932.31683      	932.43396      	932.4489       	932.40326      	932.3864       	932.4555       	932.3842       	932.3888       	932.4446       	932.4615       	932.48395      	932.5475       	932.4852       	932.5356       	932.46         	932.373        	932.446        	932.6144       	932.3373       	932.4335       	932.35425      	932.474        	932.6285       	932.5733       	932.61066      	932.6198       	932.56445      	932.45905      	932.5123       	932.39453      	932.4369       	932.5658       	932.63605      	932.4866       	932.57104      	932.6083       	932.59863      	932.5688       	932.50323      	932.4873       	932.59015      	932.7312       	932.6493       	932.5311       	932.62195      	932.54193      	932.5472       	932.70026      	932.72424      	932.7909       	932.8844       	932.4225       	931.9641       	931.96063      	
932.29224      	932.24744      	932.2528       	932.3441       	932.31683      	932.26294      	932.2276       	932.14557      	932.20056      	932.11487      	932.04877      	931.9112       	932.12036      	932.2545       	932.38293      	932.4766       	932.4358       	932.4291       	932.4017       	932.39264      	932.489        	932.433        	932.3379       	932.3763       	932.3499       	932.4028       	932.4288       	932.3688       	932.35876      	932.26556      	932.26953      	932.26294      	932.2553       	932.24347      	932.2672       	932.2383       	932.1523       	932.2411       	932.2344       	932.16394      	932.13684      	932.26794      	932.2102       	932.26825      	932.18207      	932.0839       	932.1299       	932.2104       	932.235        	932.24194      	932.15106      	932.211        	932.19885      	932.172        	932.1136       	932.22363      	932.2262       	932.189        	932.2067       	932.2275       	932.32117      	932.2624       	932.25977      	932.3131       	932.1972       	932.27734      	932.12854      	932.1888       	932.3095       	932.315        	932.2322       	932.2536       	932.42096      	932.19916      	932.2917       	932.27246      	932.1788       	932.25494      	932.2976       	932.2966       	932.27924      	932.3454       	932.25806      	932.26715      	932.20447      	932.15894      	932.2833       	932.3609       	932.263        	932.2841       	932.2839       	932.25134      	932.2543       	932.281        	932.3153       	932.48364      	932.5147       	932.0802       	931.7751       	931.69275      	
932.0311       	932.0714       	932.1147       	932.25555      	932.19104      	932.1822       	932.1697       	932.1481       	932.1117       	932.04285      	931.8197       	931.98346      	931.9354       	932.0621       	932.21594      	932.36597      	932.4423       	932.4044       	932.23883      	932.30634      	932.31805      	932.3242       	932.235        	932.20245      	932.2577       	932.2727       	932.251        	932.28033      	932.26495      	932.1993       	932.2192       	932.1671       	932.2201       	932.27094      	932.0401       	932.11414      	932.162        	932.17456      	932.3165       	931.98395      	932.0878       	932.1459       	932.09503      	932.07227      	932.08655      	932.0867       	932.1501       	932.2426       	932.18756      	932.2014       	932.128        	932.20276      	932.20465      	932.1122       	932.2289       	932.13196      	932.1692       	932.1516       	932.1441       	932.3776       	932.04         	932.22235      	932.11884      	932.27795      	932.1471       	932.2227       	932.1642       	932.2217       	932.17834      	932.28         	932.22125      	932.3093       	932.24304      	932.29095      	932.40015      	932.3185       	932.2286       	932.2024       	932.22003      	932.22174      	932.2936       	932.2799       	932.2579       	932.19635      	932.28156      	932.2346       	932.2551       	932.3251       	932.30963      	932.2507       	932.2559       	932.24445      	932.2434       	932.35254      	932.286        	932.4576       	932.4194       	932.1377       	931.9093       	931.75336      	
931.32526      	931.28516      	931.42145      	931.4314       	931.3764       	931.45905      	931.5139       	931.4405       	931.2545       	931.22034      	931.01654      	931.1109       	931.13544      	931.10846      	931.2207       	931.4906       	931.55457      	931.60223      	931.5201       	931.5449       	931.5176       	931.4915       	931.45087      	931.4877       	931.42566      	931.4158       	931.4296       	931.445        	931.44434      	931.36884      	931.3388       	931.3567       	931.39624      	931.453        	931.235        	931.29987      	931.41736      	931.4128       	931.40393      	931.40405      	931.35767      	931.35315      	931.3744       	931.3312       	931.2818       	931.3375       	931.37317      	931.4247       	931.43744      	931.34534      	931.4469       	931.4822       	931.50323      	931.3832       	931.363        	931.3694       	931.3943       	931.41003      	931.44653      	931.4632       	931.4961       	931.6032       	931.38684      	931.5491       	931.48083      	931.41675      	931.41534      	931.43445      	931.56415      	931.4964       	931.5798       	931.5463       	931.54645      	931.6972       	931.56793      	931.5634       	931.60095      	931.5089       	931.489        	931.5804       	931.5619       	931.51324      	931.6233       	931.53424      	931.53394      	931.57104      	931.59406      	931.662        	931.71704      	931.6084       	931.6048       	931.65204      	931.6391       	931.6926       	931.7574       	931.85803      	931.7433       	931.5929       	931.4639       	931.2651       	
931.07104      	931.1019       	931.1147       	931.10516      	931.2479       	931.1918       	931.2347       	931.23004      	931.1645       	930.98706      	930.7831       	930.8017       	930.9109       	930.96735      	930.7769       	931.0891       	931.2758       	931.24054      	931.2584       	931.2474       	931.1752       	931.1899       	931.19824      	931.1279       	931.15265      	931.125        	931.1484       	931.09094      	931.05786      	931.012        	931.01337      	931.06537      	931.1312       	931.102        	931.1356       	930.7153       	930.94183      	931.085        	931.06647      	931.11597      	931.07544      	931.0311       	930.99585      	931.01746      	931.0149       	931.06714      	930.9882       	931.0272       	931.02905      	931.0378       	931.0217       	931.0443       	931.0264       	931.0435       	930.94666      	930.91296      	930.9145       	931.1282       	931.0187       	931.07513      	931.09503      	931.02496      	931.02203      	931.1514       	930.9997       	931.0456       	930.9805       	931.1318       	931.0906       	930.9809       	931.07574      	931.1768       	931.1928       	931.1311       	931.2117       	931.12274      	931.1605       	931.07416      	930.97266      	931.2064       	930.7581       	931.07574      	931.0523       	931.1471       	931.0525       	931.08496      	931.1342       	931.17535      	931.24963      	931.19635      	931.085        	931.10315      	931.2409       	931.16644      	931.1796       	931.3369       	931.2474       	931.1697       	930.8949       	930.8025       	
931.2338       	931.1913       	931.20746      	931.4219       	931.3906       	931.462        	931.4157       	931.37683      	931.3285       	931.2128       	931.0297       	931.0918       	931.05804      	931.0271       	931.0284       	931.1133       	931.3334       	931.3971       	931.37695      	931.3983       	931.40955      	931.33655      	931.40784      	931.2829       	931.288        	931.3861       	931.3913       	931.2624       	931.19855      	931.21136      	931.2044       	931.30347      	931.3063       	931.2711       	931.2832       	931.0035       	930.91656      	931.2344       	931.2841       	931.29004      	931.2594       	931.14         	931.1819       	931.13824      	931.19684      	931.23737      	931.19946      	931.2003       	931.1809       	931.249        	931.17084      	931.10925      	931.19073      	931.22766      	931.1553       	931.1494       	931.11975      	931.2692       	931.2132       	931.23083      	931.44666      	931.0853       	931.05475      	931.0416       	931.1969       	931.1842       	931.1263       	931.3855       	931.2891       	931.23804      	931.22076      	931.07996      	931.3206       	931.2455       	931.3442       	931.19867      	931.3287       	931.3147       	931.2514       	931.0811       	931.13464      	931.28864      	931.2233       	931.1822       	931.19226      	931.1973       	931.2081       	931.28723      	931.3148       	931.19574      	931.1555       	931.1494       	931.1803       	931.2349       	931.24817      	931.2595       	931.34656      	931.3484       	931.09564      	931.02386      	
931.8685       	931.886        	931.9503       	932.0017       	932.0445       	932.0814       	932.0438       	931.977        	931.9423       	931.87335      	931.7416       	931.7458       	931.78125      	931.67194      	931.6293       	931.46875      	931.76624      	931.9046       	931.99097      	931.9844       	931.9732       	932.01044      	931.9001       	931.7908       	931.8484       	931.92456      	931.8774       	931.836        	931.6946       	931.7116       	931.7685       	931.74835      	931.802        	931.73737      	931.752        	931.70306      	931.7347       	931.67773      	931.80505      	931.7903       	931.80316      	931.6911       	931.6781       	931.68335      	931.73987      	931.7701       	931.72546      	931.7201       	931.73676      	931.733        	931.699        	931.7062       	931.7892       	931.7387       	931.706        	931.73236      	931.6634       	931.75616      	931.7156       	931.93567      	931.6207       	931.5681       	931.7256       	931.8365       	931.61676      	931.69684      	931.7688       	931.6624       	931.70496      	931.7748       	931.71814      	931.6109       	931.6836       	931.6695       	931.6187       	931.61554      	931.75867      	931.80426      	931.6712       	931.6761       	931.6589       	931.6986       	931.7231       	931.657        	931.7566       	931.58374      	931.6107       	931.6783       	931.6962       	931.64056      	931.71906      	931.6397       	931.5813       	931.6211       	931.624        	931.57916      	931.6739       	931.70544      	931.5364       	931.44476      	
932.2657       	932.28424      	932.3707       	932.34705      	932.4034       	932.44226      	932.39606      	932.43695      	932.3536       	932.24927      	932.1517       	932.10156      	932.1144       	932.0598       	931.92926      	931.79645      	931.97424      	932.12537      	932.22815      	932.25085      	932.3336       	932.34106      	932.3125       	932.2467       	932.2741       	932.27954      	932.27014      	932.1572       	932.1549       	932.0934       	932.1532       	932.162        	932.1074       	932.198        	932.1264       	932.1731       	932.1278       	932.0776       	932.1759       	932.14136      	932.1758       	932.12836      	932.05634      	932.0797       	932.16125      	932.18744      	932.20026      	932.13776      	932.13855      	932.1806       	932.12994      	932.1654       	932.24603      	932.1814       	932.08167      	932.11194      	932.1113       	932.00104      	931.8478       	932.2005       	932.0045       	932.1637       	932.04254      	932.1165       	932.0294       	932.3812       	932.1142       	932.1982       	932.27466      	932.20013      	932.11945      	931.9864       	932.0104       	932.13324      	931.94525      	931.98755      	932.2548       	932.20416      	932.1776       	932.22253      	932.0738       	931.9545       	932.0703       	932.17957      	932.1814       	932.0148       	932.0592       	932.0537       	932.10706      	932.0758       	932.1184       	932.15753      	932.0543       	932.0812       	932.0904       	932.0141       	932.1062       	932.0385       	932.0212       	932.0911       	
932.34344      	932.47534      	932.3981       	932.4503       	932.3987       	932.5358       	932.48236      	932.4869       	932.4511       	932.37164      	932.3204       	932.269        	932.23285      	932.1728       	932.00916      	931.9749       	932.0909       	932.12836      	932.24445      	932.3344       	932.471        	932.50256      	932.45056      	932.4472       	932.36804      	932.37427      	932.31793      	932.2682       	932.30426      	932.23535      	932.2688       	932.2914       	932.1866       	932.3261       	932.31024      	932.3128       	932.3119       	932.293        	932.2162       	932.2479       	932.2665       	932.2973       	932.20593      	932.1295       	932.2363       	932.28656      	932.264        	932.25073      	932.2943       	932.33307      	932.35547      	932.35535      	932.3876       	932.3396       	932.2516       	932.1833       	932.2519       	931.8318       	932.0448       	932.41705      	932.2767       	932.37463      	932.3026       	932.43         	932.47125      	932.4142       	932.4374       	932.4312       	932.49475      	932.2959       	932.3216       	932.2946       	932.3561       	932.2352       	932.1725       	932.3529       	932.3763       	932.2523       	932.30365      	932.38464      	932.34534      	932.17413      	932.30536      	932.10474      	932.44104      	932.1953       	932.3092       	932.15875      	932.2861       	932.2497       	932.29034      	932.19196      	932.20886      	932.30334      	932.2384       	932.3564       	932.2945       	932.28577      	932.4489       	932.4596       	
932.51245      	932.52734      	932.4934       	932.4809       	932.4766       	932.4796       	932.578        	932.6152       	932.5592       	932.39294      	932.2331       	932.3827       	932.4644       	932.28296      	932.182        	932.1539       	932.13306      	932.1238       	932.11163      	932.3342       	932.5098       	932.5495       	932.5727       	932.5075       	932.422        	932.372        	932.3863       	932.4222       	932.441        	932.2369       	932.28796      	932.3469       	932.44763      	932.489        	932.3837       	932.3733       	932.35486      	932.36255      	932.4362       	932.3157       	932.2599       	932.35114      	932.2765       	932.27905      	932.3044       	932.30115      	932.37823      	932.3422       	932.2562       	932.4335       	932.4072       	932.43134      	932.3982       	932.1124       	932.23694      	932.10364      	932.21674      	931.9735       	932.1813       	932.23145      	932.3298       	932.5114       	932.4566       	932.52484      	932.62366      	932.554        	932.5909       	932.62146      	932.60535      	932.48175      	932.4388       	932.4195       	932.3563       	932.41986      	932.2402       	932.4366       	932.40625      	932.335        	932.26636      	932.42633      	932.4906       	932.3937       	932.4001       	932.18335      	932.3372       	932.40796      	932.45386      	932.26697      	932.15454      	932.31683      	932.3886       	932.3103       	932.32825      	932.3687       	932.30176      	932.42896      	932.50543      	932.3805       	932.4424       	932.5279       	
932.5198       	932.5146       	932.56274      	932.529        	932.37573      	932.55774      	932.61395      	932.6937       	932.65436      	932.48315      	932.28766      	932.48956      	932.449        	932.4678       	932.2692       	932.22253      	932.21686      	932.18317      	932.15466      	932.2821       	932.4586       	932.5802       	932.628        	932.5804       	932.4771       	932.4714       	932.49695      	932.48596      	932.49097      	932.40247      	932.33594      	932.4132       	932.5954       	932.48694      	932.4716       	932.4443       	932.4424       	932.3981       	932.4066       	932.47205      	932.5115       	932.4639       	932.46844      	932.49805      	932.4503       	932.4633       	932.48694      	932.4633       	932.481        	932.5354       	932.5316       	932.53186      	932.34436      	932.3829       	932.18567      	932.19055      	932.15173      	932.17615      	932.3306       	932.4954       	932.5675       	932.5978       	932.672        	932.5946       	932.62756      	932.76654      	932.7934       	932.72906      	932.7743       	932.74915      	932.6016       	932.6413       	932.48883      	932.5269       	932.6813       	932.48816      	932.40466      	932.6617       	932.4198       	932.6097       	932.4547       	932.6057       	932.3954       	932.48145      	932.32166      	932.5943       	932.37854      	932.4729       	932.38306      	932.46643      	932.49347      	932.4883       	932.40436      	932.36774      	932.3019       	932.4644       	932.57446      	932.46155      	932.5211       	932.60864      	
932.4426       	932.42         	932.40466      	932.27795      	932.2793       	932.39166      	932.5141       	932.61536      	932.44214      	932.31824      	932.3072       	932.34155      	932.3004       	932.3502       	932.1896       	932.10425      	932.10034      	932.05054      	932.141        	932.1552       	932.29205      	932.36707      	932.45935      	932.4447       	932.4312       	932.3816       	932.3992       	932.4115       	932.29944      	932.3891       	932.15295      	932.0518       	932.20544      	932.3634       	932.41296      	932.35657      	932.3777       	932.36066      	932.29944      	932.2984       	932.33765      	932.33203      	932.35065      	932.36334      	932.3559       	932.302        	932.39484      	932.42426      	932.399        	932.3767       	932.4146       	932.2675       	932.1607       	932.1061       	931.9994       	932.0908       	932.1187       	932.19073      	932.059        	932.2821       	932.44635      	932.3054       	932.31793      	932.42377      	932.52563      	932.53394      	932.59235      	932.77045      	932.6181       	932.543        	932.5064       	932.36334      	932.4486       	932.2422       	932.25775      	932.5017       	932.4981       	932.48285      	932.37115      	932.4335       	932.3613       	932.4309       	932.40515      	932.26105      	932.36096      	932.4824       	932.4476       	932.28424      	932.37085      	932.3342       	932.3516       	932.33203      	932.36426      	932.1172       	932.1467       	932.2725       	932.3556       	932.27704      	932.3392       	932.4694       	
932.3827       	932.4203       	932.3766       	932.21484      	932.25385      	932.31433      	932.4066       	932.514        	932.3197       	932.2733       	932.2493       	932.33405      	932.30835      	932.2473       	932.1321       	931.9658       	931.89087      	932.01636      	932.0263       	932.0613       	932.12933      	932.24536      	932.2598       	932.3365       	932.3072       	932.3207       	932.3578       	932.3633       	932.29364      	932.30426      	932.2263       	932.2142       	932.2977       	932.3275       	932.2753       	932.2501       	932.23535      	932.2572       	932.1549       	932.1588       	932.21783      	932.24274      	932.22125      	932.27234      	932.2592       	932.2681       	932.301        	932.3658       	932.3437       	932.2772       	932.1478       	932.1158       	931.9728       	931.9356       	932.053        	932.08075      	932.0194       	931.9837       	932.1508       	932.1536       	932.2826       	932.1586       	932.1441       	932.23755      	932.27075      	932.3467       	932.36365      	932.4656       	932.55005      	932.52484      	932.5528       	932.4898       	932.3476       	932.29974      	932.1884       	932.3933       	932.39453      	932.32776      	932.29974      	932.31964      	932.2691       	932.3467       	932.2761       	932.2793       	932.2803       	932.2641       	932.2401       	932.31616      	932.39886      	932.1861       	932.22363      	932.2319       	932.3333       	932.15344      	932.121        	932.1895       	932.2998       	932.26764      	932.2814       	932.33453      	
932.3721       	932.3977       	932.3764       	932.2903       	932.1875       	932.2002       	932.3061       	932.3893       	932.19336      	932.2753       	932.4297       	932.3591       	932.26044      	932.2829       	932.2204       	932.06696      	931.768        	931.9628       	932.08105      	932.12213      	932.18005      	932.2023       	932.2689       	932.23236      	932.3571       	932.4066       	932.4003       	932.3398       	932.34076      	932.32         	932.2806       	932.3014       	932.31635      	932.3266       	932.2472       	932.2614       	932.23663      	932.3038       	932.2441       	932.21216      	932.24567      	932.2847       	932.2258       	932.2464       	932.20386      	932.29596      	932.3764       	932.3228       	932.27936      	932.25543      	932.08734      	931.8959       	931.8389       	932.0102       	931.9491       	932.11096      	932.0025       	931.93164      	932.0858       	932.0624       	931.98376      	931.97766      	931.94403      	932.2058       	932.34576      	932.29         	932.38257      	932.31433      	932.5154       	932.514        	932.4366       	932.3282       	932.26355      	932.2411       	932.0933       	932.26575      	932.2497       	932.32214      	932.25415      	932.1758       	932.2977       	932.33075      	932.195        	932.1514       	932.278        	932.28424      	932.07         	932.2809       	932.3188       	932.2182       	932.15875      	932.15015      	932.2546       	932.1247       	932.0011       	932.02527      	932.1713       	932.15125      	932.184        	932.2148       	
932.4036       	932.411        	932.39636      	932.3718       	932.2982       	932.2943       	932.2455       	932.18854      	932.2594       	932.41296      	932.5989       	932.51984      	932.32117      	932.2844       	932.19104      	932.14105      	931.9601       	931.8747       	932.113        	932.1732       	932.20337      	932.21326      	932.21246      	932.1596       	932.33636      	932.43335      	932.40326      	932.3409       	932.27576      	932.32385      	932.36487      	932.3066       	932.36206      	932.39984      	932.33746      	932.2224       	932.23206      	932.30133      	932.2387       	932.22986      	932.2995       	932.34155      	932.224        	932.1764       	932.3803       	932.15894      	932.37994      	932.4061       	932.38544      	932.2185       	932.11383      	932.00934      	931.8788       	932.14325      	932.1335       	932.1166       	931.9682       	931.88293      	932.1034       	932.2267       	932.05505      	931.9929       	932.1715       	932.3656       	932.47437      	932.4884       	932.58466      	932.36224      	932.436        	932.5053       	932.4542       	932.3805       	932.34015      	932.2128       	932.34467      	932.45123      	932.3524       	932.3434       	932.34015      	932.2763       	932.3427       	932.3809       	932.25745      	932.211        	932.33246      	932.3569       	932.36615      	932.3785       	932.3155       	932.2818       	932.2437       	932.0942       	932.2437       	932.28284      	932.1835       	932.10187      	932.15         	932.20056      	932.20074      	932.2755       	
932.462        	932.4072       	932.35815      	932.3959       	932.2965       	932.3131       	932.317        	932.2496       	932.3595       	932.55707      	932.6543       	932.4628       	932.365        	932.3915       	932.1972       	932.12396      	932.07104      	931.97394      	932.1316       	932.17065      	932.2271       	932.1653       	932.0957       	932.0798       	932.4444       	932.4672       	932.37726      	932.3764       	932.281        	932.37494      	932.46124      	932.32745      	932.36176      	932.32086      	932.35034      	932.28613      	932.29297      	932.3544       	932.2744       	932.3175       	932.32446      	932.2687       	932.2413       	932.29254      	932.33374      	932.2032       	932.51697      	932.20026      	932.18005      	932.1851       	932.07214      	931.9233       	931.9978       	932.2153       	932.07214      	931.9678       	932.1824       	932.08563      	931.9584       	932.25256      	932.054        	931.97656      	931.998        	932.23285      	932.27936      	932.50696      	932.5886       	932.4037       	932.42523      	932.5118       	932.30536      	932.3608       	932.3119       	932.3225       	932.35645      	932.4203       	932.3785       	932.30725      	932.2985       	932.26         	932.3414       	932.3698       	932.2206       	932.2621       	932.37946      	932.45544      	932.37726      	932.42474      	932.4475       	932.37067      	932.2379       	932.33234      	932.2065       	932.30896      	932.2929       	932.1267       	932.17224      	932.2101       	932.18036      	932.184        	
932.50397      	932.4913       	932.4391       	932.3678       	932.3927       	932.50543      	932.43445      	932.41724      	932.51166      	932.6481       	932.6644       	932.4792       	932.4757       	932.4513       	932.26605      	932.20416      	932.1774       	932.0987       	932.20374      	932.3102       	932.25385      	932.2281       	932.0745       	932.1572       	932.4746       	932.5706       	932.5359       	932.514        	932.4444       	932.48285      	932.5025       	932.40137      	932.40063      	932.3971       	932.3458       	932.4122       	932.3288       	932.3802       	932.4789       	932.4395       	932.35443      	932.3199       	932.239        	932.4267       	932.2897       	932.4814       	932.40076      	932.21234      	932.4801       	932.2042       	932.26135      	932.28125      	932.2094       	932.16693      	932.2058       	932.17413      	932.20776      	932.19995      	932.13196      	932.297        	932.2566       	932.0929       	932.293        	932.35583      	932.309        	932.4446       	932.5901       	932.5807       	932.67017      	932.3316       	932.2154       	932.42126      	932.3984       	932.31555      	932.47266      	932.4092       	932.37823      	932.31415      	932.27734      	932.2829       	932.4449       	932.37964      	932.2485       	932.2486       	932.29407      	932.5106       	932.53424      	932.4921       	932.4556       	932.4475       	932.34937      	932.4133       	932.5709       	932.43945      	932.3307       	932.1859       	932.2825       	932.2556       	932.1511       	932.1536       	
932.86176      	932.77747      	932.762        	932.61304      	932.7761       	932.8263       	932.85486      	932.85266      	932.88306      	932.945        	932.927        	932.83716      	932.831        	932.6627       	932.66736      	932.5777       	932.5253       	932.5546       	932.5331       	932.6065       	932.5523       	932.5395       	932.45483      	932.3675       	932.6563       	932.91394      	932.8793       	932.9203       	932.85144      	932.8185       	932.8563       	932.81537      	932.75824      	932.7349       	932.70746      	932.7126       	932.6659       	932.7184       	932.7851       	932.7973       	932.70404      	932.64856      	932.5499       	932.70044      	932.7001       	932.74286      	932.8239       	932.75006      	932.5479       	932.6094       	932.63464      	932.5393       	932.56226      	932.42377      	932.3622       	932.40686      	932.46094      	932.5043       	932.4453       	932.72534      	932.48004      	932.5615       	932.71735      	932.7066       	932.6467       	932.88074      	933.0641       	932.9118       	932.82324      	932.7193       	932.66125      	932.626        	932.69305      	932.5583       	932.7813       	932.7259       	932.6913       	932.673        	932.7087       	932.6555       	932.6731       	932.7392       	932.6224       	932.55963      	932.68774      	932.755        	932.7975       	932.74536      	932.6832       	932.7623       	932.70953      	932.66266      	932.5938       	932.62476      	932.6078       	932.50464      	932.5787       	932.5105       	932.3873       	932.39905      	
933.2874       	933.1547       	933.2288       	933.0816       	933.018        	933.1403       	933.1337       	933.26373      	933.2394       	933.2161       	933.17865      	933.1523       	933.10583      	933.10474      	933.00885      	932.82513      	932.8685       	933.0017       	933.0009       	932.945        	932.98926      	932.831        	932.8153       	932.7636       	933.01697      	933.16266      	933.20996      	933.24133      	933.2522       	933.10535      	933.1648       	933.10675      	933.0162       	933.0914       	933.108        	933.0746       	933.0474       	933.0837       	933.095        	933.0736       	933.0937       	933.05927      	933.05817      	933.0216       	932.9967       	933.0919       	933.3026       	933.0604       	933.1247       	933.0056       	933.0079       	932.9196       	932.8517       	932.70996      	932.6797       	932.7763       	932.68744      	932.71643      	932.708        	932.86743      	932.81616      	932.7056       	933.00977      	932.9092       	932.99567      	933.4437       	933.5195       	933.0439       	933.2361       	933.12146      	933.0224       	932.8698       	932.95013      	932.95874      	933.03784      	933.00745      	932.96906      	933.0879       	933.08093      	933.06305      	933.071        	933.10156      	933.0485       	932.80804      	933.00543      	933.00885      	933.0853       	933.10126      	933.01465      	933.1608       	933.1187       	932.9723       	932.9535       	932.95966      	932.8887       	932.9596       	932.76324      	932.65234      	932.9224       	933.01276      	
933.6021       	933.4358       	933.4945       	933.52386      	933.441        	933.3916       	933.46124      	933.5484       	933.5717       	933.48773      	933.4781       	933.4102       	933.4509       	933.42004      	933.26465      	933.1748       	933.25085      	933.36847      	933.3889       	933.34174      	933.35376      	933.24414      	933.17523      	933.1459       	933.2549       	933.436        	933.48175      	933.62823      	933.5788       	933.5217       	933.52277      	933.5004       	933.4342       	933.55005      	933.5409       	933.4613       	933.39215      	933.4092       	933.4085       	933.4132       	933.4661       	933.4232       	933.489        	933.32465      	933.54065      	933.30457      	933.4719       	933.5053       	933.39874      	933.404        	933.3206       	933.34375      	933.15436      	933.015        	933.1074       	933.10785      	933.1046       	933.1286       	932.9935       	933.1952       	933.00433      	933.05493      	933.31573      	933.35504      	933.5358       	933.8178       	933.8333       	933.5375       	933.7091       	933.43976      	933.3733       	933.30634      	933.4987       	933.2356       	933.3585       	933.28314      	933.28894      	933.43335      	933.469        	933.4249       	933.41046      	933.44495      	933.44104      	933.2418       	933.42145      	933.27515      	933.3311       	933.38336      	933.36414      	933.4734       	933.5209       	933.50854      	933.49274      	933.2701       	933.24915      	933.30597      	933.00824      	933.0022       	933.30524      	933.48926      	
933.60675      	933.51715      	933.4823       	933.4657       	933.51196      	933.4424       	933.4004       	933.54517      	933.54095      	933.57574      	933.57117      	933.5062       	933.51953      	933.4799       	933.32684      	933.3598       	933.37854      	933.40955      	933.4096       	933.4887       	933.48627      	933.3506       	933.13416      	933.2035       	933.2513       	933.336        	933.5621       	933.68164      	933.66614      	933.4968       	933.57605      	933.5235       	933.5972       	933.6311       	933.5728       	933.5221       	933.52893      	933.4796       	933.4548       	933.44         	933.5354       	933.5687       	933.58496      	933.5154       	933.3665       	933.47516      	933.6133       	933.52234      	933.4711       	933.4499       	933.52136      	933.5024       	933.3267       	933.4368       	933.2138       	933.2377       	933.21326      	933.1787       	933.20905      	933.27356      	933.2395       	933.2955       	933.3829       	933.45215      	933.67084      	933.92224      	933.7193       	933.8075       	933.7025       	933.5553       	933.43646      	933.50037      	933.5509       	933.43427      	933.4452       	933.4042       	933.43585      	933.5336       	933.5397       	933.5118       	933.4567       	933.46625      	933.53         	933.5084       	933.538        	933.4323       	933.41266      	933.5121       	933.4996       	933.5221       	933.5522       	933.4979       	933.60425      	933.5806       	933.3985       	933.3366       	933.3598       	933.3992       	933.4971       	933.56274      	
933.6469       	933.54987      	933.4795       	933.4499       	933.4216       	933.3635       	933.42706      	933.5226       	933.5082       	933.5216       	933.58215      	933.4316       	933.42633      	933.5351       	933.305        	933.32355      	933.46497      	933.289        	933.398        	933.4525       	933.48914      	933.3479       	933.16284      	933.1161       	933.14056      	933.31555      	933.54236      	933.7157       	933.6501       	933.5823       	933.6104       	933.6288       	933.662        	933.64557      	933.6641       	933.5287       	933.4909       	933.4931       	933.49615      	933.5169       	933.53577      	933.58295      	933.5587       	933.5474       	933.46814      	933.4059       	933.518        	933.5719       	933.5745       	933.46576      	933.5399       	933.4538       	933.4809       	933.41907      	933.25824      	933.07355      	933.1133       	933.0173       	933.12494      	933.3181       	933.19434      	933.31177      	933.4593       	933.4869       	933.65594      	933.68805      	933.6376       	933.85223      	933.58563      	933.40265      	933.44977      	933.4821       	933.5177       	933.3771       	933.3712       	933.40985      	933.40466      	933.45996      	933.5341       	933.4853       	933.4347       	933.4703       	933.4325       	933.4884       	933.6017       	933.28577      	933.3746       	933.3941       	933.46484      	933.4333       	933.4293       	933.4381       	933.4638       	933.4171       	933.28845      	933.245        	933.42896      	933.49243      	933.4719       	933.3318       	
933.6532       	933.6991       	933.5169       	933.42554      	933.39606      	933.4941       	933.525        	933.5839       	933.57965      	933.6063       	933.5963       	933.60254      	933.5004       	933.50104      	933.3749       	933.4223       	933.495        	933.38336      	933.36237      	933.5192       	933.40076      	933.3233       	933.1591       	933.15137      	933.1807       	933.3304       	933.5265       	933.72626      	933.60785      	933.57996      	933.60895      	933.62695      	933.6401       	933.6139       	933.55023      	933.4911       	933.4737       	933.54193      	933.5619       	933.50287      	933.60156      	933.594        	933.4887       	933.45514      	933.4703       	933.4527       	933.41003      	933.4961       	933.5455       	933.5048       	933.4818       	933.60535      	933.444        	933.1938       	933.2786       	933.0976       	933.0829       	932.92535      	933.22174      	933.2106       	933.2817       	933.6026       	933.7278       	933.7094       	933.6758       	933.68164      	933.67316      	933.5218       	933.4288       	933.32465      	933.4252       	933.4509       	933.5178       	933.4342       	933.3974       	933.31323      	933.4541       	933.4823       	933.4949       	933.5106       	933.5225       	933.5312       	933.5385       	933.53485      	933.59235      	933.4714       	933.3149       	933.4272       	933.5152       	933.46326      	933.3972       	933.4374       	933.5116       	933.4593       	933.3136       	933.3161       	933.5677       	933.6804       	933.4989       	933.4036       	
934.1866       	934.1491       	934.10455      	933.9394       	933.9872       	934.1054       	934.1728       	934.12213      	934.08844      	934.0648       	934.21344      	934.16534      	934.09143      	934.0857       	934            	933.9521       	934.03973      	934.0482       	933.8611       	933.95123      	933.9259       	933.9426       	933.7559       	933.7864       	933.8212       	933.94037      	934.09125      	934.20154      	934.1976       	934.1845       	934.17865      	934.2066       	934.20087      	934.12604      	934.1059       	934.11884      	934.02966      	934.0312       	934.0263       	934.0735       	934.15594      	934.07416      	934.0138       	934.0586       	933.9617       	934.0634       	933.93713      	934.01337      	934.1          	933.9925       	933.9268       	933.988        	933.964        	934.0198       	933.8311       	933.75397      	933.60767      	933.5084       	933.7182       	933.7524       	933.7631       	934.04785      	934.17474      	934.0567       	934.28766      	934.224        	934.22455      	934.06415      	933.9558       	934.0177       	933.99475      	933.9219       	933.97546      	933.89496      	933.87683      	933.79584      	933.93353      	934.00977      	934.0508       	934.0834       	933.91724      	933.9249       	933.9783       	933.9538       	933.95337      	933.885        	933.89496      	933.8711       	933.9503       	933.93787      	933.86755      	933.83307      	933.88074      	933.7923       	933.7614       	933.7117       	933.8378       	934.10425      	934.0179       	933.8866       	
933.59644      	933.5888       	933.44836      	933.3188       	933.4503       	933.6296       	933.76245      	933.5332       	933.5189       	933.6078       	933.7436       	933.7565       	933.6944       	933.6387       	933.53796      	933.5872       	933.7333       	933.6692       	933.45044      	933.4222       	933.4644       	933.37756      	933.36975      	933.37213      	933.45667      	933.4722       	933.60406      	933.66797      	933.722        	933.7382       	933.74506      	933.806        	933.71735      	933.8105       	933.7858       	933.7875       	933.7178       	933.6407       	933.7048       	933.7203       	933.72925      	933.72784      	933.70087      	933.75323      	933.6386       	933.6295       	933.7826       	933.79785      	933.7921       	933.7389       	933.9252       	933.65894      	933.7689       	933.8192       	933.6889       	933.4782       	933.4526       	933.3968       	933.4772       	933.5052       	933.7933       	933.8312       	933.7569       	934.1256       	934.0811       	934.07513      	934.19086      	933.88806      	934.0028       	934.0665       	933.9278       	933.87573      	933.9481       	933.8405       	933.87555      	933.91174      	933.89087      	934.02747      	934.0515       	934.04333      	933.94867      	933.9492       	933.9747       	933.9252       	933.8905       	933.90784      	934.0247       	933.90204      	934.0438       	933.99475      	934.00964      	933.92847      	933.90686      	933.9183       	933.89526      	933.7979       	933.7465       	934.16907      	934.13617      	934.05005      	
932.4768       	932.4444       	932.2945       	932.22797      	932.30365      	932.51044      	932.53326      	932.4121       	932.35065      	932.4703       	932.537        	932.5972       	932.63605      	932.6039       	932.5401       	932.5826       	932.5306       	932.47723      	932.31995      	932.1983       	932.29755      	932.30786      	932.3569       	932.3656       	932.4203       	932.3873       	932.4745       	932.519        	932.51245      	932.6391       	932.6581       	932.61804      	932.60583      	932.68646      	932.7027       	932.75055      	932.69946      	932.5281       	932.67993      	932.6522       	932.59894      	932.6317       	932.59406      	932.5377       	932.6579       	932.7128       	932.61945      	932.6263       	932.6555       	932.6865       	932.6879       	932.7234       	932.667        	932.6033       	932.6423       	932.5311       	932.4606       	932.3177       	932.53784      	932.5053       	932.57935      	932.54535      	932.64874      	932.838        	932.9854       	932.9109       	932.81287      	932.9348       	932.85785      	932.8347       	932.7455       	932.7014       	932.7258       	932.7022       	932.8284       	932.82465      	932.77057      	932.86237      	933.0078       	932.87427      	932.8417       	932.96747      	932.90515      	932.878        	932.76166      	932.8031       	932.9106       	932.9159       	932.96136      	932.973        	932.9379       	932.94684      	932.8351       	932.8541       	932.68854      	932.79956      	932.72266      	933.05066      	933.1185       	932.9694       	
931.8735       	931.804        	931.6972       	931.6249       	931.585        	931.7753       	931.92145      	931.70245      	931.6635       	931.77966      	931.9567       	931.90247      	931.99036      	932.0027       	931.9222       	931.8962       	931.8138       	931.7747       	931.6689       	931.5554       	931.58844      	931.6596       	931.4668       	931.55914      	931.6566       	931.69305      	931.6673       	931.7271       	931.76276      	931.9258       	931.9224       	931.89886      	931.9209       	931.931        	931.9073       	931.9542       	931.97394      	931.9118       	931.9796       	931.8873       	931.86707      	931.82825      	931.7942       	931.85284      	932.0045       	931.7897       	931.83264      	931.94763      	932.0361       	931.9557       	931.90173      	931.91046      	932.0159       	931.70087      	931.84625      	931.7699       	931.6238       	931.6796       	931.4553       	931.5853       	931.7048       	931.9642       	931.988        	932.1161       	931.89777      	931.9489       	931.91394      	932.0559       	931.9473       	931.80115      	931.864        	931.84924      	931.7478       	931.8352       	931.9          	931.91235      	931.95764      	931.9354       	931.9706       	931.8655       	931.8408       	931.9758       	931.9874       	931.9296       	931.9202       	931.8623       	931.82715      	931.8552       	931.9983       	932.0314       	932.00183      	931.98596      	931.9745       	931.82623      	931.72943      	931.7859       	931.5494       	931.8985       	932.1059       	932.0447       	
931.9964       	931.9848       	931.86774      	931.74066      	931.6875       	931.84924      	931.9926       	931.8988       	931.7362       	931.9977       	932.01306      	932.0917       	932.1483       	932.16956      	932.08606      	932.0264       	931.9809       	931.85345      	931.97485      	931.71246      	931.66626      	931.83655      	931.81824      	931.7935       	931.68195      	931.7073       	931.7298       	931.706        	931.80286      	931.9316       	931.9514       	931.7792       	931.98035      	932.0374       	931.9568       	931.97076      	931.9889       	932.044        	932.03094      	931.8948       	931.8901       	931.75006      	931.7811       	931.8648       	931.80035      	931.77216      	931.71814      	931.9111       	931.8219       	931.83234      	931.86523      	931.8601       	931.8493       	931.8349       	931.8041       	931.8224       	931.76825      	931.63403      	931.7754       	931.5981       	931.7997       	932.13403      	931.9358       	931.92566      	931.60254      	931.9638       	931.66394      	931.93823      	931.8831       	931.7087       	931.70245      	931.81476      	931.8815       	931.83234      	931.87854      	931.9047       	931.8487       	931.82117      	931.8343       	931.6231       	931.71936      	931.8486       	931.83655      	931.89716      	931.93445      	931.7758       	931.6946       	931.69525      	931.7484       	931.8145       	931.8948       	931.9396       	931.8629       	931.8213       	931.6151       	931.60443      	931.45074      	931.69916      	931.9756       	931.99915      	
932.5699       	932.5426       	932.452        	932.3394       	932.2468       	932.5026       	932.4993       	932.5192       	932.3526       	932.5043       	932.64856      	932.64087      	932.6315       	932.6617       	932.6127       	932.5834       	932.58734      	932.52734      	932.4848       	932.4198       	932.3188       	932.31866      	932.4118       	932.32574      	932.2604       	932.33453      	932.27155      	932.29626      	932.30896      	932.3777       	932.40594      	932.4375       	932.4647       	932.4659       	932.38245      	932.46136      	932.5477       	932.4859       	932.5167       	932.4356       	932.3699       	932.38934      	932.3076       	932.33453      	932.3598       	932.2234       	932.308        	932.3904       	932.3722       	932.4001       	932.329        	932.3305       	932.278        	932.4188       	932.32825      	932.3083       	932.3505       	932.21594      	932.3739       	932.05316      	932.5331       	932.50256      	932.37665      	932.32935      	932.236        	932.19946      	932.36206      	932.3568       	932.2847       	932.0978       	932.1942       	932.3031       	932.3774       	932.31415      	932.31323      	932.3124       	932.3137       	932.3258       	932.2719       	932.1801       	932.0364       	932.1191       	932.189        	932.20764      	932.2437       	932.28516      	932.1879       	932.17163      	932.1582       	932.2018       	932.21313      	932.3528       	932.3144       	932.2172       	932.107        	931.91644      	931.795        	931.97815      	932.3363       	932.3985       	
933.3028       	933.265        	933.21735      	933.1182       	933.14215      	933.2132       	933.3138       	933.25165      	933.1233       	933.2237       	933.442        	933.4202       	933.4194       	933.433        	933.394        	933.3086       	933.41205      	933.256        	933.2995       	933.2226       	933.2269       	933.1397       	933.1492       	933.12366      	933.08453      	933.0963       	933.0229       	933.0178       	933.0898       	933.1263       	933.1923       	933.24115      	933.2045       	933.14984      	933.19495      	933.22986      	933.24744      	933.2901       	933.27203      	933.2503       	933.2021       	933.0824       	933.1527       	933.1233       	933.15735      	933.1345       	933.06177      	933.1349       	933.07916      	933.0813       	933.10284      	933.1113       	933.0475       	933.07916      	933.1105       	933.1035       	933.18915      	933.19116      	933.21686      	933.08215      	933.0752       	933.19836      	933.101        	933.19666      	932.7571       	933.01337      	933.0569       	933.0888       	933.07513      	932.9142       	932.80695      	933.0325       	933.1137       	933.0904       	933.0557       	933.0795       	933.01685      	933.0385       	933.03296      	932.948        	932.9491       	932.94324      	932.8499       	932.889        	932.9148       	932.87024      	932.9593       	933.0209       	932.9452       	932.917        	932.8825       	933.0202       	932.9919       	933.00977      	932.8929       	932.64465      	932.47656      	932.7178       	933.02386      	933.1169       	
933.5894       	933.5413       	933.552        	933.42426      	933.44446      	933.60474      	933.6693       	933.6277       	933.35504      	933.5375       	933.7022       	933.7522       	933.7014       	933.6774       	933.6656       	933.6851       	933.6505       	933.755        	933.4594       	933.5229       	933.4713       	933.4605       	933.5455       	933.4623       	933.59863      	933.45795      	933.4719       	933.4436       	933.3932       	933.4681       	933.5558       	933.593        	933.5483       	933.5387       	933.5511       	933.5613       	933.60016      	933.61066      	933.6664       	933.6182       	933.55994      	933.5892       	933.57886      	933.5342       	933.59625      	933.43384      	933.5146       	933.50104      	933.60126      	933.5491       	933.4802       	933.3931       	933.5045       	933.3362       	933.42285      	933.4452       	933.4671       	933.5902       	933.5934       	933.5831       	933.5779       	933.55005      	933.5462       	933.39355      	933.50397      	933.47876      	933.5192       	933.4936       	933.51996      	933.5442       	933.4375       	933.40454      	933.5657       	933.65796      	933.63904      	933.52136      	933.4892       	933.5443       	933.51294      	933.5471       	933.49066      	933.433        	933.47906      	933.4452       	933.4209       	933.38635      	933.42505      	933.5634       	933.5507       	933.4135       	933.3601       	933.4932       	933.5629       	933.58777      	933.49506      	933.23956      	933.04034      	933.1046       	933.452        	933.6724       	
933.47626      	933.42175      	933.45483      	933.2349       	933.36035      	933.46545      	933.588        	933.46136      	933.2104       	933.3988       	933.5497       	933.60364      	933.55066      	933.4646       	933.59204      	933.6325       	933.4221       	933.4039       	933.48083      	933.38684      	933.33685      	933.3469       	933.3679       	933.38         	933.36597      	933.34015      	933.3788       	933.3561       	933.3686       	933.40594      	933.392        	933.3897       	933.31476      	933.35706      	933.40204      	933.44037      	933.49225      	933.5414       	933.5244       	933.45215      	933.45386      	933.51556      	933.5113       	933.3842       	933.4099       	933.4125       	933.3258       	933.5663       	933.41376      	933.58606      	933.28687      	933.29156      	933.3185       	933.24603      	933.2602       	933.2799       	933.53577      	933.453        	933.4719       	933.3834       	933.339        	933.46423      	933.26697      	933.3832       	933.47296      	933.3473       	933.361        	933.3668       	933.46875      	933.4171       	933.4124       	933.4337       	933.5012       	933.5652       	933.5345       	933.4893       	933.3652       	933.4658       	933.44867      	933.4958       	933.4515       	933.44916      	933.4672       	933.4527       	933.37177      	933.3489       	933.38086      	933.47406      	933.44293      	933.3089       	933.30475      	933.4228       	933.543        	933.5352       	933.5313       	933.2177       	933.0528       	933.0706       	933.4277       	933.64         	
933.5733       	933.6148       	933.55774      	933.42676      	933.4112       	933.5603       	933.56177      	933.51013      	933.31213      	933.4613       	933.5714       	933.6651       	933.5851       	933.5858       	933.6864       	933.6946       	933.552        	933.5071       	933.47327      	933.48737      	933.4251       	933.5472       	933.3038       	933.3597       	933.5449       	933.4941       	933.4525       	933.42883      	933.5661       	933.58093      	933.5465       	933.49274      	933.35455      	933.4218       	933.56995      	933.57007      	933.5812       	933.62836      	933.5958       	933.568        	933.52985      	933.5072       	933.57385      	933.51166      	933.5038       	933.50134      	933.4766       	933.5743       	933.6824       	933.5624       	933.48645      	933.3347       	933.42096      	933.50574      	933.3798       	933.40753      	933.35675      	933.54974      	933.5777       	933.4933       	933.43384      	933.35516      	933.47076      	933.5553       	933.4921       	933.489        	933.4719       	933.4724       	933.505        	933.5437       	933.48334      	933.5217       	933.6134       	933.60364      	933.54333      	933.63086      	933.5087       	933.60016      	933.54614      	933.53015      	933.5767       	933.57947      	933.6172       	933.56573      	933.49457      	933.5519       	933.5235       	933.5364       	933.4528       	933.3248       	933.3388       	933.5368       	933.47974      	933.5836       	933.69995      	933.2667       	932.9346       	933.09595      	933.47064      	933.5858       	
933.7796       	933.8786       	933.8148       	933.7676       	933.7552       	933.7679       	933.83813      	933.7931       	933.62195      	933.71234      	933.8161       	933.74976      	933.7396       	933.7327       	933.7532       	933.8838       	933.8684       	933.8747       	933.6395       	933.6331       	933.7995       	933.70544      	933.74146      	933.49426      	933.7419       	933.6031       	933.5557       	933.6824       	933.8959       	933.9169       	933.90247      	933.8821       	933.577        	933.6578       	933.773        	933.829        	933.83527      	933.7934       	933.8766       	933.8412       	933.7691       	933.76495      	933.80145      	933.8242       	933.8369       	933.78033      	933.8007       	933.76605      	933.8683       	933.83954      	933.8574       	933.7777       	933.7191       	933.68884      	933.65924      	933.78375      	933.7754       	933.8047       	933.8422       	933.6109       	933.679        	933.62683      	933.7611       	933.9031       	933.8919       	933.7701       	933.7603       	933.7972       	933.78723      	933.7891       	933.7143       	933.72095      	933.8552       	933.87537      	933.8099       	933.8075       	933.9153       	933.9015       	933.8372       	933.74915      	933.89124      	933.8925       	933.8751       	933.93884      	933.81274      	933.8275       	933.8189       	933.75305      	933.7115       	933.7434       	933.69543      	933.7683       	933.7881       	933.8314       	933.93835      	933.5807       	933.0957       	933.4385       	933.7275       	933.7796       	
933.7312       	933.82074      	933.80786      	933.6935       	933.68823      	933.7158       	933.61066      	933.72406      	933.60736      	933.5063       	933.6181       	933.72107      	933.5852       	933.5199       	933.643        	933.7732       	933.70374      	933.61145      	933.58246      	933.677        	933.5583       	933.6601       	933.703        	933.66956      	933.5622       	933.5995       	933.52734      	933.66437      	933.8136       	933.8599       	933.9394       	933.7893       	933.71545      	933.6404       	933.6797       	933.71765      	933.70337      	933.7614       	933.8034       	933.7569       	933.6498       	933.77405      	933.7089       	933.71277      	933.74225      	933.74664      	933.6544       	933.73895      	933.8099       	933.8181       	933.8148       	933.76135      	933.73175      	933.6516       	933.68835      	933.77045      	933.818        	933.8239       	933.75366      	933.5929       	933.5541       	933.55774      	933.70026      	933.76965      	933.7361       	933.76013      	933.6998       	933.7262       	933.7789       	933.7191       	933.6045       	933.62396      	933.7146       	933.76794      	933.74054      	933.7278       	933.8101       	933.79755      	933.7423       	933.7278       	933.7729       	933.79333      	933.8353       	933.84607      	933.8456       	933.8073       	933.84753      	933.6904       	933.64105      	933.76404      	933.79333      	933.78625      	933.72156      	933.8114       	933.9364       	933.665        	933.09515      	933.3623       	933.6357       	933.6695       	
934.1377       	934.15344      	934.12274      	934.0398       	933.90234      	933.8116       	934.0231       	933.98395      	933.8747       	933.90656      	933.8792       	933.92487      	933.93646      	933.72375      	933.9108       	934.0459       	933.9462       	933.91656      	933.8448       	933.74664      	933.85046      	934.00885      	934.1085       	934.0145       	933.8571       	933.8082       	933.7793       	933.96814      	934.0102       	934.08875      	934.171        	933.9988       	933.9653       	933.9752       	933.8197       	933.84906      	933.81085      	933.9452       	934.01294      	933.99963      	933.8871       	933.94495      	934.02704      	933.8341       	933.96515      	933.80304      	933.79456      	933.9535       	933.92633      	933.935        	933.91705      	933.99805      	933.85406      	933.7138       	933.79175      	933.9333       	933.986        	933.9303       	933.83295      	933.773        	933.724        	933.79755      	933.8202       	933.9148       	933.87463      	933.8495       	933.8652       	933.9271       	933.8994       	933.8379       	933.8086       	933.7882       	933.807        	933.9157       	933.8451       	933.8386       	933.94495      	933.9225       	933.89087      	933.85034      	933.81305      	933.9083       	933.9581       	934.0358       	933.9221       	933.8687       	933.8806       	933.90594      	934.10065      	933.8331       	933.8666       	933.94         	933.6751       	933.71606      	933.9659       	934.00134      	933.5628       	933.46606      	933.5316       	933.6097       	
934.52673      	934.6669       	934.5938       	934.3594       	934.31683      	934.2988       	934.418        	934.6218       	934.48145      	934.48236      	934.38586      	934.419        	934.44055      	934.2852       	934.49445      	934.60425      	934.5279       	934.39526      	934.28125      	934.3175       	934.45514      	934.6243       	934.7341       	934.7833       	934.54535      	934.3418       	934.39124      	934.639        	934.5396       	934.6566       	934.71277      	934.66187      	934.62946      	934.64734      	934.56573      	934.3622       	934.3736       	934.4778       	934.5599       	934.6106       	934.5635       	934.60156      	934.63336      	934.5894       	934.5009       	934.44214      	934.51044      	934.50525      	934.56415      	934.5917       	934.5745       	934.6034       	934.53864      	934.46594      	934.53546      	934.6189       	934.62103      	934.5872       	934.5917       	934.44324      	934.3633       	934.43195      	934.4714       	934.51324      	934.5661       	934.5351       	934.6498       	934.60486      	934.58264      	934.5268       	934.52094      	934.45996      	934.5084       	934.53094      	934.5331       	934.4831       	934.62555      	934.5741       	934.58606      	934.5068       	934.46735      	934.4967       	934.53064      	934.553        	934.61554      	934.5145       	934.3355       	934.58466      	934.7319       	934.738        	934.5051       	934.48016      	934.2732       	934.2125       	934.4683       	934.7086       	934.5611       	934.15247      	934.0243       	934.06415      	
933.6226       	933.68353      	933.61066      	933.4363       	933.435        	933.5028       	933.7164       	933.75165      	933.78503      	933.6847       	933.5977       	933.6923       	933.5694       	933.58655      	933.6006       	933.736        	933.66284      	933.53625      	933.4651       	933.6839       	933.7487       	933.93713      	934.11755      	934.1205       	933.7901       	933.74817      	933.8789       	933.9349       	933.90436      	933.93304      	933.9239       	933.94244      	934.01575      	934.10815      	934.0191       	933.8144       	933.7841       	933.76794      	933.9275       	933.9115       	934.06226      	933.9766       	934.01746      	933.9597       	933.9976       	934            	933.8988       	933.8923       	934.0126       	933.98706      	934.0183       	934.0117       	933.943        	933.9994       	934.0521       	934.0719       	934.00323      	934.0413       	934.00836      	934.0077       	933.92975      	933.9462       	934.0085       	934.0565       	934.084        	934.11884      	934.1824       	934.1697       	934.17065      	934.1833       	934.15753      	934.0323       	934.04224      	934.06805      	934.18036      	934.19824      	934.22974      	934.2651       	934.27405      	934.22327      	934.1205       	934.10315      	934.1038       	934.26117      	934.1768       	934.1246       	934.12946      	934.31903      	934.3678       	934.3073       	934.1941       	934.1299       	934.0748       	934.2074       	934.27075      	934.46594      	934.3743       	934.1269       	933.9446       	933.9719       	
932.1567       	932.1518       	932.0528       	932.0221       	931.86774      	931.96063      	932.1603       	932.2633       	932.2535       	932.16187      	932.18616      	932.138        	932.0958       	932.09705      	932.03345      	932.16144      	932.1455       	931.97455      	932.0399       	932.24133      	932.3192       	932.38513      	932.48865      	932.4698       	932.3672       	932.3235       	932.39905      	932.4028       	932.389        	932.38324      	932.4398       	932.36273      	932.4229       	932.4185       	932.7126       	932.2884       	932.3263       	932.1986       	932.2828       	932.3613       	932.4441       	932.3892       	932.34216      	932.31335      	932.4395       	932.4971       	932.51355      	932.4197       	932.4462       	932.42993      	932.38324      	932.4278       	932.38367      	932.472        	932.4665       	932.45245      	932.4394       	932.50494      	932.515        	932.4264       	932.4212       	932.4208       	932.51434      	932.4746       	932.529        	932.5941       	932.61914      	932.6631       	932.63043      	932.65173      	932.61566      	932.53394      	932.2784       	932.54425      	932.5954       	932.6127       	932.74023      	932.7538       	932.7604       	932.73676      	932.5189       	932.6198       	932.573        	932.62         	932.6398       	932.69965      	932.6686       	932.7273       	932.7712       	932.7914       	932.6596       	932.746        	932.6974       	932.72266      	932.71936      	932.87         	932.8432       	932.63477      	932.6036       	932.5781       	
931.5646       	931.54504      	931.5333       	931.4092       	931.28485      	931.42017      	931.47156      	931.5645       	931.44293      	931.42865      	931.39124      	931.3563       	931.26556      	931.25836      	931.3297       	931.4252       	931.43286      	931.40344      	931.35504      	931.526        	931.5911       	931.5819       	931.6228       	931.5903       	931.5759       	931.52765      	931.5377       	931.5934       	931.5374       	931.5331       	931.5665       	931.4381       	931.5162       	931.56067      	931.63043      	931.5547       	931.615        	931.49603      	931.4109       	931.4301       	931.53326      	931.49744      	931.34973      	931.4222       	931.4932       	931.5508       	931.58167      	931.64264      	931.5728       	931.55676      	931.5426       	931.52014      	931.4828       	931.5372       	931.5474       	931.56384      	931.47864      	931.6134       	931.5498       	931.52234      	931.5915       	931.54236      	931.4823       	931.5043       	931.5378       	931.64185      	931.7226       	931.6553       	931.6407       	931.6591       	931.6171       	931.56775      	931.33075      	931.5281       	931.565        	931.59076      	931.60455      	931.7096       	931.7651       	931.6136       	931.4718       	931.58655      	931.60614      	931.5362       	931.5347       	931.7317       	931.65436      	931.70056      	931.6298       	931.5985       	931.60547      	931.6456       	931.63806      	931.6761       	931.67737      	931.63513      	931.55334      	931.5176       	931.5771       	931.4866       	
931.59045      	931.57043      	931.5723       	931.4812       	931.4798       	931.5066       	931.5849       	931.6682       	931.63684      	931.5283       	931.51184      	931.44836      	931.38965      	931.4519       	931.4538       	931.52435      	931.6374       	931.584        	931.64325      	931.63025      	931.6448       	931.78235      	931.6755       	931.6423       	931.61597      	931.6204       	931.6322       	931.6682       	931.6693       	931.673        	931.5821       	931.55164      	931.5928       	931.6313       	931.6917       	931.6901       	931.691        	931.5553       	931.4742       	931.54675      	931.5969       	931.58563      	931.39606      	931.5043       	931.60944      	931.5894       	931.41797      	931.6146       	931.6452       	931.6277       	931.5593       	931.5565       	931.50854      	931.60944      	931.6071       	931.5393       	931.56976      	931.626        	931.6758       	931.5113       	931.5616       	931.68195      	931.585        	931.45435      	931.5437       	931.64355      	931.7268       	931.6483       	931.6355       	931.71936      	931.6388       	931.5015       	931.5462       	931.54565      	931.64246      	931.567        	931.56647      	931.67065      	931.64355      	931.59485      	931.50616      	931.7126       	931.6591       	931.2718       	931.43726      	931.6103       	931.6719       	931.6522       	931.5411       	931.5314       	931.5866       	931.5228       	931.58307      	931.66437      	931.6189       	931.50964      	931.34186      	931.4617       	931.42505      	931.3764       	
932.206        	931.9845       	932.18054      	932.1286       	932.03845      	932.08527      	932.10516      	932.15656      	932.01556      	932.02026      	931.9819       	932.004        	931.9902       	932.02765      	932.0625       	932.2253       	932.30554      	932.232        	932.2543       	932.3041       	932.22766      	932.2535       	932.1827       	932.1708       	932.1069       	932.1394       	932.197        	932.1353       	932.1972       	932.08954      	932.0455       	932.08203      	932.031        	932.1071       	932.16003      	932.1031       	932.052        	932.04645      	932.1003       	932.0842       	932.1129       	932.04755      	932.0297       	931.8506       	932.01294      	931.97327      	932.0502       	932.0438       	932.04114      	931.98535      	931.9414       	931.94         	931.99896      	932.06226      	932.0195       	931.9261       	932.01636      	932.02966      	931.94476      	931.8266       	931.9166       	932.0221       	932.04944      	931.8896       	931.86646      	932.0092       	932.03503      	932.0146       	932.01984      	932.12177      	932.0166       	931.9255       	931.85925      	931.9719       	932.02026      	931.921        	931.93555      	931.9662       	931.9596       	931.87555      	931.99023      	932.0192       	931.92645      	931.693        	931.9034       	931.95825      	931.9463       	932.0147       	931.92126      	931.87506      	931.85876      	931.7854       	931.8526       	931.91595      	931.9133       	931.7028       	931.62067      	931.6972       	931.69965      	931.7644       	
933.23303      	932.7256       	933.199        	933.2286       	933.03754      	933.0392       	933.04877      	932.9934       	933.0033       	932.96277      	933.02704      	933.09515      	933.15533      	932.8968       	933.1775       	933.2575       	933.2089       	933.1724       	933.1556       	933.1772       	933.2006       	933.176        	933.1759       	933.03796      	933.09985      	933.1501       	933.1182       	933.1145       	933.0292       	932.9706       	932.9843       	933.0657       	933.02905      	933.1119       	933.1194       	933.064        	933.0079       	933.0993       	933.0986       	933.08606      	933.09875      	933.18384      	932.8187       	932.86884      	932.9944       	932.934        	932.96454      	933.0102       	932.92737      	932.78906      	932.8435       	932.9125       	932.94244      	932.88715      	932.93097      	932.91046      	932.9277       	933.027        	932.81354      	932.7845       	932.744        	932.8929       	932.9918       	932.8661       	932.7364       	932.8424       	932.9112       	932.8698       	932.9276       	932.9701       	932.9576       	932.8795       	932.7569       	932.9033       	932.9863       	932.92413      	932.6688       	932.7892       	932.7929       	932.7621       	932.8395       	932.85516      	932.7599       	932.7864       	932.8646       	932.80145      	932.72235      	932.85767      	932.8336       	932.7773       	932.7109       	932.6698       	932.7413       	932.7473       	932.7069       	932.63965      	932.5724       	932.5392       	932.6674       	932.77374      	
933.6889       	933.35547      	933.62866      	933.61914      	933.56506      	933.5505       	933.583        	933.5482       	933.5517       	933.61597      	933.65344      	933.62146      	933.6436       	933.77856      	933.77905      	933.7911       	933.7232       	933.664        	933.6519       	933.6254       	933.70276      	933.7351       	933.7504       	933.7027       	933.7245       	933.7582       	933.83954      	933.4698       	933.5021       	933.5214       	933.55695      	933.6573       	933.6624       	933.6524       	933.6774       	933.60144      	933.62805      	933.68317      	933.638        	933.73627      	933.8303       	933.5374       	933.50775      	933.5758       	933.64264      	933.61194      	933.6288       	933.6371       	933.67456      	933.47034      	933.5544       	933.6096       	933.60864      	933.53644      	933.55383      	933.6229       	933.57947      	933.6057       	933.56586      	933.5703       	933.4746       	933.5095       	933.6134       	933.5888       	933.44086      	933.48676      	933.6166       	933.5447       	933.5883       	933.5665       	933.5911       	933.5774       	933.5859       	933.7278       	933.6223       	933.56506      	933.4757       	933.4277       	933.4873       	933.4359       	933.5767       	933.4721       	933.48834      	933.6358       	933.6295       	933.5175       	933.50256      	933.547        	933.6364       	933.54486      	933.5027       	933.49347      	933.53186      	933.503        	933.517        	933.4059       	933.39056      	933.3783       	933.481        	933.61914      	
933.86646      	933.74164      	933.6926       	933.7422       	933.73804      	933.75165      	933.85144      	933.8375       	933.73883      	933.864        	933.97955      	933.9921       	933.88776      	933.86523      	933.90027      	933.90045      	933.8383       	933.77606      	933.7946       	933.72205      	933.84143      	933.92664      	933.9088       	933.82104      	933.892        	933.90497      	933.87         	933.70703      	933.72095      	933.6903       	933.7984       	933.85315      	933.87134      	933.89355      	933.85065      	933.795        	933.84515      	933.80334      	933.87494      	933.8642       	933.9863       	933.78796      	933.7428       	933.7916       	933.8104       	933.7929       	933.7997       	933.8428       	933.8513       	933.6441       	933.8367       	933.76044      	933.82446      	933.7698       	933.80505      	933.7067       	933.7983       	933.80475      	933.81946      	933.7474       	933.7063       	933.6148       	933.7806       	933.83844      	933.792        	933.8349       	933.8256       	933.8142       	933.8188       	933.83374      	933.82184      	933.87683      	933.8965       	933.84827      	933.8284       	933.78503      	933.8684       	933.78674      	933.7809       	933.6679       	933.82117      	933.6822       	933.8183       	933.9514       	933.90106      	933.8606       	933.7257       	933.78156      	933.84106      	933.8336       	933.81287      	933.72485      	933.79004      	933.7857       	933.694        	933.6484       	933.5748       	933.6703       	933.8594       	933.91437      	
933.9587       	933.8226       	933.8799       	933.9179       	934.0147       	934.0185       	934.0938       	933.9679       	933.969        	934.09607      	934.2103       	934.19226      	934.06934      	934.019        	933.9672       	934.0574       	933.98663      	933.92474      	933.8642       	933.9389       	934.09204      	934.08215      	934.0823       	933.9259       	933.9747       	934.0437       	933.9847       	933.86945      	933.8861       	933.9286       	933.99066      	934.02856      	933.9684       	934.00836      	933.97         	934.0419       	933.9313       	934.00854      	934.0538       	933.97455      	934.0325       	934.0257       	933.91754      	933.87683      	933.9345       	933.89343      	933.9869       	933.9799       	933.9196       	933.88257      	933.92224      	933.9236       	933.96576      	933.92163      	933.8291       	933.92096      	933.9064       	933.9557       	933.9973       	933.8235       	933.75336      	933.7395       	933.9237       	934.0081       	933.9747       	934.0407       	934.10535      	933.997        	933.9007       	933.9479       	933.9118       	933.9923       	934.0388       	933.81665      	933.9798       	934.0473       	933.964        	933.91504      	933.89246      	933.85767      	933.9258       	933.84766      	933.98474      	934.1095       	934.03064      	933.99054      	933.8993       	933.952        	934.00555      	934.0137       	933.94006      	933.9525       	934.05005      	933.9479       	933.88116      	933.6173       	933.8714       	934.0159       	934.0268       	933.9983       	
934.06665      	933.9958       	934.02374      	934.1907       	933.9405       	934.2282       	934.1868       	934.09314      	934.185        	934.23663      	934.2392       	934.2087       	934.1399       	934.0058       	934.0074       	934.0264       	934.0686       	934.0138       	934.0482       	934.1681       	934.2002       	934.1674       	934.1122       	934.0072       	933.94574      	933.90845      	933.888        	933.9342       	934.0042       	934.04816      	934.14         	934.10675      	934.08954      	934.03064      	934.08203      	934.02496      	934.03406      	934.0519       	934.0685       	934.0851       	934.1274       	934.1077       	934.057        	933.9374       	933.9626       	933.94116      	934.048        	934.067        	934.03235      	934.0372       	933.9781       	934.0495       	934.0611       	933.86554      	933.8077       	933.9456       	934.0445       	934.04535      	934.0688       	934.0375       	933.88464      	933.9564       	933.98883      	934.0714       	934.0398       	934.086        	934.12555      	934.04504      	933.9237       	933.88403      	933.98596      	933.96704      	933.98834      	933.9239       	934.0156       	934.10223      	933.9503       	933.93274      	933.9548       	933.9384       	934.0147       	934.0082       	934.05786      	934.15497      	934.0717       	933.98346      	933.95825      	934.0622       	933.97205      	934.029        	933.96185      	934.1114       	934.1394       	934.0394       	933.9247       	933.7053       	933.99347      	934.0875       	933.9683       	933.8966       	
934.05005      	934.16174      	934.2183       	934.0743       	933.8477       	934.2247       	934.237        	934.18365      	934.2023       	934.20795      	934.22614      	934.2458       	934.1222       	934.0289       	934.0035       	934.0756       	934.13586      	934.1317       	934.06726      	934.1301       	934.11365      	934.067        	934.04224      	934.0325       	934.0294       	934.04944      	934.0306       	934.08716      	934.08636      	934.11884      	934.1459       	934.0941       	934.05475      	934.13214      	934.087        	934.04065      	934.0085       	934.0071       	934.0935       	934.1519       	934.16907      	934.0981       	934.06244      	934.02985      	934.0255       	933.9639       	933.9651       	934.0554       	934.11176      	934.0141       	934.0094       	934.14465      	934.0051       	933.8409       	934.00714      	934.042        	934.04236      	934.14886      	934.11743      	933.9804       	933.9593       	934.1279       	934.06384      	934.1055       	934.0566       	934.03894      	934.05835      	933.911        	933.74695      	933.9568       	933.9784       	933.9975       	933.9973       	934.04816      	934.0654       	934.0387       	933.85284      	933.9254       	933.94055      	933.947        	934.02374      	934.1275       	934.0787       	934.0785       	934.0574       	934.0284       	934.036        	934.02094      	933.99036      	933.9932       	934.01556      	934.1542       	934.19855      	934.03723      	933.9164       	933.88416      	934.0944       	934.01624      	933.9547       	934.0087       	
933.98444      	934.106        	934.12726      	934.15906      	934.1271       	934.11         	934.12476      	934.0429       	934.06995      	934.06537      	934.1201       	934.08997      	933.91315      	933.861        	933.89886      	933.9511       	934.0367       	934.08264      	934.0756       	934.0287       	934.0829       	933.97394      	933.8756       	933.8958       	933.8892       	933.93274      	934.0058       	934.084        	934.0961       	933.96967      	933.9821       	933.94244      	934.01917      	934.0403       	933.9896       	934.08325      	933.92706      	933.90247      	934.01166      	934.0053       	934.02893      	933.9736       	933.92786      	933.9183       	933.9613       	933.9205       	933.94934      	934.0466       	934.054        	933.93774      	933.99646      	934.02106      	933.92816      	933.96136      	934.01965      	934.0942       	934.041        	934.03284      	934.0347       	934.0214       	933.9983       	934.11676      	934.1451       	934.09906      	934.14026      	933.9788       	933.88837      	933.83484      	933.72504      	933.97546      	934.0521       	933.9337       	934.0753       	934.1683       	933.9799       	933.9587       	933.892        	934.0284       	933.9252       	934.01984      	934.10046      	934.12726      	934.0889       	934.04004      	934.0735       	934.089        	934.0142       	934.02997      	934.0101       	934.04944      	934.0842       	934.1404       	934.0899       	934.0208       	933.8508       	934.0522       	934.0579       	933.92773      	933.99536      	934.1171       	
933.76324      	933.8595       	933.87866      	933.89996      	933.90326      	933.77765      	933.7578       	933.7717       	933.76306      	933.811        	933.84235      	933.69653      	933.6147       	933.5742       	933.641        	933.6911       	933.71606      	933.7914       	933.78326      	933.7097       	933.7809       	933.74744      	933.60547      	933.59314      	933.60736      	933.6863       	933.7852       	933.8015       	933.8214       	933.7161       	933.6872       	933.7298       	933.7564       	933.74207      	933.6868       	933.7527       	933.7955       	933.7934       	933.6904       	933.624        	933.70935      	933.7084       	933.6301       	933.62036      	933.6939       	933.6824       	933.69275      	933.74695      	933.6722       	933.6638       	933.7286       	933.7347       	933.7419       	933.70013      	933.7361       	933.7551       	933.66345      	933.68256      	933.70844      	933.78156      	933.7927       	933.8199       	933.83527      	933.7216       	933.72015      	933.66345      	933.57935      	933.6176       	933.5791       	933.7665       	933.6637       	933.6083       	933.76495      	933.8255       	933.6952       	933.67633      	933.6913       	933.6993       	933.7226       	933.73566      	933.90247      	933.8391       	933.79987      	933.72504      	933.8024       	933.8126       	933.77014      	933.6646       	933.70874      	933.8031       	933.8435       	933.8136       	933.7979       	933.69464      	933.6793       	933.8541       	933.6378       	933.6583       	933.76373      	933.77313      	
933.8466       	933.86664      	933.92865      	933.94183      	933.89606      	933.7719       	933.7242       	933.7796       	933.8408       	933.86554      	933.77094      	933.64453      	933.53876      	933.6107       	933.70087      	933.6911       	933.72235      	933.77893      	933.69275      	933.6423       	933.6519       	933.6271       	933.58777      	933.5248       	933.569        	933.6487       	933.70105      	933.7349       	933.7236       	933.6938       	933.6729       	933.67505      	933.59766      	933.55347      	933.57056      	933.70996      	933.76044      	933.75934      	933.6188       	933.5345       	933.6617       	933.6151       	933.5481       	933.5834       	933.6229       	933.5804       	933.67035      	933.6761       	933.62885      	933.63293      	933.70667      	933.7401       	933.6988       	933.6265       	933.631        	933.58374      	933.7236       	933.6887       	933.6647       	933.67993      	933.64246      	933.72784      	933.67395      	933.4997       	933.4464       	933.4769       	933.5543       	933.67706      	933.644        	933.70715      	933.60486      	933.43066      	933.6078       	933.6467       	933.64874      	933.64136      	933.70306      	933.5634       	933.5308       	933.7357       	933.69965      	933.64777      	933.6998       	933.59894      	933.6119       	933.71545      	933.65204      	933.5668       	933.6889       	933.7874       	933.7384       	933.65924      	933.66675      	933.5362       	933.653        	933.7096       	933.5655       	933.61127      	933.6214       	933.54584      	
934.0015       	933.88226      	933.92804      	933.93176      	933.86304      	933.83624      	933.9262       	933.8343       	933.8555       	933.9144       	933.872        	933.6976       	933.7101       	933.75476      	933.8517       	933.7683       	933.8355       	933.8429       	933.80554      	933.76917      	933.81946      	933.87585      	933.7517       	933.65497      	933.77277      	933.79156      	933.82715      	933.8357       	933.8492       	933.90765      	933.70764      	933.70386      	933.70337      	933.6993       	933.82654      	933.8559       	933.92255      	933.8987       	933.8151       	933.713        	933.7094       	933.71387      	933.7224       	933.85657      	933.80725      	933.78253      	933.8366       	933.88715      	933.91675      	933.94867      	933.96326      	933.8601       	933.7655       	933.7399       	933.7097       	933.79333      	933.8697       	933.9317       	934.0079       	933.9348       	933.899        	933.8129       	933.8382       	933.644        	933.74445      	933.9063       	933.8385       	933.87933      	933.85004      	933.77795      	933.7401       	933.79846      	933.8484       	933.79645      	933.8136       	933.89636      	933.84015      	933.7189       	933.7425       	933.8881       	933.92316      	933.889        	933.87994      	933.83484      	933.7802       	933.857        	933.786        	933.76984      	933.87946      	933.91675      	933.8903       	933.8188       	933.8181       	933.77515      	933.82904      	933.7512       	933.71277      	933.7848       	933.6995       	933.60065      	
933.95276      	933.89087      	933.86816      	933.8419       	933.80286      	933.776        	933.7936       	933.79         	933.78314      	933.8773       	933.90533      	933.6524       	933.63513      	933.7014       	933.7598       	933.7761       	933.7831       	933.7768       	933.70355      	933.69604      	933.77765      	933.78503      	933.67847      	933.65924      	933.6594       	933.7624       	933.75696      	933.78845      	933.80774      	933.8558       	933.44696      	933.6044       	933.60406      	933.69464      	933.7796       	933.8139       	933.793        	933.7679       	933.71985      	933.61957      	933.6059       	933.6536       	933.7117       	933.85095      	933.75195      	933.7638       	933.75525      	933.8251       	933.848        	933.8643       	933.7643       	933.6267       	933.6303       	933.5807       	933.6935       	933.6924       	933.73737      	933.7488       	933.809        	933.7449       	933.65027      	933.6875       	933.5914       	933.6396       	933.7566       	933.85144      	933.75824      	933.68274      	933.5514       	933.50256      	933.6582       	933.7218       	933.7084       	933.6363       	933.69525      	933.7514       	933.5992       	933.6582       	933.7356       	933.7028       	933.81244      	933.7268       	933.76556      	933.766        	933.71344      	933.684        	933.6586       	933.679        	933.76306      	933.7158       	933.76495      	933.7392       	933.587        	933.6484       	933.6914       	933.669        	933.6669       	933.68884      	933.54175      	933.4835       	
934.0357       	934.0401       	933.88513      	933.9111       	933.911        	933.9072       	933.9131       	933.889        	933.9685       	934.0326       	933.98706      	933.8231       	933.84515      	933.8518       	934.0089       	934.0127       	933.9371       	933.91956      	933.89215      	933.9031       	933.8689       	933.92554      	933.8736       	933.7589       	933.80524      	933.8782       	933.88         	933.88513      	933.861        	933.84607      	933.7399       	933.76294      	933.8038       	933.8964       	933.97046      	933.94366      	933.8671       	933.8643       	933.82477      	933.78766      	933.81415      	933.81116      	933.8646       	933.95746      	933.9892       	933.8987       	933.9333       	933.9951       	933.96234      	933.88306      	933.76666      	933.6982       	933.81445      	933.80994      	933.87933      	933.9579       	933.8073       	933.8776       	933.87787      	933.7555       	933.7529       	933.70514      	933.76294      	933.8134       	933.9063       	933.9991       	933.9037       	933.72565      	933.6752       	933.62555      	933.85345      	933.9307       	933.7141       	933.7061       	933.7584       	933.7761       	933.6224       	933.7916       	933.8298       	933.87317      	933.8216       	933.7938       	933.87726      	933.7259       	933.84937      	933.76263      	933.7096       	933.74677      	933.81305      	933.7906       	933.8529       	933.7958       	933.7444       	933.74384      	933.77075      	933.61206      	933.7543       	933.6466       	933.45074      	933.4366       	
934.24554      	934.203        	934.0928       	934.12964      	934.1188       	934.0365       	934.0951       	934.05066      	934.1271       	934.1544       	934.0331       	933.9854       	933.9848       	933.9944       	934.16077      	934.1865       	934.0476       	934.0136       	933.9574       	934.09796      	934.0219       	934.19763      	933.93024      	933.9197       	933.89856      	934.01196      	933.9853       	934.0126       	934.003        	934.0778       	934.0274       	933.9802       	934.01764      	934.00726      	933.9872       	933.9806       	934.0156       	934.011        	934.02026      	934.02094      	934.02924      	933.93286      	934.0265       	934.1211       	934.0416       	934.0328       	934.0453       	934.0622       	934.00555      	933.994        	933.8533       	933.7719       	933.91016      	934.0735       	934.0644       	934.0336       	933.97015      	933.9028       	933.8845       	933.81024      	933.83044      	933.88214      	933.9085       	934.0242       	934.1187       	934.0899       	933.9757       	933.876        	933.86676      	933.89496      	934.0243       	934.05084      	933.94476      	934.0038       	933.9827       	933.8138       	933.80945      	934.04517      	934.1069       	934.0893       	933.96594      	934.01337      	933.99585      	934.03345      	934.02216      	933.91046      	933.9537       	933.9707       	934.05035      	934.09375      	934.07104      	933.92535      	933.93976      	933.9757       	934.0227       	933.9264       	933.9542       	933.8229       	933.704        	933.8212       	
934.05365      	934.01373      	933.934        	933.85864      	933.9228       	933.9664       	933.961        	933.9686       	933.9591       	933.8646       	933.9063       	933.9137       	933.8829       	933.9281       	934.00024      	933.9643       	933.8847       	933.9017       	933.92145      	933.8965       	933.95026      	933.91797      	933.8507       	933.80884      	933.83386      	933.9276       	933.8531       	933.80664      	933.97626      	933.97864      	933.9322       	933.9115       	933.93207      	933.886        	933.8663       	933.8805       	933.94525      	934.01434      	934.003        	934.05066      	934.0648       	933.9254       	933.98346      	934.0637       	933.93195      	933.94226      	933.94586      	933.88184      	933.8695       	933.88055      	933.78156      	933.88074      	933.9505       	933.96686      	934.0089       	933.9509       	933.9408       	933.8681       	933.8358       	933.81177      	933.8598       	933.8341       	933.9681       	934.05115      	934.06976      	934.03687      	933.8839       	933.7935       	933.8666       	933.8295       	933.94995      	933.9928       	933.9567       	933.9643       	933.9264       	933.7423       	933.85516      	934.0716       	934.0719       	933.8864       	933.8718       	933.90295      	933.94403      	934.02075      	933.9955       	933.8877       	933.9988       	934.01013      	934.04956      	933.98663      	933.9424       	933.9249       	933.8403       	933.9005       	934.03546      	934.0395       	933.9166       	933.70575      	933.80865      	933.97         	
933.77734      	933.68835      	933.68677      	933.6621       	933.6911       	933.7465       	933.72424      	933.67993      	933.59564      	933.59656      	933.58374      	933.6334       	933.6752       	933.6889       	933.6622       	933.67664      	933.6108       	933.6185       	933.6347       	933.6615       	933.59656      	933.528        	933.50806      	933.589        	933.6104       	933.5282       	933.47656      	933.6603       	933.76184      	933.7167       	933.61206      	933.57117      	933.56714      	933.59924      	933.4926       	933.5791       	933.6469       	933.6542       	933.64886      	933.68396      	933.6682       	933.6507       	933.58716      	933.5182       	933.57086      	933.60736      	933.5583       	933.53265      	933.45795      	933.45276      	933.5222       	933.6407       	933.68616      	933.629        	933.6199       	933.6072       	933.6031       	933.4259       	933.4248       	933.49194      	933.4974       	933.5177       	933.59204      	933.661        	933.6734       	933.5726       	933.4759       	933.4138       	933.5548       	933.6163       	933.66296      	933.7781       	933.64606      	933.57825      	933.62085      	933.4196       	933.67865      	933.84015      	933.6842       	933.5344       	933.50854      	933.5308       	933.6544       	933.66986      	933.64624      	933.61414      	933.7161       	933.7494       	933.65875      	933.63416      	933.6298       	933.64026      	933.5661       	933.62317      	933.7726       	933.761        	933.5423       	933.4632       	933.5391       	933.65735      	
933.61694      	933.64966      	933.59344      	933.62146      	933.5449       	933.65234      	933.5818       	933.51764      	933.5675       	933.5751       	933.60486      	933.6331       	933.5901       	933.5494       	933.5387       	933.5553       	933.5735       	933.51245      	933.4926       	933.4926       	933.45636      	933.4776       	933.48285      	933.4964       	933.50653      	933.41675      	933.50134      	933.5312       	933.6074       	933.60376      	933.4783       	933.51526      	933.49457      	933.5406       	933.5704       	933.5553       	933.6624       	933.636        	933.58276      	933.6276       	933.61816      	933.4835       	933.4222       	933.49927      	933.5108       	933.56177      	933.4027       	933.3224       	933.3682       	933.36914      	933.5265       	933.606        	933.5797       	933.50696      	933.5282       	933.5182       	933.4726       	933.37494      	933.36664      	933.3497       	933.40106      	933.4812       	933.5107       	933.6003       	933.2513       	933.30634      	933.3439       	933.30273      	933.41406      	933.4664       	933.5749       	933.5812       	933.5326       	933.43976      	933.42566      	933.3819       	933.52216      	933.5149       	933.4775       	933.3663       	933.3603       	933.3555       	933.5033       	933.50543      	933.5313       	933.55365      	933.53546      	933.4805       	933.5935       	933.4049       	933.4553       	933.3917       	933.4381       	933.5175       	933.5573       	933.49506      	933.2023       	933.3496       	933.5003       	933.4979       	
933.8715       	933.886        	933.9665       	933.8873       	933.81287      	933.7549       	933.7221       	933.7582       	933.85443      	933.8291       	933.8451       	933.8363       	933.74457      	933.69556      	933.77496      	933.7521       	933.7432       	933.74         	933.6452       	933.74274      	933.7192       	933.72253      	933.68353      	933.765        	933.77985      	933.77246      	933.78326      	933.7231       	933.79175      	933.7467       	933.7247       	933.77875      	933.8573       	933.8454       	933.8263       	933.8074       	933.78864      	933.8219       	933.8939       	933.8407       	933.6935       	933.67664      	933.6262       	933.77356      	933.7252       	933.69794      	933.6389       	933.6028       	933.5481       	933.8056       	933.8479       	933.7861       	933.77344      	933.7904       	933.8644       	933.7462       	933.702        	933.6685       	933.66547      	933.5912       	933.67065      	933.7988       	933.8122       	933.79974      	933.63324      	933.5297       	933.5899       	933.6554       	933.7218       	933.77435      	933.83875      	933.77344      	933.67194      	933.6514       	933.8353       	933.7949       	933.7065       	933.63904      	933.73694      	933.71936      	933.64954      	933.6735       	933.6402       	933.79236      	933.86224      	933.7062       	933.73425      	933.69965      	933.71265      	933.624        	933.6178       	933.6286       	933.73016      	933.79175      	933.7285       	933.57086      	933.3964       	933.55475      	933.7042       	933.7035       	
934.362        	934.39954      	934.4479       	934.38293      	934.3273       	934.2383       	934.22656      	934.3064       	934.37476      	934.3783       	934.3302       	934.1972       	934.1384       	934.24         	934.18317      	934.29004      	934.1698       	934.1191       	934.15204      	934.1986       	934.2354       	934.24286      	934.07745      	934.1373       	934.2892       	934.3038       	934.2893       	934.1471       	934.24567      	934.22565      	934.24207      	934.31244      	934.3686       	934.3904       	934.2868       	934.2677       	934.12787      	934.20764      	934.2129       	934.277        	934.04517      	933.929        	934.16724      	934.23267      	934.2028       	934.0293       	933.9399       	933.9784       	934.0858       	934.27484      	934.3532       	934.0986       	934.1261       	934.161        	934.1435       	934.13245      	934.0953       	934.1134       	934.0455       	934.0182       	934.05835      	934.13367      	934.1504       	934.15656      	934.0453       	933.921        	934.02435      	934.0919       	934.18665      	934.1568       	934.1635       	934.1277       	933.99835      	934.1016       	934.1907       	934.15765      	934.1262       	934.0362       	934.0478       	934.0727       	934.0794       	933.9517       	934.06024      	934.2109       	934.19495      	934.03516      	934.05383      	934.1215       	934.0173       	933.94696      	934.02576      	934.07837      	934.1611       	934.14246      	934.0155       	933.8427       	933.8744       	934.0134       	934.0667       	934.0321       	
