# www.neaspec.com
# Scan:	 	AFM
# Project:	 	20251007_PS
# Description:	 	
# Date:	 	10/07/2025 11:59:45
# Scanner Center Position (X, Y):	[µm]	49.99	50.01	 
# Rotation:	[°]	0	 	 
# Scan Area (X, Y, Z):	[µm]	5.000	5.000	0.000
# Pixel Area (X, Y, Z):	[px]	100	100	1
# Averaging:	 	1	 	 
# Integration time:	[ms]	5	 	 
# Laser Source:	 	4.5-15 µm nano-FTIR laser
# Detector:	 	R
# Target Wavelength:	[µm]	7.502	 	 
# Demodulation Mode:	 	Fourier
# Tip Frequency:	[Hz]	241,340.500	 	 
# Tip Amplitude:	[mV]	45.700	 	 
# Tapping Amplitude:	[nm]	80.938	 	 
# Modulation Frequency:	[Hz]	0.000	 	 
# Modulation Amplitude:	[mV]	0.000	 	 
# Modulation Offset:	[mV]	0.000	 	 
# Setpoint:	[%]	79.75	 	 
# Regulator (P, I, D):	 	4.206850	8.625812	1.000000
# Tip Potential:	[mV]	0.000	 	 
# M1A Scaling:	[nm/V]	0.426	 	 
# M1A Cantilever Factor:	 	1,000	 	 
# Q-Factor:	 	487.4	 	 
# Version:	 	2.1.11536.0
81.01544       	81.473785      	81.09806       	80.65931       	80.24108       	80.36054       	80.500786      	79.607346      	79.77873       	79.80577       	80.67363       	79.309875      	80.25057       	80.156334      	81.17678       	81.17103       	80.783         	81.00448       	79.732         	79.14265       	80.19719       	80.117966      	80.15063       	79.769966      	79.77533       	79.821465      	80.53504       	80.93572       	81.11366       	81.17299       	81.20125       	80.83761       	80.16282       	79.759415      	80.113495      	79.6237        	80.97723       	82.07637       	81.56503       	81.50202       	82.055824      	81.29946       	80.65583       	80.65245       	79.74177       	79.47975       	79.06579       	79.75806       	79.44422       	79.70094       	79.43502       	78.17366       	79.10818       	79.30349       	79.958305      	80.84344       	81.703094      	81.12543       	80.8665        	80.7416        	79.80084       	79.892265      	79.99158       	80.49918       	80.4185        	79.73319       	79.44858       	80.00997       	81.03526       	80.98684       	80.39353       	80.37963       	80.74999       	80.57647       	80.17673       	79.76627       	79.54457       	79.23953       	79.72474       	79.80515       	79.65427       	79.811295      	80.05755       	79.101         	81.581436      	82.56073       	82.667015      	82.1797        	81.4845        	81.172554      	81.18949       	81.35889       	80.635605      	79.98631       	79.79356       	79.71917       	79.18525       	80.06515       	80.41017       	81.067444      	
80.846855      	81.501465      	81.7355        	80.84361       	79.64847       	80.226105      	79.897064      	79.84558       	79.4497        	79.83577       	80.15152       	80.290405      	80.864975      	76.933914      	80.83162       	80.79904       	81.23052       	80.67344       	80.04203       	79.82862       	80.12968       	80.40242       	80.172935      	79.46711       	79.407005      	80.30225       	80.22908       	80.92932       	81.39745       	81.52393       	80.868126      	80.622086      	80.179276      	80.474884      	79.662415      	79.817955      	81.097824      	81.68194       	81.75751       	81.60569       	81.44589       	80.92008       	80.66836       	80.74851       	80.36699       	79.62864       	79.76549       	79.38918       	79.658134      	79.34425       	78.57598       	78.83835       	80.149796      	79.49481       	79.62095       	79.95749       	80.18626       	80.51508       	80.72557       	81.03549       	80.23009       	80.03806       	79.933556      	81.23988       	80.806046      	80.12539       	80.18368       	79.23594       	80.846954      	80.77845       	81.20668       	80.66336       	80.48724       	81.03807       	79.788284      	79.86838       	79.49035       	79.44345       	79.472404      	79.535385      	79.220245      	79.97675       	79.45001       	78.66992       	81.05238       	82.52698       	82.595764      	82.26055       	82.095566      	81.756935      	80.8126        	81.76931       	80.70682       	80.28585       	80.026024      	79.34117       	79.833206      	80.18744       	80.19239       	80.902435      	
80.88068       	81.36392       	80.99827       	80.26311       	79.71364       	79.79859       	79.61858       	79.8218        	80.06212       	80.770775      	80.215996      	80.23694       	79.511894      	79.92843       	80.35145       	81.1777        	80.83377       	80.98998       	80.6688        	80.28175       	79.51719       	80.08373       	80.38496       	79.94461       	79.95203       	80.01943       	80.51776       	80.68602       	81.21926       	81.04481       	81.17829       	80.61165       	80.49134       	79.99972       	80.611435      	80.60581       	80.41385       	80.88377       	81.09469       	81.73939       	81.01651       	80.772896      	80.758705      	80.8889        	80.19891       	80.33742       	80.61943       	79.657005      	80.37656       	79.64823       	77.86827       	80.041374      	80.270706      	80.493614      	79.41807       	78.517044      	79.210686      	79.48196       	81.50748       	81.03276       	80.2305        	79.91463       	80.061775      	81.45165       	81.88215       	80.8275        	79.62401       	79.29164       	80.08434       	80.7332        	81.437645      	81.06121       	80.62868       	80.499016      	80.06743       	80.018394      	79.490944      	79.36172       	79.66389       	79.403206      	78.835236      	79.77642       	78.97741       	78.61707       	80.26728       	81.72896       	82.10461       	82.01276       	82.64907       	82.302086      	81.66445       	81.07665       	81.535225      	80.76504       	80.086136      	79.93293       	79.99985       	79.90487       	80.34981       	80.6764        	
80.584305      	80.775696      	80.738045      	80.0245        	79.79167       	79.932365      	80.46343       	80.6829        	80.0096        	79.75342       	81.028275      	79.87518       	79.86145       	79.7151        	80.91277       	80.52806       	80.65422       	80.57322       	80.32546       	79.86759       	80.81102       	79.63513       	80.36095       	80.533806      	80.45575       	80.10581       	80.53845       	80.6471        	80.487854      	81.34227       	80.79511       	80.30851       	81.07357       	80.14861       	80.831604      	80.84516       	79.70044       	79.65881       	81.17288       	81.248146      	80.59329       	80.42475       	81.05616       	80.996925      	81.21719       	80.58127       	81.12053       	81.46878       	80.00678       	79.806465      	78.62881       	79.56448       	80.72089       	80.86382       	79.38648       	78.57939       	77.457436      	80.09745       	80.87768       	80.97652       	79.692024      	80.123726      	80.68746       	81.47899       	82.45037       	81.52544       	79.35967       	78.752625      	79.76022       	80.171524      	81.53065       	81.563354      	80.94265       	80.12038       	79.69508       	79.64631       	80.11193       	79.64051       	79.96538       	79.481895      	79.58692       	78.51085       	78.88624       	78.607895      	79.90583       	80.86164       	81.08246       	81.866035      	82.75956       	83.0742        	82.181946      	81.04982       	81.234215      	81.176834      	80.1577        	80.28047       	79.69119       	80.30543       	80.19688       	80.202354      	
80.903366      	80.8944        	80.96414       	79.79548       	79.141174      	79.99157       	80.60685       	80.9101        	80.43887       	80.40662       	79.847435      	80.96934       	80.16614       	80.26622       	80.891975      	80.70572       	80.77478       	79.69396       	80.17028       	80.46067       	80.082535      	79.63039       	79.993256      	80.427635      	80.475174      	80.8062        	81.01791       	79.97154       	80.369095      	81.40408       	80.96411       	80.48526       	80.28168       	80.10941       	81.15733       	80.46015       	79.94724       	79.35137       	80.552414      	80.628975      	81.43667       	79.98856       	80.72992       	80.54169       	81.26189       	82.334206      	81.26233       	81.55579       	80.998856      	80.0236        	79.05686       	80.07406       	81.48357       	80.67021       	79.502426      	78.4411        	78.18105       	78.71668       	80.62504       	79.85922       	79.515274      	80.562454      	81.44258       	81.9928        	82.081154      	81.12074       	79.65397       	78.48541       	79.08089       	80.34556       	80.37521       	80.98674       	81.68443       	80.1675        	79.68107       	79.82718       	79.90023       	80.57241       	80.20436       	79.92892       	79.48316       	78.25734       	78.121376      	79.21973       	80.12174       	79.98446       	80.65806       	81.143524      	82.17332       	83.19753       	83.01842       	81.81304       	81.5504        	81.45031       	80.16051       	80.16389       	79.80407       	80.41692       	80.20445       	80.40672       	
80.58668       	80.44467       	80.57895       	79.877625      	78.746605      	79.97204       	81.14987       	81.39347       	80.863235      	79.4249        	80.02518       	80.82936       	81.03459       	80.897316      	80.87878       	81.125244      	80.39118       	79.516304      	80.20541       	80.37431       	79.5873        	79.49972       	80.0112        	80.25928       	80.59553       	80.42065       	81.05037       	80.8651        	80.595695      	81.40401       	80.803116      	81.071205      	79.10857       	80.20762       	80.52714       	80.41436       	79.75357       	79.798775      	80.46696       	79.56586       	80.877785      	80.516464      	80.5254        	80.84896       	81.352356      	81.94532       	81.506454      	81.89936       	81.64721       	80.62673       	79.12577       	80.04144       	81.25736       	80.78111       	80.57031       	78.63026       	78.99868       	78.67441       	79.21442       	78.89046       	80.15199       	80.89566       	81.89475       	82.28944       	81.548996      	81.01126       	79.03595       	78.16181       	79.08942       	80.11035       	80.26301       	80.62629       	81.7712        	80.97091       	79.90772       	79.76182       	79.10638       	80.86254       	81.44336       	80.37813       	79.12014       	77.593925      	78.49604       	79.647156      	79.9191        	80.22734       	79.75216       	80.23972       	81.61848       	83.307816      	83.27979       	81.900024      	81.438515      	81.59879       	80.86532       	80.15049       	80.65834       	80.572525      	80.04547       	80.44748       	
80.7984        	80.8108        	80.28686       	79.38577       	78.48695       	79.77962       	81.40541       	81.922295      	80.15751       	79.36872       	80.349686      	81.11675       	81.05839       	81.31976       	81.338326      	81.05586       	80.038185      	79.44274       	79.81534       	80.22681       	80.478035      	79.56181       	79.75509       	80.76808       	79.50244       	79.839676      	81.42717       	81.295364      	81.183525      	80.491066      	80.612976      	81.28123       	79.47942       	80.012726      	80.45541       	79.83702       	80.13063       	80.326126      	80.2904        	80.5081        	79.312225      	80.97933       	80.42715       	80.78238       	81.052376      	81.48286       	81.4642        	81.69611       	81.7061        	80.34441       	78.63018       	80.39132       	81.80722       	80.88515       	80.73521       	81.02606       	79.12612       	78.36232       	79.03642       	79.32108       	79.78467       	80.754616      	81.0683        	81.55011       	81.28681       	80.85925       	79.45574       	78.44333       	78.62129       	79.90323       	80.47285       	80.19697       	81.03304       	81.70153       	80.44757       	79.93          	79.8302        	80.68756       	81.1497        	80.77586       	79.24882       	78.292885      	77.6918        	79.681244      	79.197395      	79.681694      	80.38379       	80.55817       	81.03866       	82.14592       	82.48146       	82.1295        	81.50689       	82.05708       	81.63009       	80.626045      	80.709595      	80.39754       	80.461         	79.803444      	
80.46919       	80.486885      	79.7484        	78.56833       	79.7126        	80.584236      	81.387726      	81.43336       	79.189804      	80.581345      	80.301834      	80.658195      	81.17219       	80.771194      	81.12457       	80.36414       	80.12836       	80.08069       	79.63127       	80.45785       	80.58592       	80.43689       	80.219635      	79.92042       	78.29605       	79.757645      	81.76051       	81.94536       	79.95535       	80.99046       	81.0862        	81.004395      	80.26595       	80.08283       	80.219505      	80.49842       	80.14423       	80.90068       	80.55262       	79.55619       	79.59677       	80.61259       	80.41699       	80.0387        	81.02573       	80.55941       	80.6704        	81.98382       	82.58569       	80.5779        	78.15453       	79.996635      	81.15887       	82.385574      	80.46615       	80.65671       	80.72277       	79.350296      	79.39753       	78.67203       	79.84401       	79.95196       	80.44421       	81.14381       	81.336876      	80.51265       	79.92996       	78.83511       	78.765144      	80.09915       	80.731186      	79.57586       	80.37762       	81.49644       	81.15603       	80.80006       	80.39575       	80.50393       	80.49216       	80.80408       	79.401955      	78.37712       	78.31381       	79.13354       	78.79555       	80.37934       	80.10447       	80.681274      	81.215805      	81.24149       	81.36619       	81.70909       	82.30072       	82.55407       	82.25325       	81.00929       	80.51455       	80.68946       	79.64723       	79.38187       	
80.59722       	80.478004      	79.45817       	79.36994       	80.47267       	80.97284       	80.83144       	80.10091       	80.368324      	80.72955       	80.15324       	80.099075      	80.55672       	81.145485      	80.988396      	80.62002       	79.72675       	80.24769       	80.10774       	80.80699       	80.92994       	80.49641       	80.29455       	80.03383       	79.09495       	79.73514       	80.76567       	81.77852       	79.78127       	79.66333       	80.76842       	81.697044      	81.66315       	80.87192       	79.50579       	80.769966      	81.012         	80.61465       	79.2509        	80.531685      	79.98264       	80.393196      	80.528145      	80.097946      	80.18712       	79.569244      	80.60571       	82.00956       	81.941765      	80.961334      	79.63892       	79.08177       	80.89101       	81.38867       	81.046844      	80.85957       	81.09579       	80.533936      	80.312935      	79.21106       	78.289825      	78.60369       	80.587875      	80.37592       	80.59161       	80.60334       	79.896324      	79.02716       	79.14369       	80.55496       	80.95764       	78.86344       	79.45765       	80.99254       	81.5652        	80.793945      	81.15594       	81.01395       	80.32241       	80.59635       	80.45208       	78.727036      	77.68364       	79.46775       	78.90256       	79.16633       	80.51551       	80.40535       	81.38665       	79.66331       	80.55678       	81.18014       	82.541405      	82.887054      	82.546486      	81.28314       	81.18479       	80.29573       	79.38959       	79.78832       	
80.96261       	80.879974      	80.50492       	79.62089       	79.84249       	80.28143       	80.07187       	80.45572       	80.67643       	80.45608       	80.09616       	79.472466      	80.21081       	80.89412       	81.04483       	80.935684      	79.39439       	80.41137       	81.24008       	81.47761       	79.90856       	80.756645      	80.55251       	80.74516       	79.256546      	79.4941        	80.460846      	80.318504      	79.57653       	79.51581       	80.417564      	81.36538       	81.540634      	81.691734      	80.314384      	80.44562       	81.00953       	81.31024       	79.583         	79.93138       	80.06419       	80.54382       	80.59282       	80.21055       	79.92684       	80.084015      	80.28033       	81.28211       	81.39181       	80.86075       	81.04829       	80.06193       	79.66124       	80.23217       	80.53041       	80.89684       	82.193344      	81.49005       	80.81143       	80.4531        	80.138145      	80.02747       	80.93293       	79.521576      	79.70403       	80.088806      	79.95139       	79.44875       	79.90841       	80.13761       	80.688255      	79.92646       	79.2892        	80.03505       	80.88254       	80.734604      	80.9043        	81.15642       	81.07784       	80.64431       	80.65838       	79.61346       	78.28326       	78.45083       	79.45534       	79.67936       	80.08632       	80.532616      	80.28951       	80.13513       	78.609535      	80.60197       	81.92305       	83.82997       	82.50589       	81.680824      	81.291664      	80.53349       	79.83572       	79.8946        	
80.83524       	80.882645      	80.114624      	79.45392       	79.89414       	79.65685       	79.863945      	80.70916       	80.8738        	80.292625      	79.78184       	79.70876       	80.09182       	80.782585      	80.67596       	81.01332       	80.1057        	80.217514      	80.620926      	81.37726       	80.75232       	81.67529       	80.10767       	80.36498       	80.14856       	79.38658       	80.21175       	79.59759       	80.00861       	79.78472       	79.98683       	80.93073       	81.32672       	82.05826       	80.89015       	80.241714      	80.918274      	81.34827       	79.96188       	79.66852       	80.18503       	80.394264      	80.41465       	80.39315       	79.72451       	80.393486      	80.88952       	80.50034       	80.70426       	81.00742       	81.89932       	80.42839       	79.68913       	79.71853       	79.64116       	81.02571       	82.01265       	81.41985       	81.855865      	81.16509       	81.291046      	80.756226      	80.63737       	79.53902       	79.64215       	79.41861       	79.607864      	80.111015      	79.87352       	80.26656       	80.094315      	79.662834      	80.22212       	79.81782       	79.95207       	79.83782       	80.414276      	80.80718       	81.00335       	81.09242       	80.910614      	80.29551       	78.89452       	78.50322       	79.3759        	79.9811        	80.00237       	80.110245      	79.90223       	80.069725      	77.39998       	79.81892       	81.817566      	83.32064       	82.46349       	82.162315      	81.8744        	80.94876       	80.62108       	79.87785       	
80.84781       	80.92184       	80.95327       	80.022064      	79.23495       	79.27235       	80.59295       	80.597145      	80.57003       	80.40097       	79.61747       	80.13966       	80.48697       	80.24191       	79.96821       	80.73027       	81.12412       	80.14806       	80.09796       	80.975746      	81.393745      	81.12467       	81.199104      	80.44801       	79.589516      	79.629036      	79.36647       	79.45001       	80.96059       	81.45415       	79.59511       	79.40855       	81.150955      	81.6053        	81.364426      	80.83198       	80.36076       	81.272255      	80.12796       	79.36657       	80.33275       	80.814514      	80.18375       	80.35393       	79.8131        	80.37461       	80.89532       	80.42861       	80.95076       	81.09273       	81.03121       	80.37691       	80.25073       	79.97567       	80.06644       	80.68233       	81.52332       	80.96547       	81.773415      	81.36318       	81.980255      	81.37339       	79.93225       	79.76199       	79.60744       	79.60667       	80.27173       	79.877655      	80.483406      	81.574265      	78.68296       	79.41629       	79.14295       	80.23163       	80.044556      	80.33074       	79.54712       	80.3           	80.64161       	80.29118       	80.82811       	80.86646       	79.70271       	78.60093       	78.854614      	80.31807       	80.07609       	80.033455      	79.015434      	79.02734       	78.61766       	80.21352       	81.600746      	82.295135      	81.805084      	82.29272       	82.35137       	82.09579       	80.56847       	79.84502       	
80.76831       	81.12749       	81.31899       	80.10445       	78.60112       	79.88453       	79.80814       	80.83471       	80.70185       	80.08583       	80.05797       	81.04371       	80.65647       	79.95459       	79.63339       	80.87016       	81.01743       	80.41328       	79.779366      	80.83351       	81.227875      	81.41826       	80.768654      	80.36148       	79.976494      	79.74677       	79.10114       	80.40433       	81.157364      	81.155685      	79.94479       	79.410645      	80.69541       	80.84606       	80.79582       	81.012405      	80.84499       	80.94795       	80.5899        	79.44442       	80.339325      	80.38439       	80.34102       	80.357796      	80.10108       	79.93945       	80.56344       	80.657104      	81.04104       	81.15177       	80.062515      	80.84664       	81.10361       	80.406136      	80.33489       	79.79735       	80.181114      	81.06893       	81.6673        	82.076645      	81.39815       	81.080376      	80.03142       	79.258194      	79.766945      	79.835014      	80.491066      	80.92086       	81.889626      	81.089325      	80.08139       	80.15449       	79.11843       	79.76488       	80.13396       	79.71686       	79.28613       	79.64157       	79.82904       	79.728134      	81.17865       	80.5957        	80.040474      	80.077225      	78.782715      	80.16024       	80.47137       	79.44452       	79.07623       	78.24325       	79.414505      	80.469734      	80.7336        	80.96817       	81.37969       	81.71393       	82.377556      	82.7789        	80.93115       	80.80885       	
80.85739       	81.15532       	81.3032        	79.70539       	79.421165      	79.726364      	80.126884      	80.63369       	80.63586       	80.00998       	80.294655      	81.01814       	81.00209       	80.45167       	79.483406      	80.52578       	80.41401       	80.63506       	80.225426      	80.46137       	81.22943       	82.00004       	80.54499       	79.84774       	80.53852       	79.97825       	79.83458       	80.96954       	80.38323       	80.28768       	80.55457       	79.25695       	80.22875       	80.774506      	80.55448       	80.71895       	80.608116      	80.98676       	80.88664       	80.073456      	79.9339        	79.9882        	80.1421        	80.41518       	80.379         	79.092445      	80.936516      	80.796295      	80.94934       	80.77917       	80.03615       	80.74653       	81.72965       	80.48147       	79.89811       	79.16667       	80.15967       	79.94041       	81.56915       	82.29931       	81.13793       	81.29318       	80.64311       	79.97373       	78.99801       	80.37795       	80.275024      	81.67243       	82.649376      	81.93197       	81.94338       	79.67665       	74.758675      	78.440445      	80.449554      	79.06832       	78.50168       	79.059395      	80.067444      	80.0141        	80.59848       	80.73456       	80.11583       	80.04653       	81.02931       	80.08727       	79.706314      	79.38925       	78.738785      	78.38888       	79.56276       	80.42706       	80.254745      	80.6215        	80.56113       	81.13832       	82.08218       	82.81848       	81.72705       	80.88271       	
80.94022       	81.400116      	80.29472       	79.84183       	80.69185       	79.68668       	80.399864      	80.62113       	79.84771       	80.436         	80.383804      	81.12091       	81.082115      	80.45962       	79.74617       	80.30045       	80.321175      	80.66294       	80.02798       	80.44333       	81.2007        	81.48034       	80.55755       	80.445465      	80.65855       	80.622986      	80.76272       	79.77157       	80.11254       	79.951065      	80.49619       	80.06402       	79.52664       	80.36195       	80.78104       	80.74063       	79.79921       	80.80177       	81.62682       	80.65946       	79.51042       	80.05462       	80.422485      	80.635414      	80.32087       	79.64326       	80.78924       	81.01185       	80.28004       	80.566696      	79.89357       	80.66102       	81.22465       	80.25368       	79.60873       	79.50327       	80.02875       	80.40217       	80.365875      	81.84325       	82.10145       	81.15745       	80.50287       	80.23533       	79.449425      	80.32452       	80.1896        	81.74708       	82.33963       	82.045685      	82.455956      	82.05785       	78.03656       	80.22482       	79.853294      	79.60725       	78.7037        	79.15877       	79.80622       	80.15023       	80.21835       	79.81825       	80.33771       	80.713806      	81.115135      	79.9582        	80.19709       	79.26921       	78.804855      	78.21913       	79.83189       	80.12689       	79.95505       	80.5255        	80.93829       	79.39154       	81.52123       	82.23455       	83.25076       	80.870575      	
80.56548       	80.59715       	80.14668       	80.69767       	80.90272       	80.5907        	80.594604      	77.626144      	77.99341       	81.00734       	80.95744       	80.60068       	80.83422       	80.33516       	80.13532       	80.36573       	80.588875      	80.330376      	79.92492       	80.710846      	80.534744      	80.4103        	81.1684        	80.45102       	81.07875       	81.20526       	81.09182       	80.032814      	79.74576       	79.81481       	79.69387       	80.859665      	80.00111       	79.766785      	80.77654       	80.96216       	79.94356       	80.7325        	81.06157       	80.50774       	79.64698       	79.743355      	80.78216       	80.515274      	80.849014      	80.64336       	80.360306      	80.43749       	80.15806       	80.19849       	80.54141       	80.16504       	80.50931       	79.90579       	79.02101       	79.72911       	80.45716       	80.85552       	80.231514      	80.99678       	81.823074      	81.03914       	81.02338       	80.307076      	79.785614      	80.72891       	80.21783       	80.496376      	81.77694       	82.29451       	81.53272       	80.753204      	80.16089       	80.54803       	80.75225       	81.075195      	79.413345      	79.17836       	79.68592       	79.3017        	80.81576       	79.94266       	79.68297       	80.26806       	80.59977       	80.489         	79.945335      	79.137794      	79.238525      	79.46654       	79.61648       	79.807045      	79.46033       	80.61399       	80.86737       	79.24041       	80.1984        	82.01411       	82.931564      	82.11527       	
80.440544      	80.37018       	80.779655      	80.7959        	80.627785      	80.97965       	80.21482       	79.676865      	80.01544       	80.48053       	80.39747       	80.57941       	80.61377       	80.55338       	80.78239       	80.81102       	80.47111       	79.956566      	80.47523       	80.34737       	80.01814       	79.887375      	80.595566      	81.25115       	81.50356       	81.46174       	81.02108       	80.23049       	79.88456       	79.9764        	79.90738       	80.487305      	80.53484       	79.45841       	80.22335       	81.33412       	80.56817       	80.46736       	80.54927       	80.30894       	79.96512       	79.289635      	81.11791       	80.65947       	80.26966       	80.681496      	80.93016       	80.59707       	79.94901       	80.08216       	80.83564       	80.29984       	79.76437       	79.92932       	78.71838       	80.16357       	80.77232       	81.32949       	80.40061       	80.19787       	81.02067       	81.25304       	81.14997       	80.58846       	79.829346      	80.55366       	79.92098       	79.348145      	81.10806       	81.89074       	81.030754      	81.24204       	80.90601       	80.80271       	81.31988       	81.50084       	80.77946       	79.66949       	79.55956       	79.60082       	80.45671       	81.508804      	78.90171       	79.39713       	79.3138        	79.62335       	80.569244      	79.78835       	80.13321       	80.41399       	79.79792       	79.008545      	79.16712       	80.11556       	81.02354       	78.86812       	79.276955      	81.48499       	82.46396       	82.77313       	
81.09832       	81.13679       	81.16386       	81.09476       	81.23723       	80.40132       	80.11977       	80.12754       	80.32499       	80.50603       	80.18665       	80.36492       	80.572586      	79.91778       	81.28523       	81.15053       	80.564835      	80.09146       	80.4717        	80.54691       	79.12122       	79.99903       	80.35168       	81.68461       	81.81134       	81.33865       	80.92898       	80.11062       	79.91934       	80.060234      	80.04679       	81.173164      	79.82489       	79.67542       	80.128456      	81.07572       	81.151306      	80.56127       	80.11222       	80.66514       	80.63615       	79.28168       	80.09928       	80.42686       	80.42616       	80.48972       	80.677284      	81.01539       	80.30222       	80.28593       	80.701866      	80.43818       	79.327705      	79.7153        	79.12717       	79.33862       	81.302376      	81.93229       	80.36868       	80.24438       	80.46889       	80.96707       	81.06865       	80.61577       	80.11211       	79.76951       	79.603836      	79.923325      	80.074394      	81.04941       	81.083595      	81.23302       	81.1216        	80.79515       	81.24395       	82.045944      	81.0004        	80.257645      	80.56844       	80.30887       	80.73263       	80.285645      	79.80877       	79.68875       	78.24246       	79.05145       	80.22572       	80.52389       	80.37216       	80.63647       	80.65637       	79.30507       	78.96393       	79.92178       	79.502884      	80.60157       	79.19994       	80.40653       	81.89923       	83.0361        	
80.550735      	81.37905       	82.0767        	81.42731       	80.99533       	80.682         	80.100174      	80.17288       	80.40056       	80.65481       	80.3154        	80.44563       	80.294464      	79.90346       	80.86478       	80.885826      	80.58551       	80.53567       	80.32222       	80.72465       	80.06689       	79.96841       	79.40132       	81.285835      	81.47318       	81.24509       	80.94811       	79.75092       	79.862915      	79.9187        	80.5483        	80.961136      	80.129616      	80.21871       	80.90306       	80.88762       	80.71096       	80.51911       	80.262245      	80.728516      	80.54795       	79.90427       	79.36002       	80.16777       	80.56849       	80.50515       	80.60233       	80.97542       	80.41307       	80.32647       	80.346146      	79.894226      	80.39231       	79.9197        	79.94991       	79.32275       	80.50164       	81.335335      	81.01369       	79.712524      	80.317856      	80.61175       	81.046524      	81.13172       	79.95749       	79.86012       	79.547104      	80.31137       	79.58072       	80.49771       	80.90619       	80.83681       	81.15697       	80.54769       	81.42368       	81.24524       	80.98053       	80.54323       	80.866165      	81.116516      	81.639435      	80.52856       	79.77552       	80.43514       	78.4985        	78.15667       	80.527565      	80.779526      	79.83837       	80.41206       	80.897484      	79.72268       	78.338005      	80.23522       	79.508606      	80.67386       	80.14829       	78.50489       	80.853096      	82.5515        	
80.67877       	81.6494        	82.5231        	81.803         	80.62152       	80.80032       	80.22955       	80.13627       	80.43378       	80.848015      	80.63466       	80.6723        	80.11538       	80.40971       	79.76885       	80.43233       	80.926025      	80.81672       	79.76762       	80.27562       	80.119446      	79.71286       	79.75577       	80.5705        	81.79654       	81.01368       	80.56054       	80.138054      	79.99186       	80.31475       	80.34924       	81.30074       	80.284935      	80.00158       	80.636246      	80.84533       	80.30002       	80.8186        	81.07466       	80.633865      	80.28824       	79.9918        	79.595634      	79.682594      	81.425934      	79.94142       	80.89678       	80.741875      	80.43753       	80.33316       	80.32649       	80.2213        	80.807594      	80.986496      	80.14837       	80.59795       	78.75296       	80.559265      	80.69267       	79.81937       	80.3326        	80.40379       	80.627235      	81.56051       	81.199356      	79.1475        	79.692154      	79.96032       	80.451645      	80.27715       	80.18818       	80.59036       	81.17538       	80.12038       	80.66383       	81.19826       	80.54827       	81.19411       	80.13495       	81.19503       	81.640015      	81.64273       	81.22675       	80.61954       	80.3253        	79.25623       	78.12883       	80.92752       	79.68797       	79.51701       	80.96234       	80.17765       	79.34499       	79.04257       	79.88812       	80.40786       	79.8787        	78.98441       	76.47301       	83.591545      	
80.766266      	81.69396       	83.02984       	82.65525       	80.976456      	80.831436      	80.155785      	80.336685      	80.0466        	80.820305      	81.16337       	80.62397       	80.08499       	80.79091       	80.088295      	80.10987       	80.90787       	80.17852       	79.62134       	79.8805        	79.99422       	79.73258       	79.64963       	80.55548       	81.68565       	80.79769       	80.81488       	80.42384       	80.56147       	80.330536      	79.97827       	80.8967        	81.53354       	80.66337       	79.77781       	80.73497       	78.43045       	81.247406      	81.27508       	80.50892       	80.44047       	79.79181       	79.81388       	80.46539       	80.17737       	79.99865       	80.968895      	81.01783       	79.68745       	80.62471       	80.88062       	80.735405      	81.311325      	81.28495       	80.782234      	79.732994      	79.86858       	79.36658       	79.91681       	79.93062       	80.18585       	80.843155      	80.512436      	81.52          	80.711845      	79.43422       	79.9667        	80.35882       	81.2568        	80.59194       	78.70258       	79.97316       	81.55754       	80.562836      	80.00097       	80.327774      	80.57909       	81.06085       	79.56565       	80.57757       	82.33525       	82.39761       	81.8713        	81.653465      	80.62149       	79.38097       	78.50322       	79.16041       	80.670654      	79.52123       	80.63778       	80.01069       	79.89929       	78.647736      	79.880516      	80.11939       	79.55329       	79.2217        	77.28084       	82.06786       	
80.71858       	81.360374      	82.9987        	83.591545      	81.76049       	80.57779       	80.81287       	80.265495      	80.277794      	80.9559        	81.25929       	80.619606      	79.94306       	80.37834       	80.2853        	79.980606      	80.56756       	80.277664      	79.077065      	79.04406       	80.8192        	80.208885      	79.900665      	80.12446       	81.098465      	80.51257       	80.79508       	80.98206       	81.21216       	80.324844      	79.97938       	80.13585       	80.85764       	80.94387       	80.09068       	79.747345      	80.262115      	81.15847       	81.50661       	80.38058       	80.07656       	80.103615      	80.81492       	80.72327       	80.05611       	79.51669       	79.84729       	80.647705      	80.36793       	80.69346       	80.92936       	81.41049       	80.91815       	81.0042        	81.17665       	80.728294      	80.19024       	78.81385       	79.335464      	80.278046      	80.315506      	80.74506       	81.01668       	80.593796      	80.52295       	79.63671       	79.82119       	81.12872       	79.97893       	79.61327       	80.36357       	80.117744      	80.82119       	81.48645       	80.57157       	79.92194       	80.73662       	79.25846       	79.71792       	80.15964       	82.00535       	83.018326      	82.71663       	81.618065      	81.53412       	80.11154       	78.18675       	78.64733       	80.86091       	80.33793       	78.97293       	79.890625      	80.10625       	79.63114       	78.65245       	79.531654      	79.10901       	79.399         	80.07752       	80.21931       	
80.77888       	81.175186      	82.12413       	83.37635       	81.974464      	81.14833       	80.847885      	80.54859       	80.56833       	80.99209       	80.76521       	80.77854       	80.35376       	80.21721       	80.64397       	79.93823       	79.8294        	79.6755        	79.367805      	78.96867       	81.49531       	80.68419       	80.430855      	80.0295        	80.13045       	80.53931       	81.1172        	80.954865      	81.234825      	80.26464       	79.91914       	79.86428       	80.45002       	80.59869       	80.14372       	80.713905      	80.65048       	80.90901       	81.00269       	79.53381       	79.96364       	81.48668       	80.6025        	80.59346       	80.35816       	79.90941       	80.101875      	79.77455       	80.38637       	81.04699       	80.54055       	81.44128       	80.370445      	80.86224       	81.29843       	81.50369       	79.9987        	79.009346      	78.64596       	80.20455       	80.90115       	80.68236       	81.000885      	80.83052       	80.39077       	79.83584       	79.348564      	79.70741       	80.73454       	79.65782       	80.08784       	81.07292       	80.94008       	80.252846      	80.99549       	80.84608       	79.778534      	78.98652       	79.71865       	80.91755       	80.8134        	82.947655      	83.27274       	81.479675      	81.72388       	80.70197       	78.89453       	80.85893       	79.386894      	80.11211       	78.785355      	79.60793       	79.79983       	78.97541       	80.19893       	80.61537       	78.55262       	79.930756      	79.31628       	80.36321       	
80.94937       	80.7199        	80.83903       	81.739265      	81.96345       	81.354385      	80.64638       	80.574         	81.30167       	81.10699       	80.50732       	80.44013       	81.22624       	80.82712       	80.59356       	79.98474       	79.384254      	79.42413       	79.81522       	79.61493       	80.91117       	80.89209       	80.40547       	79.89282       	80.663216      	79.9601        	80.66768       	80.80929       	81.0184        	80.32126       	80.58055       	79.89107       	80.1786        	80.253204      	80.351585      	81.12135       	80.69937       	81.13034       	80.035255      	79.077126      	80.00674       	81.342186      	81.08302       	81.373085      	80.39071       	80.48935       	79.60453       	80.30993       	81.42581       	80.228226      	79.59078       	80.8931        	80.28191       	80.5679        	80.91905       	81.26047       	80.88104       	80.009026      	78.21297       	79.99521       	80.80143       	80.34542       	81.18125       	81.34584       	80.401886      	79.659294      	79.32374       	79.82001       	79.79054       	80.11605       	79.98103       	80.73237       	81.02067       	80.65254       	80.3438        	80.65642       	79.99473       	79.12135       	79.42954       	80.593956      	80.67278       	81.99409       	83.07134       	82.40587       	80.7973        	80.73121       	80.61565       	81.1593        	79.54824       	79.339325      	79.447136      	79.76109       	79.314964      	79.58035       	80.06051       	79.37611       	79.31004       	79.839874      	78.92334       	80.15832       	
80.70394       	79.686554      	79.017265      	80.486         	81.97818       	81.59917       	81.375786      	80.64493       	81.023895      	81.33677       	81.02669       	80.26362       	81.40451       	81.590256      	80.45537       	80.01602       	79.19933       	79.5868        	80.15669       	81.14346       	80.23085       	80.4972        	79.68405       	80.42084       	80.65642       	80.22391       	79.974754      	80.96045       	80.884346      	80.35931       	80.722374      	80.76752       	80.044334      	78.668884      	80.34626       	81.893394      	80.54454       	80.26371       	79.954666      	79.13222       	81.05197       	80.90388       	80.82496       	80.667564      	80.711685      	80.34789       	79.84939       	80.83398       	80.834854      	80.84938       	80.10919       	80.27339       	80.228905      	80.546425      	80.62377       	81.62126       	80.65682       	79.293236      	79.179436      	80.21997       	80.82976       	80.22723       	81.00938       	81.46777       	80.38624       	79.91593       	79.819824      	79.301254      	79.086105      	80.03267       	80.29314       	81.69889       	80.97879       	80.73247       	80.798965      	80.45428       	80.09003       	79.72067       	79.21386       	80.16064       	80.69528       	80.715775      	82.3002        	82.40629       	81.41883       	81.13021       	80.760544      	80.30487       	79.54807       	79.881516      	80.45083       	80.364845      	79.88901       	79.67152       	80.10075       	79.506676      	78.99299       	79.38407       	78.430244      	78.098526      	
80.9332        	78.89033       	77.59956       	79.45047       	81.14571       	81.19152       	81.67829       	80.991         	80.62233       	81.774925      	81.08456       	80.57178       	81.29045       	81.66931       	80.58766       	79.81946       	80.04618       	79.547935      	80.66153       	80.81297       	80.575874      	80.40486       	79.7802        	81.5043        	80.48832       	80.15082       	80.07506       	79.30821       	80.46818       	80.80729       	80.22502       	80.39023       	81.26129       	79.63287       	80.29598       	81.515724      	80.49885       	79.76714       	79.81271       	79.38379       	81.1782        	81.415474      	80.542336      	79.96372       	80.50256       	80.64291       	80.62831       	80.66457       	81.867935      	80.887665      	81.59201       	81.04983       	78.067986      	79.58348       	80.51486       	80.85284       	80.99566       	79.62006       	79.217766      	80.961555      	80.720215      	80.45473       	80.72231       	80.88505       	80.393654      	80.49746       	80.013794      	79.45068       	78.89343       	79.36381       	80.0282        	81.07768       	81.446         	81.64362       	80.478714      	80.24804       	79.81957       	80.43223       	79.400375      	79.95133       	80.14295       	79.850235      	81.485466      	82.12437       	81.64416       	81.62672       	81.26367       	80.32602       	79.25485       	79.585495      	80.37027       	81.445015      	80.409676      	79.45415       	80.27787       	79.55576       	79.080666      	78.87309       	78.54462       	77.14172       	
81.014915      	77.7956        	76.0905        	78.49922       	81.08961       	81.46063       	80.85671       	80.96117       	81.40747       	81.586975      	81.210045      	80.82847       	81.365425      	81.26593       	80.26238       	79.95202       	80.614456      	80.41499       	79.82445       	80.528725      	80.85136       	80.36479       	80.05789       	80.47687       	80.952286      	80.50418       	79.62617       	79.27346       	80.49978       	80.74196       	80.29333       	80.847885      	77.94195       	79.83476       	80.255745      	81.23656       	80.867035      	79.88263       	79.78102       	79.737495      	80.79745       	81.547806      	80.40243       	80.14891       	80.25095       	80.37145       	81.52104       	81.298256      	81.968155      	78.50882       	82.31204       	81.415596      	77.54816       	78.23081       	80.00722       	81.14543       	80.96877       	80.39638       	79.750046      	80.22788       	81.04686       	80.82282       	80.83907       	80.7197        	80.42901       	80.35307       	80.31797       	80.22088       	79.387825      	79.38708       	78.63068       	80.11108       	81.16163       	82.17799       	81.07903       	80.119125      	80.334946      	80.21169       	80.06108       	79.616005      	78.87279       	79.96004       	80.88639       	81.87593       	82.490074      	81.88508       	81.295364      	79.91721       	79.89267       	78.70743       	80.84102       	81.958954      	80.445915      	79.564896      	79.18517       	79.5128        	79.97059       	79.30591       	77.69587       	78.23041       	
80.22387       	77.26515       	75.90715       	77.86464       	80.67437       	80.368904      	80.67628       	81.16712       	82.02644       	81.63547       	81.31623       	81.15799       	81.10349       	80.73294       	80.39511       	80.54118       	80.3466        	80.38272       	79.90062       	80.339905      	81.10951       	80.592         	80.14577       	80.00676       	80.6391        	81.06336       	79.72472       	79.519066      	80.23131       	80.705894      	80.86136       	79.776924      	80.38563       	80.13855       	79.9489        	80.57266       	81.36143       	80.64293       	79.812935      	80.381744      	80.75762       	80.89958       	80.71486       	79.9941        	80.04996       	80.47645       	81.328835      	81.60749       	80.86095       	80.725815      	81.08896       	80.334755      	78.86481       	78.85916       	80.32268       	80.98869       	80.51656       	80.69075       	79.88594       	80.417725      	81.00076       	80.72402       	80.71146       	80.301025      	80.336494      	82.01653       	81.26869       	79.364746      	77.955         	79.15247       	78.21036       	80.131035      	80.827736      	81.93324       	82.0764        	80.20813       	81.18443       	80.29911       	79.31269       	79.51627       	78.633736      	80.22593       	80.30325       	81.15918       	82.33809       	82.24918       	81.221115      	80.41501       	79.7644        	79.53157       	80.98086       	80.22595       	80.48599       	79.432526      	78.75882       	78.91122       	80.891335      	79.02679       	78.5129        	78.02257       	
80.40403       	77.21452       	75.34746       	77.93702       	80.20713       	79.90305       	80.25122       	80.89142       	82.21739       	81.52057       	81.515884      	81.37831       	81.20002       	80.72132       	80.655975      	80.30169       	80.6086        	80.66313       	80.2098        	80.321205      	80.67304       	80.81725       	80.43721       	80.09827       	80.22031       	80.61463       	80.56218       	80.578514      	79.42477       	79.848656      	80.470924      	80.00868       	80.03825       	80.60807       	80.25075       	80.26958       	80.62054       	80.60968       	80.42844       	80.46751       	80.2162        	81.092186      	80.45834       	80.31431       	79.763794      	80.60022       	81.38071       	81.03467       	81.3203        	80.844         	80.06077       	79.94288       	79.559586      	79.84878       	80.18931       	80.6298        	80.98948       	79.38554       	80.491066      	80.52001       	81.385605      	80.960106      	80.27935       	80.42069       	80.351395      	80.74588       	81.32378       	81.45661       	79.67766       	78.13335       	78.28017       	79.857025      	80.65103       	81.69069       	81.831635      	80.90946       	81.102715      	80.99743       	79.7598        	79.37188       	79.03228       	79.784485      	80.22901       	80.34973       	82.089745      	81.932045      	81.17188       	80.78457       	80.26895       	80.103516      	80.448845      	80.57184       	80.46914       	79.075356      	78.446526      	76.0084        	77.64329       	81.21217       	79.24727       	78.449776      	
80.7502        	77.57878       	75.92316       	77.58061       	79.84895       	79.52948       	79.383705      	80.03348       	81.96984       	81.64962       	81.44912       	81.66875       	81.317566      	81.184685      	80.43349       	80.22795       	80.83615       	80.31625       	80.62872       	80.70133       	80.83028       	80.86559       	80.27755       	80.25722       	80.30257       	80.48653       	80.28728       	80.213234      	80.01889       	79.43007       	79.66635       	80.3873        	80.35785       	80.82346       	80.80356       	80.09646       	80.14996       	80.44915       	80.91682       	80.43606       	80.62736       	80.49982       	80.8071        	79.87291       	80.31254       	81.11004       	80.94969       	80.980156      	81.29683       	80.60062       	80.42404       	78.93871       	79.89361       	80.087006      	80.49648       	80.56113       	80.63032       	79.714134      	80.52431       	80.28498       	81.18075       	80.570206      	80.4669        	80.762         	80.366684      	80.40275       	81.168396      	81.3845        	81.31583       	78.3601        	78.02808       	79.33699       	80.88648       	81.44248       	81.578354      	80.310684      	81.243164      	81.22167       	80.29752       	79.63358       	79.64384       	79.195915      	79.40273       	80.71188       	81.56958       	82.05971       	80.994255      	80.79293       	80.75248       	80.41549       	79.77238       	79.973976      	80.72611       	80.58022       	79.41251       	78.872086      	78.83626       	80.36385       	79.97404       	79.03453       	
80.62532       	77.79761       	75.776726      	77.25551       	80.464806      	79.0844        	77.95903       	79.98863       	80.97667       	81.64124       	81.23885       	82.06327       	81.46256       	81.535484      	80.68443       	80.18682       	80.521774      	80.72407       	80.82168       	80.39415       	80.98543       	81.01578       	80.26229       	80.01296       	80.20622       	80.64569       	80.19351       	79.86466       	79.25182       	80.16339       	80.13951       	80.3454        	80.11647       	80.63787       	80.943054      	79.90837       	80.31971       	78.5941        	80.13567       	79.71925       	80.270706      	80.574844      	80.48618       	80.28197       	80.63593       	80.701546      	80.337776      	81.22926       	80.85214       	80.401924      	80.316414      	79.57644       	79.8265        	80.02175       	80.46306       	81.10508       	80.69327       	79.94813       	80.562485      	80.74994       	80.617645      	80.25786       	80.18619       	80.136         	79.76894       	80.61542       	82.22989       	82.314804      	80.958824      	79.097694      	77.86815       	78.92635       	80.13198       	82.43739       	81.66542       	79.420616      	80.965744      	80.870705      	80.560036      	80.231224      	80.08989       	78.40506       	79.407135      	80.14744       	81.865616      	81.59217       	81.82184       	80.67009       	80.542145      	80.12397       	80.09125       	80.38517       	81.0357        	80.84433       	80.20464       	79.68744       	77.97937       	80.081665      	79.75499       	78.88273       	
80.52101       	79.090515      	76.87878       	76.146515      	78.61422       	79.070854      	78.48689       	79.08574       	80.49124       	81.21033       	81.35774       	82.21929       	81.70609       	82.0801        	80.788124      	80.43078       	80.811874      	80.86861       	80.76512       	80.23208       	80.88181       	80.75247       	80.09944       	79.89404       	80.23441       	80.3075        	80.54957       	79.58268       	79.84092       	80.03123       	80.726074      	80.14105       	79.99852       	80.253044      	81.10582       	79.637566      	80.18494       	80.53891       	80.8126        	81.11871       	80.72979       	79.65661       	80.41363       	80.568535      	80.87851       	80.00003       	80.440445      	80.6348        	80.7133        	80.29888       	80.56562       	79.975685      	80.142845      	80.43203       	80.89755       	81.33417       	80.35617       	80.316605      	80.09309       	80.05552       	81.069084      	80.94519       	79.89504       	79.799644      	79.50696       	80.56608       	82.08745       	82.80329       	81.270134      	79.96093       	78.59058       	78.2827        	80.56291       	82.626816      	78.582146      	81.20055       	80.559235      	80.56245       	80.50592       	80.890594      	79.52698       	78.540695      	79.28152       	80.21284       	81.36717       	82.06833       	81.63688       	80.9041        	79.62294       	79.46726       	81.22464       	81.65625       	81.19238       	80.86186       	80.95638       	80.431465      	77.947655      	78.78384       	79.49595       	78.936035      	
80.98673       	80.534424      	78.16472       	75.89065       	78.041885      	79.142746      	78.95398       	79.019264      	79.79859       	80.62253       	81.39828       	82.109314      	81.74982       	82.36471       	80.98339       	80.5874        	80.83929       	80.856094      	81.5614        	80.38077       	80.370255      	80.05226       	80.32691       	79.67468       	80.012245      	80.34678       	80.26526       	80.218506      	79.884575      	80.69403       	80.19697       	80.179         	80.18709       	80.104576      	81.13056       	80.74505       	80.54599       	80.47391       	80.66502       	80.810936      	79.84441       	79.86272       	80.63827       	81.07449       	80.50883       	79.96745       	80.408226      	80.3085        	80.33253       	80.44701       	80.608246      	80.49226       	79.98286       	80.948135      	81.133606      	80.482124      	80.725334      	81.00877       	80.07952       	79.47588       	80.13304       	80.91341       	80.46287       	80.53449       	79.86341       	80.17483       	81.80425       	82.59933       	81.23057       	80.905045      	77.22975       	74.7999        	79.051506      	80.66121       	82.14033       	80.75669       	80.60365       	79.63664       	80.26177       	80.816086      	79.68864       	79.489174      	78.92143       	80.37369       	80.84224       	82.44071       	81.0377        	80.54272       	79.188896      	77.13574       	80.2161        	82.34239       	81.472         	81.54454       	81.46755       	81.427734      	79.08506       	78.232666      	79.13079       	78.59622       	
80.67432       	80.92579       	80.01755       	77.73649       	77.584045      	78.88803       	80.21322       	78.22378       	78.691605      	80.615845      	81.10971       	81.6692        	81.71706       	82.38469       	81.547745      	80.919785      	81.01052       	80.950455      	81.1004        	80.17479       	80.00661       	80.06546       	80.380066      	78.49764       	80.30602       	80.47193       	79.89552       	80.319595      	80.14709       	80.02948       	80.36394       	81.32041       	80.38619       	80.35871       	81.107635      	80.707275      	80.49033       	80.299934      	80.52778       	80.03704       	79.53258       	80.240295      	81.34691       	81.32773       	80.26431       	79.781845      	80.38312       	79.996864      	80.25101       	80.671684      	80.47459       	80.4614        	80.36621       	81.09184       	80.19498       	80.20338       	81.40035       	79.91374       	80.38915       	79.67371       	80.494446      	80.72822       	80.87861       	79.820885      	80.33443       	80.26034       	81.84073       	81.37305       	81.50149       	81.0807        	80.38399       	78.774925      	78.41749       	80.458824      	81.24548       	81.654686      	78.18877       	80.071075      	80.723564      	80.14226       	80.4882        	79.63586       	79.14765       	79.91606       	80.66932       	81.71137       	81.344406      	80.4368        	79.822495      	80.765945      	78.77419       	82.662766      	82.114365      	81.41783       	82.75497       	81.80269       	79.22881       	78.74783       	78.82934       	78.26388       	
80.780655      	81.581024      	81.61314       	79.55693       	78.05835       	78.4947        	78.76672       	78.826416      	78.85684       	80.447426      	80.69525       	81.300186      	82.19286       	82.37738       	81.53398       	80.90693       	80.92031       	81.04822       	80.61075       	80.313774      	80.04653       	80.46205       	80.39679       	80.64882       	80.2796        	80.55678       	79.70872       	80.1222        	80.40683       	79.78083       	80.25699       	80.937325      	80.99544       	80.806694      	80.76632       	80.643814      	80.78686       	80.06009       	80.07356       	79.873695      	79.57911       	80.74358       	81.72535       	80.91051       	79.86405       	80.14666       	80.14365       	80.17149       	80.527466      	80.50573       	80.5649        	80.19907       	80.66868       	80.41252       	80.36735       	80.65169       	80.762276      	80.13836       	80.40845       	80.11302       	80.26895       	80.542625      	80.694756      	79.69735       	79.65055       	80.956154      	81.35745       	81.20562       	81.79319       	81.22108       	81.43259       	79.39605       	79.11151       	79.60175       	80.0216        	79.840675      	81.68098       	80.47232       	79.937096      	80.1365        	79.842255      	80.98218       	75.46129       	79.88354       	80.39045       	81.147545      	81.51965       	80.803856      	80.35986       	79.596985      	81.28325       	79.96382       	82.037476      	82.568596      	81.75006       	81.70663       	80.38369       	79.481125      	78.53368       	79.003586      	
80.82423       	82.036575      	83.53511       	81.04571       	77.89225       	77.81618       	78.1075        	78.59372       	78.90028       	79.91724       	80.711105      	81.180504      	81.99293       	81.517525      	81.64597       	81.12857       	81.35062       	81.70234       	79.466125      	80.45441       	80.59684       	80.61501       	80.069244      	81.11634       	80.52769       	79.73598       	80.61352       	80.163445      	79.79242       	80.0112        	80.30456       	80.46632       	81.26099       	80.972565      	80.79955       	80.26755       	80.43904       	80.15612       	79.982925      	80.23976       	80.19974       	80.882965      	80.80691       	80.21389       	80.30206       	80.96256       	80.166725      	80.13218       	80.683205      	80.827446      	80.16673       	80.56536       	81.186005      	79.700455      	79.954346      	80.828354      	80.53882       	80.06865       	80.845825      	81.544334      	79.20163       	80.30857       	80.26234       	79.83649       	79.13013       	80.292496      	81.21418       	81.22381       	81.527916      	81.74922       	81.25852       	80.96039       	80.05615       	79.12535       	78.941444      	80.00187       	80.225586      	81.482796      	80.082016      	79.853676      	80.04313       	80.34601       	80.12011       	79.23468       	80.63888       	81.010994      	81.51811       	80.64999       	80.47675       	79.919426      	80.45591       	80.80883       	81.53          	82.25524       	82.54072       	81.31025       	80.86964       	80.214775      	79.67583       	79.17399       	
80.82733       	82.133125      	83.41436       	81.562355      	78.91475       	77.43428       	78.22609       	78.08532       	78.953186      	79.85993       	80.659355      	80.57203       	80.84504       	81.355934      	81.48494       	81.974785      	80.99867       	80.91399       	81.27959       	80.51813       	80.84786       	80.432014      	80.192795      	80.99819       	80.72803       	80.16903       	79.87409       	80.36261       	80.430374      	79.7751        	80.277626      	80.7364        	80.52047       	81.1678        	80.179695      	80.711624      	80.35689       	80.11677       	80.33893       	80.42903       	80.85857       	79.90746       	80.18254       	80.41076       	80.84114       	80.67535       	80.54755       	80.41078       	80.82117       	80.258766      	80.31755       	80.47138       	80.380844      	79.971306      	80.599464      	80.694916      	80.85693       	80.15183       	80.96768       	81.0093        	80.2529        	79.927605      	79.43812       	80.30698       	79.7277        	80.043594      	80.87019       	81.144135      	81.01477       	81.34791       	81.42045       	81.22344       	80.48312       	80.39605       	79.467575      	78.30649       	80.01339       	80.006386      	81.97521       	79.06985       	80.12769       	80.716324      	80.29538       	79.59512       	80.44638       	80.41977       	80.93974       	81.293594      	80.67688       	79.51714       	79.91956       	81.20215       	81.41083       	81.407906      	81.634964      	82.23084       	81.39212       	80.01536       	80.085304      	79.68303       	
80.85055       	81.73608       	82.7987        	81.981606      	80.464714      	79.2165        	77.244865      	77.31086       	78.89756       	79.59873       	81.194885      	79.499886      	79.928604      	80.50482       	81.61798       	81.76164       	81.83494       	81.21591       	81.27494       	81.165054      	81.12747       	80.67044       	80.11156       	80.74888       	80.64348       	80.536415      	80.38508       	80.21207       	80.09532       	79.744514      	79.97277       	80.941666      	81.04813       	80.24459       	79.60935       	80.62629       	80.72216       	80.363365      	80.59342       	80.88945       	80.02492       	79.702805      	80.19845       	80.18795       	80.82461       	80.86996       	80.74634       	80.50561       	80.48596       	81.077545      	80.13917       	79.70877       	79.83612       	80.26308       	80.36957       	80.8804        	80.97439       	81.03947       	80.51844       	80.49117       	81.37468       	80.62915       	78.74581       	79.97674       	80.037964      	80.23001       	81.06357       	80.48684       	80.32019       	81.2426        	82.16167       	81.201996      	80.78635       	80.6138        	80.314224      	78.14044       	79.05541       	78.84764       	80.70894       	80.14935       	81.07503       	81.18323       	80.65241       	79.42762       	80.10376       	80.44762       	80.39946       	81.16677       	81.34293       	80.076904      	79.68272       	80.67794       	81.61457       	80.49165       	80.87909       	81.60199       	82.29675       	80.51154       	80.22481       	80.03079       	
80.83638       	81.736496      	82.76765       	82.149765      	81.46495       	80.513405      	76.955185      	76.48612       	78.03852       	79.5259        	80.68782       	80.02447       	79.34284       	80.105545      	81.04922       	81.99159       	82.175156      	81.520615      	81.332375      	81.310974      	80.93993       	80.90967       	80.56142       	79.939545      	80.71794       	80.94678       	80.25927       	80.31229       	80.197754      	80.440056      	79.22272       	80.90172       	80.75757       	80.4073        	79.5137        	80.127464      	80.72987       	80.690186      	80.64901       	80.46369       	80.1974        	80.20497       	79.8441        	80.42099       	81.2199        	80.68797       	80.3956        	80.45125       	80.368706      	80.96329       	79.89429       	79.65179       	80.02416       	80.37758       	80.35493       	81.07567       	81.219086      	80.98018       	80.43849       	80.830765      	80.66947       	80.713196      	79.82431       	80.194145      	79.898895      	80.40499       	80.49991       	80.58413       	79.639656      	81.63321       	81.95061       	81.15646       	81.24214       	80.636536      	80.39522       	79.19506       	79.73928       	78.35519       	75.82906       	80.23244       	81.530495      	81.75726       	79.859         	80.05674       	79.8406        	80.06178       	80.47278       	81.163605      	81.20189       	80.71511       	80.148735      	80.63897       	80.85693       	80.44773       	80.38673       	81.03853       	81.89932       	81.428474      	80.9515        	80.14439       	
80.88449       	81.6488        	83.040276      	82.28622       	79.87327       	80.5954        	79.049416      	77.21394       	77.75575       	78.69884       	80.05495       	81.0681        	79.14605       	78.943634      	80.709465      	82.270294      	82.31032       	81.56061       	81.483185      	81.14222       	80.853065      	81.175224      	80.94607       	79.73765       	80.439064      	80.9497        	80.57358       	80.47985       	80.57016       	80.29767       	80.217384      	79.80227       	80.47354       	80.45677       	80.04549       	79.6223        	80.43796       	80.2279        	80.37037       	80.748886      	80.234955      	78.965614      	79.77976       	80.56431       	81.0823        	80.527145      	80.411026      	80.3081        	80.41833       	80.157974      	79.79438       	79.63517       	80.40862       	80.99811       	80.22454       	80.38812       	80.82275       	80.771904      	80.51033       	80.63962       	81.732254      	80.44184       	80.24054       	79.83942       	80.39528       	80.73941       	79.80615       	79.62142       	80.551605      	81.03593       	81.692245      	81.03307       	81.6979        	80.83188       	80.616295      	79.767624      	78.41833       	79.37767       	79.06784       	80.672035      	80.87534       	81.00134       	80.349556      	80.03763       	80.12001       	80.72393       	78.832466      	80.94739       	81.35477       	82.06852       	80.25745       	80.478         	79.833916      	80.19357       	80.797386      	81.61227       	82.00821       	80.08617       	81.91236       	80.248405      	
80.92887       	81.61415       	82.00751       	81.390945      	80.73525       	79.630615      	80.15822       	78.48797       	78.40672       	78.76651       	79.480484      	80.61892       	78.14748       	78.155205      	80.95463       	81.90667       	82.49809       	81.53899       	81.51671       	81.354294      	80.72395       	80.9083        	81.329315      	80.484276      	80.01722       	80.554985      	81.54387       	79.86343       	81.06335       	80.46647       	79.76733       	79.77498       	80.64948       	80.15405       	80.10104       	80.24706       	79.93078       	79.93828       	80.444824      	81.12731       	80.58308       	80.626045      	80.280266      	79.93515       	81.251564      	81.27692       	79.39955       	79.95211       	80.04707       	80.46399       	80.64886       	79.953835      	80.457146      	80.320496      	80.4791        	79.845276      	80.63886       	80.46626       	81.07628       	80.8387        	81.209946      	81.21334       	80.207         	79.94709       	79.96064       	81.082275      	80.25717       	79.956314      	79.985466      	79.71232       	81.673645      	80.797165      	81.96377       	80.68651       	80.39908       	79.09835       	80.29394       	79.577774      	78.413994      	81.18125       	80.44291       	80.288216      	80.779755      	80.731804      	80.04255       	79.71498       	79.68161       	80.523384      	81.23422       	81.99516       	79.93355       	80.93655       	79.99056       	79.614044      	80.82113       	81.19821       	81.93098       	81.24221       	81.35887       	80.72038       	
80.95281       	80.98906       	80.724365      	80.484695      	81.364944      	81.4106        	80.10531       	79.45337       	79.36463       	79.17279       	78.25289       	79.37804       	77.53907       	78.34342       	80.45636       	81.26532       	82.27289       	82.49648       	81.76965       	81.2717        	80.23847       	81.315796      	81.63652       	80.43995       	79.78915       	80.55318       	80.90637       	81.09276       	80.495674      	81.014496      	79.78248       	80.240166      	80.02668       	80.39358       	80.51615       	80.0896        	80.352776      	79.77749       	80.00208       	80.978455      	80.84031       	80.164635      	79.23442       	81.07179       	80.33271       	80.88922       	79.86997       	78.524124      	80.93685       	80.4956        	80.774185      	80.66882       	80.15871       	80.77923       	80.101456      	79.94391       	80.44718       	80.7741        	80.770386      	80.632515      	80.78943       	80.13471       	80.15692       	80.904106      	80.371574      	81.67072       	80.56676       	79.47274       	79.87096       	79.64653       	80.96977       	80.7743        	80.68459       	80.820854      	80.35737       	80.268776      	81.04632       	79.31905       	79.65744       	80.61476       	80.03366       	80.420265      	80.84715       	80.41017       	80.38166       	80.28046       	79.8296        	80.16415       	81.071365      	81.36182       	80.48443       	80.42161       	80.40435       	79.68029       	80.93073       	80.77532       	81.586845      	81.73081       	82.23713       	79.594864      	
81.16447       	80.45532       	79.550896      	80.28756       	81.046005      	82.44849       	80.494064      	79.73681       	80.813644      	79.1561        	79.4931        	75.29945       	77.24026       	78.84832       	79.09042       	80.494225      	81.72072       	82.95669       	82.15417       	81.59419       	80.59521       	81.249275      	81.01784       	80.76248       	80.27994       	80.3887        	80.69862       	81.40404       	80.49415       	80.44192       	80.31484       	80.22555       	80.28945       	80.19245       	80.55963       	80.639984      	79.06419       	79.91836       	80.86362       	80.367256      	81.11572       	79.683365      	79.586494      	81.411644      	79.6092        	80.69986       	80.00878       	80.110405      	80.6324        	81.431076      	80.89917       	80.575935      	80.43956       	80.99793       	80.52212       	79.78398       	80.53749       	80.40515       	80.09978       	80.034706      	79.89281       	81.10928       	80.484695      	80.122025      	81.42271       	80.07524       	80.76104       	80.28843       	79.265526      	79.86514       	80.08019       	80.85513       	80.64687       	80.32604       	81.39184       	78.90321       	81.26758       	80.87947       	78.47118       	79.772766      	79.909805      	80.306984      	80.96373       	80.652145      	79.836044      	79.90535       	80.244095      	80.50866       	80.99504       	81.50219       	80.129036      	80.18146       	80.53476       	80.09025       	81.02497       	81.07158       	81.24648       	81.92762       	81.040726      	80.15915       	
80.701225      	80.397446      	80.23961       	81.11426       	82.53638       	80.58149       	80.34911       	80.78152       	80.49726       	80.0133        	78.72894       	77.27009       	77.65204       	78.36542       	78.95164       	79.33824       	81.10602       	82.64641       	82.64923       	81.664116      	81.224266      	80.90684       	81.13511       	80.65558       	80.94578       	80.47033       	80.293755      	80.5744        	80.731415      	80.269806      	80.774605      	79.9613        	79.85317       	80.59043       	80.74448       	80.01946       	79.564384      	81.20879       	79.95035       	80.33836       	80.596924      	81.08764       	80.00047       	80.04835       	80.08444       	79.95118       	80.589516      	80.107025      	80.70353       	81.122444      	80.68527       	80.57172       	80.94273       	80.98304       	80.557884      	79.81066       	79.91112       	79.84957       	79.257195      	79.79271       	81.02324       	79.67471       	80.04789       	80.48835       	80.70056       	80.91528       	80.89328       	78.04905       	80.01477       	80.46234       	81.09766       	80.1179        	80.88782       	80.01769       	81.07267       	81.58772       	80.60344       	80.94412       	80.50988       	79.10987       	80.089264      	80.5775        	79.895294      	80.14415       	79.95989       	79.73353       	80.42601       	80.61595       	80.954185      	80.820816      	81.26857       	80.26624       	80.24965       	80.28351       	80.92824       	81.3251        	81.402245      	82.064545      	80.98543       	79.34033       	
80.38041       	80.22677       	80.18975       	80.99184       	80.7514        	81.13281       	82.31495       	81.36363       	80.33946       	80.627426      	79.298225      	76.94118       	77.07998       	78.57784       	79.51085       	78.337364      	80.11565       	82.053116      	82.488655      	81.561226      	81.71906       	81.18232       	80.713554      	81.30485       	80.80765       	80.44582       	80.53179       	80.619736      	80.73285       	80.19063       	79.97634       	79.83586       	79.88379       	80.67502       	80.595085      	80.58006       	78.48058       	80.02443       	82.09409       	79.80929       	81.06652       	80.788925      	80.1729        	80.15827       	79.85371       	80.55537       	80.88389       	80.41234       	80.32765       	80.779785      	80.27524       	80.212326      	80.91485       	80.5733        	80.45338       	80.1171        	79.90292       	79.199684      	79.82671       	82.1072        	80.5404        	80.23463       	80.046295      	80.87676       	81.524376      	80.66224       	76.81625       	80.29998       	80.137085      	80.29213       	81.43545       	80.560814      	80.32191       	81.38756       	81.64784       	79.682045      	80.904915      	81.633835      	78.53038       	79.892365      	80.15622       	77.56903       	75.04981       	80.32723       	79.96908       	80.317924      	79.77292       	80.750206      	80.57691       	81.134224      	81.2951        	80.10749       	79.76195       	80.63068       	80.97231       	80.930115      	81.606445      	80.96206       	80.5814        	81.01226       	
80.938705      	80.57869       	79.30787       	79.21715       	81.1374        	82.01111       	81.860306      	82.05689       	80.69961       	80.330536      	79.615135      	77.924965      	78.15767       	78.72364       	78.30578       	78.95757       	78.709984      	81.03833       	81.80763       	81.87462       	81.752846      	81.44485       	81.1898        	81.4476        	80.81408       	79.82525       	80.68705       	81.37787       	80.87734       	79.590096      	80.2027        	79.55793       	80.06591       	81.0316        	80.703316      	80.42526       	75.47947       	81.202545      	78.134514      	81.357796      	81.26673       	81.33961       	80.88494       	80.19842       	80.50152       	80.32428       	80.75684       	80.64933       	80.294205      	80.98661       	80.25694       	79.91813       	80.729256      	79.817444      	80.47871       	80.28172       	79.96669       	79.59826       	80.14459       	82.18355       	80.34814       	78.7727        	81.38836       	79.51908       	80.69423       	78.01329       	79.81954       	79.729         	80.06314       	81.22453       	80.689224      	79.84526       	80.894966      	80.93881       	80.87124       	80.94384       	80.46878       	81.14704       	80.878136      	80.17183       	79.455986      	79.80409       	80.36924       	80.88057       	79.69478       	80.96595       	79.61519       	80.25737       	80.6266        	82.031204      	80.540924      	79.397575      	80.340416      	80.47226       	80.99948       	80.58061       	80.868355      	81.03709       	81.10593       	81.17633       	
80.67174       	79.70933       	79.17955       	80.491066      	81.71748       	82.43497       	82.215775      	81.713135      	81.082245      	80.65503       	79.79487       	78.99944       	78.27034       	79.082726      	78.52356       	78.79734       	77.739555      	78.89249       	80.845116      	82.71327       	81.57566       	81.62148       	81.64989       	81.65406       	80.16297       	79.97412       	80.72737       	81.590744      	80.64105       	80.01882       	80.07566       	80.01968       	80.12693       	80.54506       	81.04785       	79.97392       	80.20283       	80.426155      	80.47833       	80.55909       	81.398445      	81.10558       	80.86139       	79.61917       	80.66398       	80.62171       	81.23401       	80.70697       	80.29601       	80.29627       	80.49005       	80.43518       	80.04938       	80.387924      	81.15172       	80.40967       	80.07188       	80.013176      	80.71086       	79.794075      	79.52893       	80.275505      	80.210175      	79.73627       	80.5641        	79.85207       	80.96465       	79.850105      	79.987335      	82.76799       	80.031784      	80.551414      	79.87998       	80.30574       	81.038536      	80.18728       	81.05224       	80.46318       	81.45359       	80.55635       	79.5917        	79.91555       	80.60172       	80.60309       	80.59618       	80.663605      	80.599525      	79.833275      	80.36735       	80.80193       	80.21095       	80.312546      	80.95651       	80.22375       	80.50559       	80.67037       	80.37185       	80.65698       	81.45048       	80.81702       	
80.891914      	80.291145      	79.90316       	81.16727       	82.2509        	81.55707       	82.671585      	81.533226      	81.31121       	80.73893       	79.97141       	80.071335      	78.79119       	78.97619       	78.7393        	78.3251        	76.52977       	78.30054       	80.54776       	81.857704      	81.83318       	81.95087       	82.05177       	81.13716       	81.00984       	80.83854       	80.62994       	81.503555      	80.56284       	79.77019       	80.13533       	79.819244      	80.75869       	79.943085      	80.43045       	80.842476      	80.57762       	80.756615      	80.7079        	80.32369       	80.645164      	80.97813       	80.701126      	79.96617       	79.96227       	80.40617       	81.21715       	80.82873       	80.40866       	80.33976       	80.72293       	80.28181       	80.13887       	81.20945       	81.007484      	80.33225       	80.14159       	79.41793       	80.71401       	79.746376      	79.2433        	80.12074       	78.94023       	79.358536      	80.45285       	81.25043       	81.74516       	80.89818       	81.253395      	80.866905      	81.1964        	79.99917       	79.88214       	79.75963       	80.06024       	78.56567       	79.52308       	81.75482       	82.30624       	80.80298       	80.55509       	81.405785      	79.36154       	79.5545        	80.63228       	81.36581       	80.78277       	79.54253       	80.00026       	80.16264       	80.40611       	80.481895      	80.42503       	80.551384      	79.918884      	80.5581        	80.779015      	80.39021       	81.563156      	80.23824       	
80.749466      	80.9263        	81.23649       	81.842316      	80.84444       	81.647         	81.56132       	82.71644       	81.19096       	80.69616       	79.27868       	79.74944       	80.14496       	79.0612        	78.89165       	77.90275       	76.859604      	78.65901       	79.18007       	80.45529       	81.018616      	81.88905       	82.865974      	81.938934      	81.36951       	81.66514       	80.630936      	80.78569       	80.33621       	80.659065      	79.982605      	79.645256      	80.466034      	80.073006      	80.15351       	81.42977       	80.94438       	80.79046       	81.13033       	79.807396      	80.06987       	80.685234      	80.37391       	80.5187        	79.37327       	79.85879       	80.927246      	81.151146      	80.124626      	80.05252       	81.03908       	80.94017       	80.77861       	81.344986      	80.3823        	79.77773       	80.08912       	79.93813       	79.21225       	78.67123       	79.1962        	79.78602       	79.78772       	81.01764       	81.390305      	81.82877       	81.750694      	81.25594       	82.023834      	81.58917       	81.0776        	79.77852       	79.96251       	80.89597       	79.48066       	78.83956       	80.3332        	82.16035       	80.21138       	80.263176      	80.798904      	82.11338       	79.57988       	78.12376       	80.8316        	82.29821       	80.97641       	78.94446       	80.09325       	79.519585      	80.683395      	80.38584       	79.96553       	79.71757       	80.88496       	80.66859       	80.51442       	81.87499       	80.81011       	80.07262       	
81.07269       	81.65627       	81.98673       	81.36712       	80.50999       	81.08725       	81.31229       	80.837715      	82.02183       	81.10673       	79.82709       	78.46369       	79.63396       	80.414154      	79.04034       	78.281784      	77.70665       	78.29891       	79.26909       	78.65825       	80.41725       	81.59477       	83.02562       	82.82168       	82.18436       	81.09642       	80.48243       	80.479996      	80.413895      	81.181755      	80.04057       	79.467186      	80.37513       	80.39256       	81.16138       	81.98516       	80.09453       	80.49768       	80.086205      	80.53325       	81.792816      	79.62101       	80.05912       	79.97504       	79.309784      	80.16317       	80.27405       	80.449295      	80.83551       	81.15734       	79.46444       	81.09368       	80.95351       	81.3254        	79.95767       	79.61541       	78.91923       	77.78689       	76.32586       	77.49116       	79.59143       	80.65429       	82.1283        	82.144775      	81.599396      	82.28508       	82.03028       	81.73617       	82.127716      	81.8562        	80.8397        	80.96559       	79.834076      	80.52809       	80.382996      	79.71177       	79.25024       	81.15969       	80.448265      	80.17113       	79.86775       	81.686104      	80.91331       	79.20726       	80.21456       	80.38625       	80.26407       	80.10196       	80.36207       	78.83132       	78.23689       	80.907486      	79.86325       	79.78357       	80.552025      	80.28634       	80.410416      	81.58738       	81.43408       	80.419075      	
80.955475      	81.34341       	81.71559       	80.95912       	81.10248       	79.42595       	79.77688       	81.47904       	82.0325        	82.18959       	79.688385      	78.75811       	79.68924       	79.65079       	79.77345       	78.79655       	78.399025      	78.57647       	78.57482       	78.86245       	79.66855       	81.28324       	82.18096       	82.81014       	82.375206      	81.327675      	80.63608       	80.558464      	80.92822       	80.95451       	80.14022       	79.67546       	79.27783       	80.94842       	82.33185       	80.83679       	80.392525      	80.46836       	80.14462       	79.913895      	80.2288        	80.91985       	80.403725      	80.007614      	80.076004      	80.098976      	80.421776      	80.286446      	80.63939       	80.31121       	80.73213       	81.33922       	80.90249       	80.08399       	79.31323       	77.05198       	78.11091       	77.92592       	77.716934      	78.971436      	80.100334      	80.87293       	82.24418       	82.841866      	81.70759       	81.749916      	82.16753       	82.541046      	82.27517       	82.476685      	81.77489       	81.06749       	80.18997       	80.71397       	79.63345       	80.04062       	81.21728       	76.12985       	79.999         	80.78114       	79.67927       	79.636795      	80.136795      	80.83144       	78.57927       	79.991875      	79.835686      	81.132866      	80.267426      	79.75513       	79.93503       	81.067245      	80.31405       	80.17091       	79.57803       	79.793465      	79.904434      	81.5318        	81.4842        	80.480705      	
80.96705       	81.240776      	81.274605      	80.59693       	79.58722       	79.202194      	79.77842       	81.49904       	82.96544       	81.92658       	80.063644      	79.62912       	79.95559       	79.51689       	79.46705       	79.31213       	78.36433       	78.310486      	78.9319        	78.738914      	79.82628       	80.29362       	81.62523       	81.76325       	82.37097       	81.73716       	81.34063       	80.93158       	81.22492       	80.69006       	79.98759       	78.57114       	80.1349        	80.145424      	80.207596      	81.05612       	80.13716       	80.40476       	80.32121       	80.29001       	79.65715       	79.71822       	80.634895      	80.435486      	80.74812       	80.8292        	80.147995      	80.31199       	80.59784       	80.9171        	80.355774      	80.99299       	80.19019       	78.083725      	76.3624        	78.648674      	77.80394       	78.37014       	78.626724      	79.6316        	81.44336       	80.20245       	81.16958       	82.05812       	80.48697       	80.96576       	82.15202       	82.795815      	83.25773       	82.96904       	82.32123       	82.039185      	81.53627       	79.60159       	80.579315      	78.6152        	79.78458       	81.751305      	81.10935       	80.39838       	79.60059       	80.68448       	80.27092       	80.72471       	79.63437       	80.20625       	81.41177       	81.207794      	80.11967       	80.19391       	79.58472       	80.19607       	80.58013       	80.23606       	79.40134       	79.289665      	79.809235      	80.958664      	81.25956       	80.589935      	
80.630455      	80.51596       	81.17456       	81.274155      	79.8752        	79.3313        	79.94741       	81.18794       	82.99616       	81.31901       	79.87574       	79.97937       	80.57824       	80.49317       	79.45399       	79.21617       	78.58715       	77.6592        	78.40951       	79.27214       	79.98631       	80.138565      	80.29094       	81.89986       	81.96919       	82.01219       	81.65873       	81.122505      	81.43606       	80.67123       	80.27659       	81.048515      	80.08853       	80.41576       	80.77589       	80.97069       	80.289276      	80.54372       	80.1426        	80.07495       	79.2592        	80.01199       	80.59832       	80.474754      	80.53497       	80.8834        	79.883255      	80.4527        	80.95329       	81.12009       	80.72084       	79.99173       	78.333244      	77.49139       	77.89755       	78.00015       	78.87094       	79.59965       	79.20242       	79.779274      	80.74482       	80.93184       	80.78147       	80.279015      	80.702705      	80.9207        	82.58112       	81.572845      	83.33665       	82.91346       	83.15323       	82.38878       	80.93283       	80.547325      	79.822815      	79.55108       	79.941795      	81.410416      	80.499176      	80.74864       	80.378136      	80.26437       	80.67805       	80.58763       	80.15425       	81.00733       	79.9359        	80.11323       	80.15854       	80.82853       	81.15714       	80.054         	78.47162       	79.967575      	79.53775       	79.49302       	79.38867       	80.71855       	80.99068       	80.5749        	
80.742676      	81.1167        	81.717354      	81.45282       	80.260635      	80.20967       	79.726974      	80.30419       	81.00339       	80.39294       	80.076256      	81.99111       	81.45984       	80.8062        	80.017365      	79.48532       	78.66261       	77.298706      	78.087776      	79.090935      	79.81296       	80.40486       	80.57209       	81.04386       	81.560455      	81.21078       	82.10623       	82.12655       	81.14658       	80.67051       	80.77268       	80.41941       	80.66023       	80.66696       	80.63815       	80.83397       	80.59182       	79.89975       	80.22269       	80.50481       	79.76907       	79.7971        	80.22263       	80.607864      	80.22539       	79.67034       	79.2489        	80.616554      	80.44059       	79.779434      	80.01998       	78.14729       	77.75914       	77.11856       	78.39282       	78.86448       	79.14459       	79.29736       	78.75821       	79.815994      	80.37227       	80.1475        	79.96144       	82.12816       	80.18552       	81.46548       	82.51206       	81.903076      	82.92975       	81.5399        	82.74083       	82.915924      	81.40991       	80.93647       	79.505806      	80.48643       	79.952324      	80.975525      	80.9028        	80.90671       	80.271         	80.32288       	81.33125       	80.736786      	79.46011       	80.40471       	80.72136       	80.26141       	79.62379       	82.75042       	80.98795       	79.89251       	76.84701       	79.550644      	80.18432       	79.38135       	79.06375       	80.290405      	80.944         	80.528206      	
80.72016       	81.18881       	81.62455       	81.55719       	80.48337       	80.085175      	79.69998       	80.12968       	79.50985       	79.76387       	81.095955      	82.64767       	83.166824      	80.80064       	79.8633        	79.427376      	78.979294      	77.678116      	77.18872       	79.16535       	80.102974      	80.44045       	80.65506       	81.397285      	80.44063       	80.62892       	82.291275      	82.69145       	81.13992       	80.48476       	80.67507       	80.89714       	81.29676       	80.28667       	81.06906       	80.473206      	80.09598       	80.33425       	80.39613       	80.135345      	79.9702        	80.28564       	80.27939       	80.84062       	79.32589       	79.83826       	80.615845      	79.61815       	80.639114      	79.85144       	80.158844      	78.788506      	77.65037       	77.71053       	78.023125      	80.787224      	79.354385      	78.316216      	80.28531       	78.06097       	79.25752       	79.475525      	80.23742       	81.43346       	80.27727       	81.61544       	83.14123       	82.63036       	82.41685       	80.5695        	83.45818       	82.53183       	81.82141       	79.516464      	80.005035      	78.1081        	80.129486      	81.09744       	80.7593        	81.13273       	79.852875      	80.34016       	81.41195       	80.40342       	79.462944      	80.824486      	80.709854      	81.53216       	80.12502       	81.97383       	80.112305      	79.506546      	80.78242       	79.3086        	80.57365       	79.99271       	78.88539       	79.81617       	80.34248       	80.96454       	
80.90487       	80.806885      	80.41003       	80.56895       	80.750755      	80.420364      	79.72376       	79.9931        	79.98444       	80.20899       	81.34394       	83.62093       	83.09898       	80.47831       	79.744316      	79.8405        	78.22508       	78.676506      	76.9846        	78.89439       	80.1268        	80.53666       	80.17678       	79.66225       	79.5789        	80.94732       	83.12133       	82.611115      	81.08983       	80.64721       	80.70669       	81.32621       	81.107544      	80.638336      	80.78134       	80.56549       	80.68197       	80.28631       	79.7494        	80.298164      	80.208084      	80.24003       	80.401306      	80.09449       	79.79655       	80.12839       	80.727         	80.54293       	80.255394      	79.78736       	80.72203       	78.67042       	77.95603       	78.46394       	78.870445      	77.98905       	79.85857       	79.09287       	78.90005       	79.36146       	78.35226       	79.70361       	80.22734       	80.02905       	79.468895      	83.79386       	83.41319       	82.00778       	81.95791       	82.67079       	81.97946       	81.43379       	81.02235       	80.06658       	79.90802       	79.31069       	80.792946      	81.02866       	80.25071       	80.23357       	79.781876      	80.24542       	81.55829       	80.43434       	79.64766       	80.88743       	81.24691       	81.42631       	81.60295       	81.0844        	80.48226       	79.60201       	80.25336       	80.60253       	79.61285       	80.376625      	79.68062       	79.815506      	79.873634      	80.919014      	
81.03637       	80.89058       	80.36714       	79.9075        	79.454865      	79.62377       	80.86554       	80.85292       	80.522156      	80.90785       	82.21705       	82.9599        	81.74609       	79.77663       	80.3426        	79.47791       	78.25422       	78.21628       	78.10202       	78.956276      	80.023506      	80.141396      	78.779526      	79.656006      	77.689064      	80.87849       	83.05863       	83.2215        	81.86871       	80.85976       	81.2184        	81.44561       	80.98091       	80.66432       	80.50152       	80.24265       	80.42351       	79.735825      	80.00359       	81.0441        	80.687096      	80.66246       	79.98756       	79.89012       	79.58696       	81.27854       	80.350296      	79.9392        	79.88065       	80.13091       	80.15039       	78.61398       	78.04633       	78.937195      	78.88804       	78.3743        	79.05507       	78.8218        	79.08906       	79.09102       	80.10919       	79.89259       	80.00311       	81.00778       	81.15988       	81.61278       	83.02853       	83.625465      	83.28157       	82.8047        	81.6348        	80.23188       	80.5201        	79.53873       	80.06639       	79.8048        	81.96904       	80.92447       	79.96788       	80.049904      	79.016396      	81.58261       	80.967186      	79.656876      	80.034935      	79.8528        	81.37406       	82.35022       	80.85982       	81.19504       	80.54956       	80.5136        	79.982254      	80.90146       	80.98578       	79.57153       	79.532936      	79.656906      	80.19421       	80.81105       	
80.993645      	80.92778       	80.28368       	79.151184      	79.13254       	78.84033       	80.989         	81.534966      	81.135         	81.45066       	81.607796      	81.60033       	80.74404       	80.262596      	80.04752       	79.414894      	78.85715       	78.67101       	79.24746       	78.722046      	79.78952       	80.313354      	79.37216       	78.94335       	78.35097       	79.452194      	82.8451        	82.69132       	82.563095      	81.718605      	81.154144      	81.16869       	81.227776      	80.227486      	79.88358       	80.4333        	80.712395      	80.025444      	79.76645       	81.3167        	80.89353       	81.25674       	81.36241       	78.36907       	79.19391       	80.21079       	81.2908        	80.615875      	80.33254       	80.730515      	80.05902       	78.51801       	78.18036       	78.85727       	78.68459       	77.215416      	77.99168       	79.11739       	79.20101       	79.94911       	79.93913       	79.74471       	80.31697       	81.242676      	80.223076      	82.90739       	83.830376      	83.80257       	84.00815       	82.539955      	81.0694        	80.32865       	79.830956      	79.74233       	80.20333       	80.46756       	81.194275      	80.60228       	80.00564       	80.48045       	80.53272       	80.62146       	81.54435       	79.958305      	80.16215       	79.7104        	81.02014       	81.6669        	81.69042       	80.624435      	80.99509       	81.2723        	80.88699       	80.047775      	79.881744      	79.87101       	80.02339       	79.54487       	80.78883       	79.992065      	
80.612564      	80.45399       	79.664345      	79.50369       	80.71982       	78.999954      	80.46743       	80.65577       	81.34496       	81.58546       	81.22982       	81.14934       	80.13556       	80.60604       	79.94549       	79.48139       	79.20576       	77.52783       	79.676575      	80.03597       	79.79814       	79.452835      	79.87757       	78.60011       	78.75969       	79.13652       	81.902565      	82.20164       	82.52917       	82.1647        	81.32063       	80.87066       	81.53419       	80.241455      	80.10924       	80.913025      	80.43904       	80.16246       	80.33457       	80.89266       	80.61327       	80.4453        	80.53783       	80.249         	79.99244       	79.719536      	79.99434       	80.75925       	81.079544      	80.73858       	79.46932       	79.20052       	79.61057       	77.93559       	77.838936      	77.082634      	78.144646      	78.535225      	78.47516       	79.25258       	78.59635       	79.52767       	80.72505       	80.65768       	81.29045       	83.45671       	84.62186       	84.09595       	84.47968       	81.053116      	80.92793       	80.28974       	81.04844       	78.41824       	80.31164       	80.62812       	80.72254       	79.60936       	80.889244      	81.33609       	80.69243       	80.494286      	81.1437        	80.40495       	80.13752       	77.507164      	81.14335       	80.978806      	81.65894       	80.35677       	81.26743       	82.43752       	80.58823       	80.25974       	79.83139       	80.02026       	80.00049       	80.61476       	79.75617       	79.53119       	
80.991005      	80.70825       	79.67133       	78.88094       	80.060326      	80.24848       	80.372345      	80.08781       	81.31728       	81.73375       	80.9927        	80.397736      	80.431656      	80.72517       	79.97137       	79.48456       	78.05694       	78.73695       	79.88392       	80.7275        	79.85644       	80.05479       	79.37033       	78.63207       	78.71152       	79.15036       	80.98817       	81.510345      	82.112434      	82.91258       	81.15391       	80.824974      	81.29966       	80.676765      	80.44201       	82.06605       	80.577576      	79.93652       	80.05657       	80.58384       	80.03431       	80.681656      	80.20775       	80.64396       	81.833694      	78.85398       	79.2506        	81.3091        	80.815414      	80.70745       	80.3425        	79.14258       	79.50814       	78.73233       	77.63601       	77.75934       	78.894615      	78.19124       	78.92932       	78.41308       	79.09085       	78.517044      	80.449066      	80.53838       	81.070946      	83.90788       	84.672844      	85.06846       	84.31669       	81.34755       	81.78848       	80.37427       	80.49584       	79.43273       	81.096886      	79.410545      	80.21052       	79.32566       	80.59315       	81.719505      	81.15672       	80.454796      	80.45142       	81.92505       	79.41555       	80.437126      	81.04998       	78.60774       	81.180756      	80.19223       	81.05966       	81.55425       	81.56152       	81.47088       	79.570885      	80.05099       	79.23626       	80.48451       	79.7388        	78.81489       	
80.78447       	81.23709       	80.668144      	79.348465      	79.55396       	80.32219       	79.8417        	79.77012       	80.302246      	81.37785       	81.447075      	80.7356        	80.248405      	80.922356      	79.925064      	79.53843       	78.83298       	79.48306       	79.82304       	80.14486       	80.55577       	80.49036       	80.117615      	78.06507       	77.84052       	78.94211       	79.356094      	81.145805      	82.40141       	83.073746      	81.31614       	81.48357       	81.169495      	80.37439       	81.20884       	81.802         	80.99395       	79.6679        	80.418526      	80.07023       	79.44599       	80.580986      	80.71806       	80.91135       	81.70686       	79.530075      	79.519455      	80.40011       	80.94044       	80.82786       	80.40857       	78.38015       	78.8545        	79.14454       	78.71964       	77.09638       	78.39973       	78.68521       	78.218735      	78.63165       	78.97811       	79.434044      	80.700424      	80.974625      	81.34978       	82.7684        	84.90075       	84.810165      	83.83209       	82.94607       	81.10603       	80.58161       	78.82439       	80.15544       	80.21869       	79.7846        	79.86576       	79.81695       	80.45638       	81.52267       	81.1995        	80.06656       	80.21703       	80.74725       	81.703094      	80.622086      	80.80835       	77.52832       	80.389206      	80.6968        	80.7042        	80.90468       	80.78724       	80.975105      	80.487274      	81.13834       	78.41233       	80.30965       	80.4986        	80.14295       	
80.87109       	81.825714      	81.12587       	79.58963       	78.89468       	79.430244      	79.33187       	79.48547       	80.787506      	81.447784      	81.33323       	81.36011       	80.85714       	79.67389       	80.5884        	80.049644      	79.196526      	80.22508       	79.032776      	80.02416       	80.5273        	80.6826        	80.03001       	77.96248       	77.44262       	78.23376       	78.871376      	81.07162       	82.59785       	83.317955      	81.31536       	81.28333       	81.25151       	81.17549       	81.53218       	81.611946      	80.61278       	79.81581       	79.834305      	80.190895      	79.99193       	80.51895       	80.959175      	80.59873       	80.549576      	79.90744       	79.84744       	80.19821       	80.941574      	79.452835      	80.25106       	79.97205       	79.97658       	79.50392       	79.35697       	78.814         	77.19239       	77.3852        	77.792404      	77.690834      	79.4765        	80.391174      	80.40212       	82.249916      	81.05083       	82.48207       	84.54446       	83.5987        	82.61577       	83.099945      	81.251465      	78.09183       	80.99856       	80.171074      	80.294495      	79.79307       	80.016106      	80.23583       	80.67349       	80.624374      	81.231544      	80.24505       	80.65902       	80.21345       	80.60036       	81.27442       	81.2198        	79.320915      	79.76444       	80.10008       	80.69937       	80.23129       	80.15382       	81.28233       	81.03489       	80.10809       	78.97364       	80.52327       	81.294525      	81.03559       	
80.654724      	81.481575      	82.21876       	81.00768       	78.67514       	78.520905      	79.852234      	80.20775       	80.705536      	80.85803       	81.5065        	81.39374       	80.65254       	80.743416      	80.46559       	80.38355       	78.94745       	80.13304       	79.90703       	79.49121       	80.279236      	80.336586      	79.50276       	77.88634       	77.4068        	78.49896       	79.01652       	80.574         	82.45424       	83.198135      	81.24338       	81.4642        	81.52742       	82.06418       	81.31045       	81.086395      	80.566666      	79.681946      	80.00336       	80.296646      	80.30929       	80.056274      	81.153755      	80.80666       	80.150604      	79.96187       	80.252144      	80.1332        	80.72441       	79.75773       	80.2372        	80.66154       	80.059         	80.05          	79.78781       	78.43126       	76.34312       	76.535126      	76.13676       	75.810555      	79.01678       	80.81363       	81.60691       	82.26775       	83.37518       	82.957436      	83.326614      	83.54866       	82.962234      	82.1928        	80.65151       	79.89868       	80.367455      	80.452515      	80.66208       	79.47974       	79.74748       	79.953705      	80.8405        	80.64311       	80.756195      	81.3202        	80.555         	80.52662       	80.54603       	81.155396      	81.31429       	78.772766      	79.56692       	80.373634      	80.91775       	79.63785       	80.420784      	81.102165      	80.77465       	79.62048       	79.78622       	80.87821       	81.27894       	82.109795      	
80.82525       	81.375         	81.828285      	80.45966       	78.57037       	78.754715      	80.839226      	80.94459       	81.73662       	81.1442        	80.2336        	80.9629        	81.7653        	81.674576      	80.89605       	79.93571       	79.00732       	79.97794       	81.35382       	78.755264      	79.08759       	79.784966      	79.20734       	78.0302        	77.50498       	78.656815      	79.240074      	80.400566      	82.02436       	82.27698       	81.54822       	81.73082       	81.534515      	82.12654       	81.02045       	80.841446      	80.76713       	80.19562       	80.13419       	80.03998       	79.78797       	80.8399        	80.97393       	80.382126      	79.68848       	80.56059       	78.96141       	80.507324      	79.6851        	80.4349        	80.29289       	80.61197       	79.259346      	79.94898       	80.93956       	79.16721       	76.965996      	75.29247       	76.92282       	78.412445      	78.28707       	79.73161       	82.3785        	82.23164       	82.81711       	83.65878       	83.20071       	83.113884      	82.02573       	81.17832       	80.92682       	80.24795       	80.417496      	79.92415       	80.02905       	79.81049       	79.6885        	79.70109       	81.26577       	80.95242       	81.338974      	80.70503       	79.891045      	81.10434       	80.25101       	80.94802       	80.43422       	79.87788       	80.31256       	80.00454       	81.4772        	80.10813       	80.30465       	80.48298       	80.43468       	79.47603       	80.543365      	79.936646      	81.06889       	82.14664       	
80.9474        	81.18015       	81.20541       	79.9145        	77.79996       	79.31674       	80.778725      	82.496994      	81.562515      	79.240005      	80.63773       	81.64005       	81.36173       	81.98589       	81.12699       	80.135185      	80.08557       	80.136154      	80.56499       	78.92686       	78.44031       	78.63505       	79.13938       	78.82711       	78.26167       	79.35263       	79.339645      	79.955635      	81.41822       	81.314255      	81.81425       	81.133705      	81.55576       	81.36358       	81.14733       	81.23368       	81.15794       	81.04909       	80.077065      	79.71671       	80.17271       	80.631256      	81.030045      	79.90601       	79.99367       	80.021576      	80.03397       	79.34336       	80.55143       	79.95695       	80.87413       	80.8531        	79.032715      	80.08386       	80.826805      	79.80996       	78.71315       	76.040855      	76.730675      	77.58151       	78.67106       	81.43537       	81.60088       	81.30706       	82.943504      	83.75165       	84.01194       	82.42209       	81.96722       	79.875946      	81.20737       	80.28178       	79.53159       	79.64931       	79.525986      	79.820885      	80.22802       	79.856285      	80.62933       	81.437805      	81.62656       	81.23585       	80.57553       	79.91473       	80.52842       	80.3301        	79.883095      	81.334274      	80.653404      	80.131836      	81.97012       	80.37678       	80.70789       	79.70151       	80.03177       	79.47885       	81.08201       	78.60606       	80.63773       	81.860115      	
80.92884       	81.13665       	80.9909        	79.68101       	77.69922       	78.9395        	80.848274      	82.26739       	80.60239       	80.29788       	80.38859       	81.82893       	81.38123       	81.98465       	82.08806       	81.05031       	80.60107       	80.48623       	80.20567       	79.58592       	76.77569       	78.4846        	78.79085       	78.978004      	79.22201       	79.71243       	79.7214        	79.5316        	80.63436       	80.700935      	80.86704       	81.51534       	81.39102       	80.907166      	80.81034       	81.683014      	81.29115       	81.604515      	80.128746      	79.725136      	80.79301       	80.23845       	80.457634      	80.03168       	79.884995      	80.516         	80.00097       	79.97664       	81.08447       	80.43977       	80.82584       	80.0366        	80.30568       	80.11913       	80.627686      	78.93326       	79.37969       	77.285774      	77.624504      	78.12413       	79.14369       	80.24174       	80.97604       	81.09834       	83.717354      	83.4383        	82.65224       	81.29078       	80.91132       	81.675995      	80.67491       	79.896454      	79.24114       	79.33842       	79.61183       	79.868454      	80.51413       	80.11767       	80.24574       	81.41037       	81.7251        	80.32223       	80.60085       	81.45775       	80.41541       	79.876335      	79.98939       	80.3461        	81.47833       	80.31631       	81.40669       	80.98974       	80.79146       	80.24237       	79.93879       	79.90777       	79.08173       	80.237015      	79.69894       	81.3083        	
80.71158       	81.203606      	81.222275      	79.7303        	78.2828        	78.10209       	80.11949       	81.56438       	81.21783       	79.30327       	80.629074      	81.363106      	82.26838       	82.58469       	82.660164      	81.82671       	81.283356      	80.167984      	80.08522       	79.23287       	77.79026       	78.32874       	78.974625      	79.17459       	79.61869       	78.80188       	78.44217       	79.40287       	79.909454      	79.863655      	80.278244      	81.82886       	80.976555      	80.996414      	81.23643       	81.21177       	81.13462       	81.25215       	80.79135       	80.77438       	80.81109       	79.75845       	79.99257       	80.29123       	79.74043       	80.65581       	80.9662        	79.721794      	79.248436      	80.70015       	80.912025      	81.56946       	79.79717       	80.318245      	80.806244      	80.70968       	79.33138       	77.70049       	77.93442       	78.036835      	79.107216      	79.74524       	82.86986       	82.238         	81.98878       	82.1752        	80.94667       	80.359886      	81.752815      	81.29945       	80.38702       	79.32959       	79.72711       	79.4921        	79.74208       	80.61905       	80.411026      	80.44174       	80.76341       	80.94069       	80.68274       	79.8116        	80.71028       	81.19967       	81.07284       	80.282906      	80.323814      	80.05718       	79.63081       	80.76938       	81.90916       	81.234085      	81.186806      	80.53232       	80.39974       	79.00501       	79.40432       	79.880615      	78.92303       	81.31271       	
80.83828       	81.28273       	81.547455      	80.28612       	78.75098       	78.35579       	79.28198       	81.44774       	81.21631       	79.26138       	80.66214       	82.01347       	82.23593       	82.88667       	82.74145       	82.727394      	81.21486       	80.5943        	80.415535      	79.2119        	78.76215       	77.99359       	81.026886      	79.43143       	78.7296        	79.59901       	76.73538       	78.70307       	78.968475      	79.42823       	80.56336       	80.94398       	80.66406       	80.336494      	81.386116      	81.08002       	80.38323       	81.25742       	81.60534       	81.41035       	80.79289       	80.170494      	79.72435       	79.46038       	79.509285      	80.22337       	79.602905      	79.2725        	79.07925       	81.37179       	81.076256      	80.93604       	80.816475      	78.66539       	80.169655      	80.369156      	80.27359       	79.16356       	78.836365      	80.409874      	76.93747       	80.374985      	83.21724       	82.265305      	81.48618       	79.91239       	79.7785        	81.58505       	80.85667       	81.40004       	80.01181       	78.84754       	80.00469       	81.166405      	80.42803       	80.44412       	80.78677       	80.601295      	80.95833       	80.27077       	79.57589       	79.47651       	80.17974       	80.33801       	80.83244       	81.2248        	80.975525      	79.7436        	79.67589       	80.18193       	80.539246      	81.575745      	81.66305       	81.22405       	80.85326       	79.25619       	79.38313       	79.60882       	79.328705      	80.66076       	
80.860214      	81.479576      	81.722855      	80.195114      	78.71057       	78.322         	79.78659       	81.33126       	81.53007       	79.1665        	81.04299       	82.050705      	82.39741       	82.47266       	82.70513       	82.049355      	81.264015      	81.57357       	80.322426      	80.34584       	79.71574       	79.06488       	79.19427       	79.279         	79.47717       	79.60608       	77.51908       	80.151505      	78.18428       	79.1029        	79.74351       	80.493866      	80.55453       	81.08494       	80.83798       	80.61036       	80.31301       	81.28935       	81.70173       	81.52444       	81.32331       	80.514656      	79.47492       	79.696266      	79.52941       	80.96174       	78.737206      	78.60042       	80.038765      	81.03732       	80.233955      	81.09681       	80.61637       	78.67839       	80.41745       	80.78652       	81.125145      	80.64904       	79.395096      	79.28616       	78.9134        	80.692375      	81.2554        	82.559         	80.47928       	81.391396      	76.657234      	81.055046      	81.137146      	80.90675       	80.02201       	79.36536       	80.21828       	81.34746       	80.73191       	81.045166      	80.90297       	80.939606      	80.34208       	80.501625      	79.93967       	78.99242       	79.525696      	79.92149       	80.93513       	80.83747       	80.741455      	80.74624       	80.135315      	80.047485      	80.259895      	80.74723       	81.88448       	81.70502       	81.32758       	79.90127       	79.49259       	78.96114       	79.47741       	80.50206       	
80.932785      	81.623344      	81.25398       	80.34395       	79.62707       	78.881195      	80.12409       	81.14608       	81.67036       	79.58606       	80.36179       	81.91441       	82.80848       	82.29423       	81.92751       	81.69156       	81.66903       	81.95644       	81.836815      	79.297554      	79.87427       	79.85873       	79.795395      	79.262         	78.24794       	77.59533       	76.991875      	78.912415      	79.22258       	78.55849       	79.68951       	80.59958       	80.57465       	80.77667       	80.07236       	80.22374       	80.52487       	81.10181       	81.16253       	81.492035      	80.85363       	80.58655       	79.856186      	80.069565      	79.98759       	80.924164      	80.27788       	79.012474      	79.373566      	80.13588       	80.810005      	80.31929       	80.41343       	80.13563       	78.92312       	81.37664       	79.46346       	81.441765      	81.22879       	79.75198       	81.22322       	80.13335       	81.207245      	80.86507       	80.62192       	79.366035      	77.93155       	81.03214       	80.637566      	81.12393       	80.394325      	78.5576        	80.26215       	81.389145      	81.37284       	81.19209       	80.71597       	80.813995      	80.84601       	80.48599       	79.96356       	79.54454       	79.62728       	79.3819        	80.30063       	80.35491       	80.17642       	79.8209        	81.22354       	81.07832       	80.56916       	80.00387       	81.13376       	81.26661       	81.5594        	80.98449       	79.22953       	78.862465      	79.33786       	80.42969       	
80.649605      	81.52702       	81.66882       	80.64467       	79.74679       	79.46974       	80.534904      	81.47612       	81.27793       	79.552574      	80.31452       	81.68406       	82.710686      	82.22538       	81.638176      	81.56822       	81.16455       	81.877594      	81.40512       	80.96039       	79.235535      	80.03945       	78.83984       	79.39109       	79.665955      	79.91956       	79.434105      	77.77387       	79.36057       	78.86921       	79.24564       	79.966934      	80.5082        	80.24656       	79.79536       	79.57341       	80.287155      	80.536964      	81.51872       	80.98561       	80.682816      	80.73853       	80.38928       	80.30911       	80.5237        	79.95452       	79.52923       	80.47517       	77.6515        	80.59492       	80.98395       	79.97609       	80.50432       	79.630714      	79.204         	80.715485      	80.286095      	80.82975       	80.53057       	81.4783        	80.40155       	81.39938       	80.39538       	80.747086      	80.44385       	79.97732       	79.759514      	80.01174       	80.685684      	80.67172       	81.214615      	80.10197       	79.12861       	80.842415      	81.50445       	81.561386      	81.269394      	80.00055       	80.55649       	80.50335       	80.770515      	80.3238        	79.64118       	80.10311       	80.21805       	79.97631       	79.137535      	80.206924      	80.96829       	81.78291       	80.15036       	79.38606       	80.3607        	81.87236       	81.50168       	81.42098       	79.12584       	78.68249       	79.52441       	79.228455      	
80.80346       	81.432945      	82.0263        	81.50683       	79.737724      	79.13526       	80.63694       	81.99915       	81.23214       	79.46013       	80.20811       	81.81204       	82.42327       	81.8514        	81.144455      	80.83162       	83.428535      	81.74859       	80.03999       	79.851295      	80.919106      	79.38179       	79.29458       	79.64502       	79.19892       	79.39137       	80.02807       	79.961365      	79.419945      	79.8007        	78.81334       	79.70909       	79.33371       	78.6674        	79.395676      	79.4079        	80.07584       	80.785545      	80.880455      	81.43151       	80.61706       	80.40176       	80.70143       	81.210754      	80.56051       	79.95274       	80.80033       	78.94739       	80.49882       	80.64406       	80.61858       	81.02451       	80.03652       	78.99156       	79.44922       	81.06065       	81.147545      	79.14989       	81.17907       	81.06976       	80.71414       	80.433304      	80.51374       	80.48065       	80.76136       	80.35405       	80.27024       	79.92045       	80.23711       	80.1849        	80.28358       	80.8489        	80.1059        	80.94774       	81.40486       	81.53168       	80.95682       	80.20692       	79.84362       	81.21676       	80.59942       	80.92168       	79.76026       	81.16176       	80.3266        	80.13893       	79.84296       	80.14191       	80.15979       	81.534615      	79.40897       	78.91276       	80.166016      	81.73703       	81.80567       	81.23856       	79.70377       	78.73498       	79.332794      	79.125565      	
80.89891       	80.98763       	81.56946       	82.17034       	80.62983       	79.13464       	81.04433       	81.77223       	80.739426      	79.24663       	80.097855      	81.28385       	81.94982       	81.31538       	80.46344       	80.854         	81.70486       	82.29684       	80.27651       	78.92941       	80.03285       	79.31206       	79.5136        	79.05839       	78.57302       	79.970535      	79.244576      	79.00815       	79.73013       	77.71928       	81.415565      	79.89555       	79.12145       	78.660126      	78.4693        	79.972855      	80.47112       	80.704346      	81.03325       	80.91032       	80.74283       	80.52803       	80.16165       	80.641884      	81.33301       	80.114075      	80.02412       	80.41251       	81.07335       	81.4629        	80.43989       	81.28831       	79.73791       	78.77906       	79.71412       	80.401535      	79.13732       	80.388626      	80.02442       	81.294754      	80.81025       	80.290886      	80.21935       	79.5636        	80.30842       	81.00933       	80.94801       	79.921005      	80.003136      	79.946144      	80.837845      	79.89713       	79.931496      	81.44544       	81.31989       	81.030525      	80.515144      	80.458824      	80.64124       	80.99478       	80.0422        	80.71866       	80.8542        	81.14886       	81.17547       	79.81651       	80.61046       	80.76119       	80.254036      	80.095985      	78.73308       	79.05379       	80.44233       	80.83854       	81.13948       	82.339645      	80.5753        	77.713806      	79.01171       	78.967674      	
80.93356       	81.07725       	81.70087       	82.106636      	80.90008       	80.02901       	80.862816      	80.94566       	80.62368       	79.26006       	79.79148       	80.72536       	81.33156       	79.29891       	80.36319       	80.23447       	81.0744        	81.75754       	80.91331       	79.72433       	79.15038       	77.55469       	80.87359       	78.63952       	78.83541       	78.936         	79.659485      	78.731636      	79.616234      	79.50093       	82.77545       	80.92424       	80.27854       	79.33609       	78.6526        	79.93731       	80.85697       	80.74874       	81.0372        	80.63466       	81.36167       	80.387         	79.731865      	80.31662       	80.88569       	80.41184       	80.54329       	80.28959       	80.70889       	80.854416      	81.301895      	80.88589       	80.543915      	80.700935      	79.772156      	79.634674      	80.01982       	80.37719       	80.32539       	80.78786       	80.85649       	78.76411       	79.395355      	79.95522       	81.44102       	81.73724       	80.96108       	80.17826       	80.30218       	79.862656      	80.95679       	80.162186      	79.714096      	80.95089       	80.9848        	80.84049       	80.210335      	81.061         	81.058495      	81.09893       	79.41301       	80.67715       	81.64877       	80.85139       	81.35901       	80.5514        	80.07394       	80.64564       	80.38232       	80.33918       	79.28338       	79.8598        	80.240906      	81.11824       	80.54352       	81.338264      	81.65612       	78.54992       	77.9709        	79.10335       	
80.95378       	81.489944      	81.85297       	82.99156       	81.80261       	80.10494       	80.74762       	79.4103        	80.5015        	80.4383        	78.843544      	79.561325      	80.263115      	80.636856      	78.42007       	80.07188       	81.03942       	80.90163       	80.116745      	80.07217       	78.3937        	78.8633        	80.549484      	80.59355       	79.97759       	78.71707       	79.25693       	79.51182       	79.53384       	81.03075       	81.99402       	82.104675      	81.44266       	80.04037       	79.65575       	79.81372       	80.14651       	80.44145       	80.49027       	80.97505       	81.26384       	79.881546      	80.04755       	80.91313       	80.05378       	80.54903       	80.435135      	80.7012        	79.75528       	81.42316       	81.37704       	80.89748       	81.11522       	80.317314      	80.12547       	79.771164      	80.65413       	80.69407       	81.271034      	80.74982       	79.65946       	78.82544       	79.56674       	79.56586       	81.40852       	81.01374       	80.73093       	80.56317       	80.29844       	81.15042       	80.60175       	80.14558       	79.444275      	79.89674       	80.96634       	81.17669       	80.46965       	81.02525       	80.9718        	80.87913       	80.34987       	79.77742       	81.13859       	81.14378       	81.32658       	81.1166        	80.89124       	80.41178       	80.60268       	79.68163       	80.468956      	81.13701       	80.48786       	80.16482       	80.36095       	81.6425        	81.29721       	79.56108       	77.488174      	79.298065      	
80.99837       	81.739815      	83.065216      	82.72407       	81.52163       	80.10909       	79.17876       	80.07927       	79.807076      	81.11617       	78.61791       	79.50653       	79.75425       	79.5889        	78.51213       	79.16826       	81.32713       	80.65167       	79.49695       	78.652275      	79.10867       	79.396835      	80.688095      	81.42257       	80.854095      	80.42486       	79.03767       	79.043236      	80.07441       	81.08503       	81.94313       	82.304726      	82.35999       	80.06403       	80.12386       	80.5612        	79.19502       	79.60671       	79.57781       	80.88023       	81.52068       	79.99795       	80.79408       	80.683685      	80.7118        	80.15642       	80.296005      	79.71417       	80.44803       	81.15709       	80.804474      	80.80095       	81.192116      	80.9433        	79.45289       	79.70122       	80.749         	81.59749       	81.266945      	80.64318       	79.59505       	79.18226       	79.430176      	80.12212       	80.60568       	80.944374      	80.52864       	80.50785       	80.64189       	81.05593       	80.725426      	80.17227       	79.71477       	79.8268        	80.69328       	81.005585      	80.28804       	80.84202       	81.23871       	80.89374       	80.303604      	79.860405      	80.570595      	81.608444      	81.124374      	81.57226       	81.416626      	80.0448        	79.78219       	82.82121       	81.43545       	80.91805       	80.33504       	80.46221       	79.09082       	80.2687        	81.35175       	80.64256       	79.076614      	79.55204       	
81.08696       	81.534294      	82.20043       	82.40364       	80.70307       	78.16067       	78.68397       	79.39407       	80.40057       	81.09213       	79.51819       	79.57279       	79.50676       	79.2989        	78.9532        	78.81465       	80.874214      	80.84556       	78.436424      	78.16261       	79.230545      	79.529755      	80.94188       	82.14286       	82.16376       	82.536964      	79.49717       	78.53011       	80.34671       	81.71924       	80.46066       	81.83304       	81.464905      	80.86761       	80.59604       	81.46072       	78.988144      	78.64041       	79.47938       	80.4924        	80.903534      	80.93          	80.73658       	80.95609       	81.15211       	80.35662       	79.92916       	79.30508       	80.57235       	80.6838        	80.747894      	80.72092       	81.027756      	81.024414      	79.896965      	80.06554       	80.86559       	81.50335       	80.94943       	81.067726      	79.71824       	79.1939        	79.30887       	79.92439       	80.35651       	81.184555      	80.56666       	81.0536        	81.26076       	80.65267       	80.49118       	80.154655      	80.31208       	79.65667       	80.21989       	80.71427       	80.407524      	80.683136      	80.91727       	81.29122       	80.838615      	80.01806       	80.32638       	80.836334      	80.97879       	81.05402       	81.07732       	78.9791        	80.31216       	82.169624      	83.11987       	81.71537       	80.65735       	79.98575       	77.80877       	79.90762       	81.404564      	82.22447       	80.749695      	79.587654      	
81.087975      	81.33154       	81.34946       	80.0237        	78.58761       	77.81158       	78.44975       	80.2217        	81.209755      	80.985115      	80.349556      	79.16          	79.48822       	79.879906      	78.98485       	79.054306      	80.034164      	79.78869       	78.924774      	77.4823        	79.941574      	79.870735      	81.256714      	82.265         	82.20134       	83.976135      	79.09908       	79.61032       	80.71123       	81.03529       	80.59809       	81.18335       	80.33533       	81.605965      	81.24582       	82.12518       	79.64035       	78.629776      	78.82137       	79.55753       	80.20058       	80.58371       	81.39398       	81.213806      	80.69272       	80.51817       	80.60372       	79.878586      	79.92445       	80.3091        	80.60259       	80.858         	80.73116       	80.56981       	80.5553        	80.56663       	81.186516      	80.82212       	80.28245       	80.72183       	80.43669       	78.33704       	79.15847       	79.92303       	80.16583       	80.833595      	80.892265      	81.474884      	81.35773       	80.82875       	80.9556        	80.68702       	79.973465      	79.164375      	79.87693       	80.42354       	80.864624      	80.76116       	81.30189       	81.20312       	81.0308        	80.01214       	79.56608       	80.08513       	79.94973       	80.684044      	80.59575       	79.614075      	80.62893       	82.47689       	82.269714      	80.553444      	79.87933       	80.326805      	79.68851       	80.227875      	81.47512       	81.563614      	81.791664      	79.83597       	
80.61898       	80.6838        	81.138145      	80.4161        	78.772         	77.678444      	78.94497       	79.92529       	81.97969       	81.07696       	80.18998       	79.733154      	79.5295        	79.253456      	78.91596       	78.610275      	79.45355       	79.90496       	79.31786       	77.559235      	80.28246       	81.54266       	81.25741       	81.892075      	82.66505       	82.43381       	80.12201       	80.58259       	80.99183       	80.54632       	80.64482       	80.64003       	80.79021       	80.82318       	80.3675        	82.47866       	82.37572       	78.50513       	78.472496      	78.94607       	79.688156      	80.32404       	81.216255      	80.51176       	79.88406       	79.67693       	80.678696      	81.74642       	81.12732       	80.18253       	80.63918       	80.59185       	80.535736      	80.24831       	79.95937       	80.84336       	80.72208       	80.495346      	80.45543       	80.80062       	80.61613       	80.57982       	79.29023       	79.96518       	80.43903       	80.013054      	81.27171       	81.07714       	81.3349        	81.40469       	80.97126       	80.77747       	79.96683       	79.135635      	78.984375      	80.74795       	80.285126      	81.10225       	81.40149       	81.279655      	80.83943       	79.88516       	79.04053       	80.07407       	80.53597       	80.25866       	80.138214      	80.5996        	81.3386        	81.56884       	80.7811        	80.42318       	80.68623       	80.92934       	80.76815       	80.738625      	81.288506      	81.18114       	81.334114      	79.46993       	
80.70143       	81.08118       	80.709984      	80.338974      	78.84552       	77.62707       	78.577095      	80.25483       	80.9689        	81.18007       	79.803825      	79.27821       	79.438736      	78.81489       	78.24419       	79.09113       	79.64856       	79.931915      	80.206825      	79.36925       	80.80949       	81.5687        	81.40896       	82.10622       	81.46563       	81.70827       	80.96076       	80.57985       	81.08045       	80.89953       	80.903755      	80.61823       	80.449585      	79.87204       	80.72787       	81.092064      	81.0071        	81.273         	79.62845       	79.60295       	79.32935       	80.31952       	80.66338       	79.27899       	79.371284      	79.97369       	80.97498       	82.01575       	80.97016       	81.77609       	80.48377       	80.35418       	80.25926       	79.58483       	80.00094       	81.090904      	80.39004       	80.35248       	80.02479       	81.29436       	80.26887       	80.34297       	80.67265       	80.029         	79.72766       	80.021614      	81.110435      	81.640366      	81.69486       	80.937294      	81.104355      	80.9757        	79.695755      	79.579605      	78.69298       	80.48938       	80.528145      	80.36459       	81.33716       	81.81392       	80.55028       	80.31048       	79.19909       	80.1921        	80.30327       	79.440994      	81.274605      	81.15434       	81.35191       	80.40552       	80.33405       	80.451836      	81.23988       	80.43727       	81.21613       	81.06203       	80.5218        	80.42514       	80.0365        	79.90483       	
80.774605      	80.53066       	80.088585      	79.291016      	78.72449       	77.93925       	80.00433       	80.03099       	80.67507       	79.93426       	79.29735       	79.07916       	78.88702       	79.24956       	78.77198       	79.609886      	79.498886      	80.70841       	81.363045      	80.80893       	80.701035      	81.359665      	81.4016        	82.21512       	81.1282        	80.480804      	80.48505       	80.69104       	80.991035      	81.164856      	81.35098       	80.42115       	79.593925      	80.28653       	80.55705       	80.849495      	81.14416       	81.31236       	80.67036       	79.44232       	79.59011       	80.58041       	80.27771       	80.01726       	78.79385       	80.02261       	80.73237       	81.460106      	80.19758       	80.607574      	81.54589       	80.40721       	80.17065       	79.94826       	80.19953       	80.76994       	80.81704       	79.88435       	80.3666        	80.79087       	80.280975      	80.24265       	80.92374       	81.11732       	79.763115      	79.52421       	80.7308        	81.33964       	81.971275      	80.12392       	81.24541       	81.409424      	79.95977       	79.34303       	79.34781       	80.3406        	80.704475      	80.13331       	80.74644       	81.22579       	81.161804      	79.48372       	80.42627       	82.268654      	79.37285       	78.47718       	80.75469       	81.46191       	81.634895      	80.54106       	80.033676      	80.40576       	80.94884       	80.46783       	80.80873       	81.205956      	80.26155       	78.36137       	80.075516      	81.183655      	
80.79159       	79.842636      	77.867455      	78.50463       	79.59572       	79.03672       	80.00609       	79.97536       	79.63983       	79.36055       	79.04867       	79.63958       	79.66706       	78.661514      	79.71641       	80.189514      	80.25551       	81.90116       	81.82691       	81.002945      	81.105415      	81.33432       	81.85111       	81.03889       	80.12167       	80.132545      	80.5531        	81.18211       	80.80749       	81.47019       	80.566666      	79.779785      	79.82401       	80.73264       	80.06886       	81.02408       	81.207664      	80.16882       	80.37089       	80.67576       	80.46938       	80.92321       	80.31121       	80.36266       	79.68683       	79.69824       	80.24052       	80.57709       	80.636406      	80.94669       	80.76491       	80.08027       	80.054535      	80.363106      	80.79266       	81.17812       	80.03577       	80.11653       	80.73693       	80.82335       	80.42415       	79.11452       	80.72419       	81.5193        	80.47527       	79.48185       	80.16439       	81.051506      	81.432         	80.5228        	81.2318        	81.579796      	80.07183       	79.350494      	79.89973       	80.95827       	80.11838       	80.385056      	80.38903       	80.6187        	79.97111       	80.604706      	80.604576      	81.91336       	78.73203       	79.92553       	80.956         	81.151115      	80.87752       	82.13575       	79.11014       	80.15163       	80.60464       	79.52992       	81.066124      	81.26115       	79.3842        	79.44819       	79.88541       	80.63687       	
80.76336       	77.406334      	74.70312       	77.7567        	81.92416       	79.22583       	80.1702        	79.28933       	79.48845       	79.26213       	79.37632       	79.86889       	80.109924      	79.82408       	81.32653       	79.448814      	81.431206      	82.58349       	81.48381       	80.74482       	81.11994       	81.16624       	80.82853       	80.78955       	80.23406       	80.514465      	80.71631       	81.17904       	80.86306       	80.924965      	79.27034       	79.5074        	80.292206      	80.38954       	80.697395      	81.427635      	81.09691       	79.81122       	80.55901       	80.935486      	80.715775      	81.098076      	81.26755       	80.76386       	78.27179       	79.95889       	80.95674       	80.23594       	80.8963        	81.23049       	80.024025      	79.48429       	80.01728       	80.35672       	80.784485      	80.25687       	80.879654      	80.72233       	80.945625      	81.89211       	79.23151       	79.19272       	79.892365      	81.157814      	81.5209        	79.60283       	79.56412       	80.62057       	81.17436       	80.8534        	81.47455       	81.04318       	80.39025       	79.952705      	79.94959       	80.98498       	82.384315      	80.090706      	79.21228       	80.22745       	79.37574       	80.508125      	80.76534       	79.987785      	80.452354      	80.79821       	81.14825       	80.04887       	80.55804       	81.076355      	80.83974       	80.142296      	79.31993       	80.510254      	80.58106       	80.43468       	80.00451       	79.95757       	80.20249       	80.191216      	
80.46314       	77.93429       	75.19606       	77.47353       	81.139114      	77.612785      	78.574585      	79.70982       	79.9433        	79.92717       	80.139656      	80.335915      	80.995964      	79.99497       	81.14666       	81.97663       	81.843056      	81.57209       	80.89726       	80.276054      	80.39652       	80.37334       	80.90273       	81.20564       	80.66871       	80.42977       	81.514786      	80.82988       	81.136925      	77.66021       	79.500114      	79.533134      	80.38786       	80.73183       	80.81361       	81.208534      	80.510796      	80.35917       	80.50735       	80.99088       	80.53216       	81.88149       	82.19866       	78.7098        	79.62629       	80.508385      	80.89451       	80.305405      	81.05833       	81.511734      	78.697876      	79.753685      	80.22268       	80.898224      	80.19867       	80.30137       	80.37226       	81.049065      	80.44806       	80.78185       	80.23537       	80.12815       	79.22234       	80.49376       	81.87523       	79.48265       	79.41604       	80.7345        	80.9562        	80.44712       	80.85853       	80.90153       	80.70161       	80.76256       	81.11398       	81.733795      	81.31896       	79.92478       	78.91591       	80.37079       	79.26606       	80.0919        	80.52194       	79.92301       	80.48102       	81.62564       	80.58934       	80.05872       	80.40039       	81.2216        	80.87455       	79.8282        	79.976395      	80.213936      	80.239685      	80.29527       	79.92058       	80.25866       	79.95441       	80.10688       	
80.3103        	78.2452        	76.231804      	78.06656       	78.99307       	79.511955      	79.54627       	80.42775       	79.93043       	80.96093       	80.259346      	81.40493       	82.119064      	81.76729       	81.00951       	80.98391       	81.22143       	81.01719       	80.34391       	80.168816      	79.684074      	80.26722       	81.2095        	81.46292       	81.01221       	80.27663       	81.26073       	81.04531       	80.01          	78.961         	79.64623       	79.72623       	80.44228       	81.054855      	80.97405       	80.99148       	80.32677       	80.631744      	80.74379       	80.66653       	81.052025      	81.44318       	81.34649       	79.49743       	79.96389       	80.693634      	80.153595      	80.58592       	81.05835       	81.58247       	79.785645      	79.554085      	80.7252        	80.230225      	80.64025       	80.3752        	80.5664        	80.13355       	80.1659        	80.66865       	80.62196       	80.10607       	79.131325      	79.73684       	80.870636      	81.09503       	80.160736      	81.024254      	80.73291       	80.51265       	80.56547       	80.90262       	80.40323       	80.99662       	81.2067        	81.06763       	79.24106       	81.28094       	80.02401       	80.173355      	79.58011       	79.74158       	80.23465       	79.744835      	81.54773       	81.752235      	80.49976       	80.21439       	79.744576      	80.832375      	81.07989       	80.42337       	80.02695       	79.89426       	80.2744        	80.655174      	79.631         	79.36155       	80.01496       	80.76097       	
80.45511       	78.57584       	77.759445      	78.045715      	79.047585      	80.36438       	81.14412       	81.177864      	81.12611       	80.08131       	80.97591       	82.56448       	82.83034       	81.453064      	80.308914      	80.38663       	80.53826       	80.72369       	79.91801       	79.644905      	79.635956      	81.12345       	81.41032       	81.19481       	81.003         	79.977646      	80.69524       	80.655205      	79.71693       	79.34815       	79.62377       	80.37814       	81.02915       	80.957436      	80.55848       	80.642555      	80.90157       	80.3865        	80.58144       	80.59847       	81.14087       	80.90938       	81.057526      	80.78689       	79.97974       	80.22797       	79.70301       	80.975655      	81.4112        	80.06926       	79.907         	80.42483       	80.665504      	80.59437       	80.65344       	80.05239       	80.38033       	80.34287       	80.217094      	81.08149       	80.51193       	80.01106       	76.85375       	78.94538       	80.94538       	80.72214       	80.41038       	81.4987        	81.31729       	80.8435        	80.191475      	80.64917       	80.45854       	80.40224       	80.784966      	79.47143       	80.9204        	81.257034      	79.82699       	79.557274      	79.79165       	79.92675       	80.0801        	80.23675       	81.88693       	81.9458        	80.46615       	79.93219       	80.06013       	80.61011       	80.802704      	79.96236       	80.262726      	80.856384      	80.71247       	80.05975       	79.02267       	79.59192       	80.582275      	81.22802       	
80.97105       	79.16399       	77.55611       	79.68826       	80.27888       	81.487434      	79.830696      	81.920074      	80.70013       	81.13846       	81.62675       	82.00486       	82.425674      	81.461716      	80.351265      	79.85512       	79.903         	80.0284        	80.1371        	79.90531       	80.3049        	81.28277       	81.00231       	80.58842       	80.377655      	80.432434      	80.33426       	80.15131       	79.71859       	79.65111       	80.48727       	80.94704       	81.23446       	80.59552       	80.8397        	80.035934      	80.85485       	80.048134      	80.53174       	80.56199       	80.68232       	81.47471       	81.35893       	80.857445      	80.18586       	79.759346      	79.70677       	80.495605      	81.22682       	80.563385      	80.20172       	80.40696       	80.43805       	80.97583       	80.560196      	78.69043       	79.79906       	80.768394      	81.49871       	81.08309       	81.19382       	80.03981       	77.73084       	79.82631       	81.12938       	80.23936       	80.28797       	81.217285      	81.26371       	80.324265      	79.77213       	80.51798       	79.78108       	79.98548       	80.0359        	80.85687       	81.17785       	80.60128       	79.50037       	80.22725       	80.01972       	80.082756      	80.23648       	80.760185      	81.80076       	81.458176      	80.28969       	80.25669       	80.09748       	80.30464       	80.201385      	80.6361        	80.22338       	81.3607        	80.49537       	80.264694      	78.88497       	79.57065       	81.0611        	81.532646      	
80.67296       	79.488914      	78.99952       	81.01815       	81.382965      	79.54662       	80.07391       	81.6933        	81.2525        	81.574585      	81.69464       	81.409874      	81.385994      	81.137794      	80.221756      	78.9866        	79.77703       	80.52673       	80.69634       	80.55159       	80.65512       	81.01267       	80.49821       	80.21197       	80.04714       	79.90194       	80.106606      	79.78473       	80.34927       	80.67501       	80.6571        	80.98027       	80.71414       	80.367256      	80.92905       	80.49831       	80.66934       	79.83964       	79.91345       	80.4756        	81.11821       	81.33076       	81.34927       	80.32538       	80.075935      	79.98036       	79.816086      	80.300156      	80.49384       	81.05281       	80.796936      	80.695114      	79.931465      	81.1222        	79.069016      	79.313065      	80.68581       	80.986565      	81.652466      	81.70551       	80.069756      	80.169685      	80.743034      	80.85335       	80.46897       	80.81688       	80.67627       	80.53188       	80.9842        	77.61545       	78.637825      	80.72671       	80.615295      	80.16601       	81.17538       	80.96732       	81.04517       	79.604324      	79.69245       	80.6505        	79.61504       	80.739586      	81.20741       	81.55615       	80.98943       	80.636856      	80.446556      	80.53403       	80.4197        	80.26582       	79.93613       	80.1714        	80.69635       	81.6617        	80.21904       	79.50785       	79.13253       	80.35068       	80.98434       	80.704124      	
81.200455      	80.34171       	80.02715       	81.609375      	82.09431       	81.918915      	81.5546        	81.86373       	81.58258       	81.06685       	80.56502       	80.64882       	81.2109        	80.26648       	79.18349       	79.695404      	79.7012        	80.55635       	81.55558       	81.265854      	80.99867       	80.76198       	80.91301       	79.410805      	79.6575        	79.47961       	79.67489       	80.43          	80.99495       	81.13714       	81.27416       	80.31235       	80.4753        	80.14618       	81.36851       	81.16156       	79.74175       	80.59303       	79.39852       	80.01985       	80.88658       	80.73802       	80.9034        	80.29993       	80.06506       	79.77945       	80.19374       	79.98471       	80.93531       	81.52433       	80.259796      	79.97178       	80.921036      	79.99327       	80.281746      	80.2535        	81.18736       	81.59976       	80.76454       	80.639084      	80.43256       	80.0756        	80.67268       	81.60781       	81.09254       	80.82121       	81.5413        	79.11578       	79.47059       	77.63017       	79.39294       	81.05119       	80.3272        	80.46017       	81.32098       	81.873566      	79.72419       	79.239174      	80.162384      	80.41048       	80.03903       	81.07588       	81.396545      	81.4708        	80.40171       	80.091156      	80.89464       	80.865234      	79.81058       	80.22073       	79.612114      	80.6709        	81.166         	81.12307       	80.19688       	79.15955       	79.89749       	81.153046      	80.83791       	80.44879       	
80.94686       	80.60908       	80.651695      	81.97834       	82.31799       	82.212654      	81.73306       	80.33882       	80.33659       	80.89938       	80.755905      	81.34379       	80.46398       	79.15605       	79.33755       	79.4789        	80.5344        	80.59972       	81.164856      	81.64921       	80.957436      	80.34291       	80.6406        	79.44093       	79.27637       	79.81554       	79.85988       	80.76455       	81.46036       	81.821396      	81.24276       	79.87238       	80.30331       	80.802925      	80.58975       	80.23883       	79.97363       	80.43961       	80.806015      	79.63921       	79.82614       	80.12662       	80.84679       	80.05693       	80.14781       	80.124344      	80.30228       	80.46422       	80.908745      	81.21848       	79.91628       	80.737404      	81.1367        	80.756065      	80.88054       	80.6415        	81.1428        	80.59654       	79.864235      	80.539185      	80.84817       	80.59737       	81.01605       	81.6411        	80.73192       	80.21353       	80.31205       	79.532486      	78.95429       	78.53373       	80.15516       	81.13104       	79.866554      	80.51236       	81.203705      	81.041824      	79.56041       	80.507         	80.2002        	80.087555      	80.61326       	81.33273       	81.296         	80.58215       	80.0495        	80.620674      	80.99286       	80.89865       	79.547806      	79.57386       	80.69621       	81.256454      	80.89775       	80.68815       	79.61653       	79.620674      	80.634224      	81.06993       	80.24977       	79.90881       	
81.174484      	81.092545      	80.92725       	81.40741       	81.955986      	82.098076      	80.1773        	79.64495       	80.43285       	81.18605       	80.97758       	80.887276      	80.044174      	79.19043       	79.22235       	80.14477       	80.44135       	80.688065      	81.06073       	81.22141       	80.47086       	80.18818       	80.53511       	80.21668       	79.15949       	79.48519       	80.31054       	81.25305       	81.13752       	81.49365       	81.00412       	80.65824       	80.679474      	80.37672       	79.92818       	79.028725      	79.76468       	81.438156      	81.615555      	80.21648       	79.58765       	79.91443       	80.308556      	79.822235      	79.52104       	80.58491       	80.56088       	80.55737       	81.11549       	81.036835      	80.55495       	80.85499       	81.4759        	81.75984       	80.9448        	79.81166       	79.76664       	80.299416      	80.48425       	80.573715      	81.059166      	81.338196      	80.86967       	80.77209       	79.960495      	79.54381       	79.039764      	80.0168        	80.532196      	80.80173       	80.042404      	81.27106       	78.94902       	80.24558       	80.84768       	80.71598       	80.41099       	80.533325      	80.73765       	79.7776        	80.639946      	81.91901       	80.659096      	80.89576       	79.84897       	79.99751       	80.99867       	80.59273       	79.415855      	80.42328       	81.43888       	81.08587       	80.474075      	80.18525       	79.84576       	79.98285       	80.66783       	80.74269       	80.08285       	80.45693       	
80.99579       	81.305984      	81.75414       	81.48889       	81.095856      	80.486046      	79.96905       	79.849144      	81.12086       	80.10648       	81.02985       	80.3555        	79.83831       	79.54483       	79.59278       	80.38321       	80.58599       	80.66058       	80.99372       	80.58122       	79.93832       	80.35586       	81.079445      	80.54367       	79.37013       	79.49766       	80.34674       	80.93465       	80.89287       	81.0847        	81.136086      	81.16303       	77.51693       	79.73341       	79.11939       	80.571655      	81.08747       	81.45331       	81.54071       	80.48924       	79.9112        	79.270195      	79.08375       	79.46806       	80.53503       	81.07476       	80.32098       	80.951614      	81.10257       	81.665504      	81.469635      	81.20664       	81.99217       	80.53926       	79.41439       	79.23567       	79.55961       	80.3148        	81.193695      	81.20505       	81.74864       	80.76963       	80.51206       	79.918594      	79.63939       	78.79875       	80.261345      	80.92672       	81.0251        	80.56007       	80.20204       	80.03262       	80.018776      	80.38895       	80.533806      	80.24913       	80.993225      	81.145325      	79.5423        	79.97711       	80.65919       	81.14836       	81.42023       	80.89024       	80.38268       	79.85435       	80.71204       	80.62711       	79.616615      	80.57957       	81.30762       	80.85832       	80.28935       	80.44797       	80.16494       	80.14451       	80.34599       	80.2601        	80.39961       	80.65261       	
80.89818       	81.487755      	81.84011       	81.05501       	80.05915       	79.54235       	80.0116        	80.248886      	80.28729       	80.02108       	81.11522       	81.56868       	80.138405      	78.91135       	79.486855      	80.799995      	80.96998       	80.308846      	81.03918       	80.390495      	79.97616       	80.436676      	81.17267       	80.15067       	79.69882       	79.73585       	80.192726      	80.923         	80.90225       	81.39922       	81.03636       	79.79538       	78.178894      	79.05182       	79.8466        	81.01023       	81.66941       	81.5699        	80.61078       	80.63669       	79.00436       	79.50836       	79.60556       	80.17174       	80.86206       	81.48737       	80.79567       	80.75492       	80.981384      	81.91673       	81.87665       	81.824         	79.80611       	79.415344      	79.55595       	79.31006       	80.64875       	80.487946      	80.97381       	81.61273       	81.31046       	79.901596      	79.81633       	79.71611       	78.60491       	80.39118       	81.4942        	81.94356       	80.516304      	80.21237       	78.77001       	80.20471       	80.76487       	81.48663       	79.960884      	79.96021       	80.666         	80.53729       	79.7982        	80.30829       	80.7403        	81.20137       	81.071365      	80.530174      	81.506195      	80.22847       	80.273094      	79.75294       	80.17747       	81.07945       	80.903305      	80.72301       	81.692215      	79.29582       	79.86756       	80.31192       	80.19683       	80.42943       	80.29956       	80.65038       	
81.03462       	81.30453       	81.50992       	80.36376       	78.83675       	79.66448       	79.86629       	80.00878       	80.199         	80.066765      	81.51157       	81.44268       	80.03707       	79.15648       	80.04152       	80.81321       	81.49679       	80.85308       	80.358604      	80.59197       	80.19957       	80.72125       	80.39436       	80.59614       	79.80716       	79.76543       	79.95111       	80.87378       	80.796486      	81.09509       	80.58936       	79.89815       	78.914856      	79.71764       	80.46965       	81.03959       	81.56461       	80.91674       	80.07905       	79.69631       	80.02892       	80.04741       	80.20818       	80.28843       	81.09735       	81.95896       	81.1128        	80.63671       	81.51953       	81.47057       	81.24238       	80.47613       	78.84675       	79.205315      	80.5767        	80.00461       	81.084145      	81.24985       	80.249954      	80.964745      	80.61491       	78.96731       	79.64338       	79.391495      	80.6303        	81.394226      	81.7935        	81.6769        	80.855934      	79.27016       	78.857735      	80.44943       	81.57423       	81.673874      	79.42593       	80.20453       	80.50668       	78.86503       	79.77868       	81.2083        	81.45647       	81.18205       	80.65346       	81.18221       	81.14535       	80.051895      	80.19345       	79.74682       	79.95423       	80.5853        	80.95254       	80.93887       	81.28917       	79.713486      	80.15552       	80.129974      	80.353355      	80.19862       	80.67778       	81.0966        	
80.96075       	81.37982       	81.093376      	79.592224      	78.7153        	79.41422       	79.85378       	80.00996       	80.213425      	80.47807       	81.03306       	81.30755       	79.44101       	80.05847       	79.786064      	80.85664       	81.738235      	81.72851       	79.796         	80.078766      	80.453995      	80.63336       	81.02154       	81.11186       	79.34791       	79.456085      	79.647316      	80.82248       	80.65477       	80.091255      	80.82258       	80.372734      	79.63738       	80.32563       	80.67539       	80.56297       	80.3552        	80.338196      	80.65738       	80.54032       	80.77866       	80.4535        	80.50436       	80.026855      	81.32396       	82.96929       	80.46354       	80.884926      	81.24421       	80.69479       	80.03162       	79.52745       	78.74576       	79.58424       	80.48367       	81.63342       	81.69142       	80.60556       	80.35669       	79.56365       	79.4169        	79.519424      	79.448715      	80.39063       	80.688194      	81.522896      	82.35027       	81.142426      	80.04362       	79.48283       	79.5362        	80.77417       	81.003525      	80.657845      	80.37993       	80.56589       	79.917465      	78.63955       	80.53912       	81.361465      	81.752075      	80.642654      	80.460266      	80.64223       	80.26103       	80.9819        	79.769264      	79.68322       	80.43299       	80.707756      	80.81056       	81.24802       	80.05114       	79.32238       	80.41599       	80.03573       	80.64251       	80.60545       	80.55991       	80.30874       	
80.93923       	80.75038       	80.47161       	79.43714       	79.15072       	79.88166       	79.82422       	80.74001       	80.80991       	80.68117       	80.402855      	79.595795      	80.24734       	80.345245      	80.31134       	81.14493       	81.53157       	81.17257       	80.1466        	80.42003       	80.24883       	81.04439       	80.990585      	80.259285      	79.76185       	79.66196       	80.19214       	80.30005       	79.67542       	80.40648       	81.181595      	80.59811       	80.88401       	80.25166       	80.34268       	80.39905       	80.08413       	80.19867       	80.85665       	81.63448       	80.75655       	81.19274       	80.87327       	80.2023        	81.2227        	81.90608       	80.10862       	80.53266       	80.316086      	79.69243       	79.860855      	79.26688       	79.28001       	80.289474      	81.218285      	81.42381       	81.208015      	80.01333       	80.393364      	79.25182       	79.469345      	79.4241        	80.21512       	80.135216      	81.46325       	82.02097       	81.82504       	80.69481       	80.17814       	79.041466      	80.02084       	79.83195       	81.00797       	81.220764      	80.76661       	80.37365       	79.78702       	78.92674       	81.05433       	81.92802       	80.88873       	79.98868       	79.89128       	80.034195      	81.22927       	80.64991       	79.313896      	80.06508       	81.23733       	81.19913       	80.692245      	80.28199       	80.711876      	79.180374      	79.97403       	80.649475      	81.338455      	81.08366       	80.565796      	79.49462       	
80.62919       	79.89046       	79.360535      	79.56774       	79.780975      	79.829575      	80.82958       	80.97865       	80.918335      	79.66966       	79.8145        	79.994286      	80.73185       	80.50759       	81.38516       	80.85843       	80.78265       	80.74215       	80.69196       	80.54242       	80.834724      	80.58562       	80.2303        	79.59602       	79.88362       	80.36519       	80.435524      	79.71764       	79.1367        	81.60373       	81.462204      	81.15129       	80.21328       	79.96116       	80.17745       	80.81131       	80.333855      	80.71437       	81.31106       	81.2011        	80.85007       	81.82894       	81.455444      	80.2025        	80.35572       	80.02338       	80.33001       	79.97728       	79.92745       	79.47675       	79.28126       	79.83688       	80.276085      	81.304985      	81.48182       	80.64826       	80.83804       	80.540726      	80.25647       	78.916         	79.869545      	80.002945      	80.09807       	80.161575      	81.67347       	81.88344       	81.17253       	80.05114       	79.16108       	79.32723       	80.6643        	80.75139       	81.37531       	81.9477        	80.686386      	80.49334       	78.80359       	79.48121       	81.6102        	81.60954       	79.82581       	79.29183       	79.29897       	80.31519       	81.23376       	80.963295      	79.82041       	81.08599       	81.200035      	80.97856       	80.21585       	80.06686       	80.1062        	79.67516       	79.918205      	81.18379       	81.4142        	80.877525      	79.793076      	80.16452       	
80.5494        	79.61144       	79.3974        	80.09583       	80.95591       	79.728         	80.725204      	80.90928       	79.96988       	79.87303       	80.68468       	80.67244       	80.823715      	81.01733       	80.66225       	80.21578       	80.46607       	81.130806      	80.690414      	80.619095      	80.138565      	80.01465       	79.93844       	80.01027       	80.38099       	80.3244        	80.04614       	80.34852       	80.35743       	81.79822       	81.112656      	80.68138       	79.85669       	79.98542       	80.571465      	80.92005       	81.0037        	80.80373       	81.95192       	81.16687       	81.05597       	81.398674      	80.27467       	80.084625      	79.389694      	79.76015       	80.49768       	80.50151       	79.00838       	79.18118       	79.542274      	80.10142       	81.40329       	81.86118       	81.2442        	80.61931       	81.124504      	80.54188       	80.13226       	78.93988       	80.108086      	79.81878       	80.38217       	80.65773       	81.8945        	81.30277       	77.757996      	79.3928        	79.301155      	80.041534      	80.59448       	81.36658       	81.919         	81.78478       	80.08904       	80.44207       	79.55359       	79.67905       	81.364655      	80.27361       	79.88312       	79.416306      	79.555435      	80.14347       	80.90597       	80.71183       	81.02904       	81.214455      	80.34129       	80.68219       	80.45886       	79.290855      	80.37338       	79.67937       	80.7647        	81.31545       	81.22757       	80.42517       	79.12475       	80.33408       	
80.68454       	80.45894       	80.29872       	80.82809       	81.61938       	80.68206       	79.465805      	79.47152       	80.253265      	80.68092       	81.30428       	80.644295      	81.3153        	80.90866       	79.40262       	80.034996      	80.7619        	80.88793       	80.359955      	79.8142        	80.25604       	80.36593       	79.886314      	80.52696       	80.88401       	79.76631       	80.77668       	80.70543       	80.68355       	80.63258       	80.70361       	80.08434       	80.51302       	80.916435      	81.708694      	81.26569       	81.41518       	80.19718       	80.675125      	80.880615      	81.87587       	80.59675       	78.85665       	79.40355       	79.815155      	80.78501       	80.24017       	79.66012       	79.43039       	78.76454       	80.30331       	81.49232       	81.66141       	81.46414       	80.89982       	80.563835      	81.28891       	80.34318       	80.472786      	79.11383       	80.04023       	79.35288       	80.67123       	81.2382        	81.52599       	80.30636       	78.86216       	78.99084       	79.94945       	80.69618       	81.0311        	81.525475      	82.132225      	80.24818       	79.48484       	80.940094      	81.49142       	80.52198       	79.979706      	80.12302       	80.385735      	79.919464      	79.57164       	79.724075      	80.68817       	81.75347       	81.169395      	80.318085      	80.31764       	80.46483       	80.41235       	78.98815       	79.761116      	80.65131       	81.56673       	81.150444      	80.125435      	79.69613       	79.872116      	80.34689       	
80.73792       	80.51214       	80.76823       	81.05884       	81.206856      	80.918564      	78.918884      	80.10579       	80.2153        	81.15328       	81.426605      	81.31495       	80.15058       	79.28287       	79.67464       	80.36219       	80.64751       	80.72488       	79.3381        	79.89968       	80.604225      	80.94772       	80.55775       	80.32205       	80.40548       	77.77614       	81.27306       	80.88638       	80.56611       	79.90789       	81.010925      	80.90189       	80.6949        	81.633095      	82.1094        	81.54093       	80.51997       	80.3266        	79.58017       	81.28198       	80.64324       	80.26286       	78.61861       	78.97169       	80.55954       	81.4619        	80.211205      	78.65417       	78.5909        	80.006905      	81.266975      	82.754105      	82.089676      	79.53084       	80.64368       	80.93128       	81.20708       	79.987305      	80.277336      	80.051544      	79.88989       	79.7073        	81.027306      	81.4245        	81.11813       	80.17442       	79.18873       	79.08301       	80.37045       	80.54856       	81.366455      	81.35088       	80.8564        	79.95388       	79.66183       	81.06118       	81.32833       	80.363655      	80.10767       	79.63403       	80.490585      	79.813446      	79.403534      	80.148         	81.31743       	82.08986       	80.74401       	80.006676      	80.43716       	80.28442       	79.399536      	79.52651       	80.52593       	81.43633       	81.483955      	80.59037       	79.70719       	79.74394       	80.14043       	80.56409       	
