# www.neaspec.com
# Scan:	 	AFM
# Project:	 	20251007_PS
# Description:	 	
# Date:	 	10/07/2025 14:36:28
# Scanner Center Position (X, Y):	[µm]	49.66	48.17	 
# Rotation:	[°]	0	 	 
# Scan Area (X, Y, Z):	[µm]	5.000	5.000	0.000
# Pixel Area (X, Y, Z):	[px]	100	100	1
# Averaging:	 	1	 	 
# Integration time:	[ms]	5	 	 
# Laser Source:	 	4.5-15 µm nano-FTIR laser
# Detector:	 	R
# Target Wavelength:	[µm]	10.000	 	 
# Demodulation Mode:	 	Fourier
# Tip Frequency:	[Hz]	241,340.500	 	 
# Tip Amplitude:	[mV]	45.700	 	 
# Tapping Amplitude:	[nm]	74.418	 	 
# Modulation Frequency:	[Hz]	0.000	 	 
# Modulation Amplitude:	[mV]	0.000	 	 
# Modulation Offset:	[mV]	0.000	 	 
# Setpoint:	[%]	79.75	 	 
# Regulator (P, I, D):	 	4.206850	8.625812	1.000000
# Tip Potential:	[mV]	0.000	 	 
# M1A Scaling:	[nm/V]	0.426	 	 
# M1A Cantilever Factor:	 	1,000	 	 
# Q-Factor:	 	487.4	 	 
# Version:	 	2.1.11536.0
1224.1844      	1224.1986      	1224.4908      	1224.7849      	1224.587       	1224.3911      	1224.2426      	1224.1246      	1224.1249      	1224.0978      	1224.1501      	1224.116       	1224.1665      	1224.1079      	1224.1099      	1224.0911      	1224.0839      	1224.1333      	1224.1062      	1224.0276      	1224.0123      	1224.0028      	1224.0536      	1223.9688      	1224.2668      	1224.1199      	1224.1395      	1224.158       	1224.107       	1224.1298      	1224.1002      	1224.122       	1224.0786      	1224.101       	1224.085       	1224.1105      	1224.1023      	1224.1257      	1224.0819      	1224.0714      	1223.8572      	1223.8124      	1223.448       	1224.0157      	1224.1428      	1224.124       	1224.0948      	1224.0764      	1224.1008      	1224.0978      	1224.0507      	1224.1194      	1224.1299      	1224.12        	1224.0903      	1224.1757      	1224.1204      	1224.0886      	1224.1345      	1224.1598      	1224.1122      	1224.0967      	1224.1174      	1224.1284      	1224.0781      	1224.0879      	1224.3762      	1224.3223      	1224.2882      	1224.2196      	1224.1941      	1224.1248      	1224.1166      	1224.0605      	1224.1201      	1224.147       	1224.1146      	1224.1753      	1224.1096      	1224.1206      	1224.1543      	1224.1406      	1224.1326      	1224.1265      	1224.1263      	1224.1608      	1224.1521      	1224.154       	1224.1771      	1224.131       	1224.1573      	1224.218       	1224.173       	1224.1809      	1224.1558      	1224.2429      	1224.2135      	1224.2103      	1224.1774      	1224.2739      	
1224.1652      	1224.2184      	1224.4159      	1224.6954      	1224.4966      	1224.4266      	1224.2792      	1224.1632      	1224.1531      	1224.1589      	1224.2085      	1224.1556      	1224.1704      	1224.1476      	1224.1787      	1224.1376      	1224.136       	1224.1683      	1224.1733      	1224.1609      	1224.1328      	1224.149       	1224.198       	1224.1045      	1224.1628      	1224.2346      	1224.2064      	1224.2227      	1224.2242      	1224.196       	1224.2501      	1224.2852      	1224.2131      	1224.2599      	1224.219       	1224.2006      	1224.2002      	1224.1823      	1224.2523      	1224.1439      	1224.0253      	1223.9907      	1223.5784      	1223.8384      	1224.339       	1224.1328      	1224.2592      	1224.2198      	1224.1602      	1224.1758      	1224.1794      	1224.19        	1224.219       	1224.2391      	1224.1948      	1224.2345      	1224.1995      	1224.2317      	1224.191       	1224.2568      	1224.1543      	1224.2461      	1224.2456      	1224.2175      	1224.2107      	1224.2096      	1224.5217      	1224.4904      	1224.4094      	1224.4349      	1224.3456      	1224.2671      	1224.3273      	1224.2695      	1224.3489      	1224.3171      	1224.2725      	1224.3572      	1224.3401      	1224.3114      	1224.3689      	1224.3097      	1224.3419      	1224.3685      	1224.3638      	1224.3586      	1224.3469      	1224.343       	1224.4263      	1224.3956      	1224.3849      	1224.4016      	1224.4624      	1224.4016      	1224.4169      	1224.4391      	1224.4764      	1224.4128      	1224.478       	1224.4578      	
1224.4841      	1224.4835      	1224.6066      	1224.9819      	1224.8755      	1224.7344      	1224.5969      	1224.4741      	1224.4252      	1224.4744      	1224.4514      	1224.4636      	1224.4315      	1224.4495      	1224.4652      	1224.5022      	1224.4489      	1224.3987      	1224.5171      	1224.4133      	1224.5358      	1224.4628      	1224.5144      	1224.4296      	1224.494       	1224.5347      	1224.4309      	1224.5114      	1224.5137      	1224.5181      	1224.4883      	1224.4998      	1224.4952      	1224.5304      	1224.4727      	1224.5614      	1224.5022      	1224.5542      	1224.533       	1224.4185      	1224.3002      	1224.2657      	1223.9692      	1224.0697      	1224.6583      	1224.5421      	1224.4845      	1224.5016      	1224.4943      	1224.4651      	1224.5342      	1224.4794      	1224.4902      	1224.5032      	1224.5183      	1224.539       	1224.4886      	1224.5352      	1224.5115      	1224.4557      	1224.4946      	1224.5411      	1224.4897      	1224.481       	1224.529       	1224.5233      	1224.7576      	1224.7922      	1224.7065      	1224.7206      	1224.66        	1224.5679      	1224.5215      	1224.5587      	1224.5729      	1224.5637      	1224.6057      	1224.6509      	1224.6072      	1224.5945      	1224.656       	1224.6193      	1224.5994      	1224.6163      	1224.6411      	1224.6538      	1224.6039      	1224.6588      	1224.6495      	1224.6818      	1224.6487      	1224.6478      	1224.6572      	1224.6686      	1224.6731      	1224.6998      	1224.6819      	1224.7031      	1224.7325      	1224.7301      	
1224.4418      	1224.4191      	1224.5343      	1224.8806      	1224.8585      	1224.6687      	1224.5671      	1224.4618      	1224.3722      	1224.3772      	1224.3944      	1224.3615      	1224.3766      	1224.3796      	1224.3931      	1224.3224      	1224.4001      	1224.3514      	1224.3962      	1224.3481      	1224.4021      	1224.3807      	1224.4045      	1224.4054      	1224.3464      	1224.3868      	1224.3975      	1224.3577      	1224.4004      	1224.3868      	1224.4071      	1224.3804      	1224.3647      	1224.3866      	1224.3097      	1224.2694      	1224.2694      	1224.3334      	1224.369       	1224.3552      	1224.219       	1224.1868      	1223.8645      	1224.0497      	1224.2261      	1224.4667      	1224.446       	1224.3358      	1224.4292      	1224.4121      	1224.3835      	1224.4147      	1224.352       	1224.4252      	1224.3911      	1224.4006      	1224.4093      	1224.4128      	1224.3945      	1224.3837      	1224.3632      	1224.4695      	1224.3937      	1224.4065      	1224.399       	1224.3601      	1224.5046      	1224.7476      	1224.5891      	1224.5952      	1224.5499      	1224.4545      	1224.4519      	1224.41        	1224.3927      	1224.4478      	1224.4579      	1224.4485      	1224.4878      	1224.4777      	1224.4698      	1224.4817      	1224.481       	1224.4626      	1224.5195      	1224.4872      	1224.4792      	1224.4342      	1224.5002      	1224.498       	1224.4777      	1224.5095      	1224.5028      	1224.4935      	1224.5435      	1224.4891      	1224.4972      	1224.5272      	1224.4918      	1224.5306      	
1224.2933      	1224.2556      	1224.3837      	1224.7892      	1224.6567      	1224.536       	1224.4573      	1224.2849      	1224.2261      	1224.2094      	1224.2268      	1224.2915      	1224.3152      	1224.271       	1224.2542      	1224.283       	1224.279       	1224.233       	1224.2963      	1224.2465      	1224.3314      	1224.257       	1224.2701      	1224.2661      	1224.303       	1224.2604      	1224.2528      	1224.2761      	1224.2621      	1224.2439      	1224.2655      	1224.2762      	1224.2163      	1224.2151      	1224.2461      	1224.24        	1224.2456      	1224.2214      	1224.2698      	1224.3116      	1224.1228      	1224.048       	1223.8783      	1223.8904      	1224.1282      	1224.3986      	1224.2827      	1224.3212      	1224.2694      	1224.2616      	1224.3159      	1224.2742      	1224.2493      	1224.2365      	1224.2874      	1224.264       	1224.313       	1224.2931      	1224.296       	1224.2455      	1224.3918      	1224.2982      	1224.2803      	1224.279       	1224.3542      	1224.2681      	1224.34        	1224.6074      	1224.508       	1224.4385      	1224.5001      	1224.3606      	1224.3055      	1224.2568      	1224.2833      	1224.2987      	1224.308       	1224.3187      	1224.3204      	1224.3505      	1224.3003      	1224.3639      	1224.3429      	1224.3279      	1224.3671      	1224.379       	1224.3143      	1224.3594      	1224.3214      	1224.3641      	1224.3828      	1224.3848      	1224.3795      	1224.4025      	1224.3772      	1224.3615      	1224.4216      	1224.3903      	1224.3577      	1224.3589      	
1223.99        	1223.9336      	1223.886       	1224.173       	1224.4572      	1224.205       	1224.1542      	1224.0372      	1223.9119      	1223.8552      	1223.9622      	1223.9375      	1223.9515      	1224.0066      	1223.9492      	1223.9209      	1223.884       	1224.0032      	1223.8792      	1223.9061      	1223.9216      	1223.949       	1223.9794      	1223.8816      	1223.8724      	1223.9757      	1223.916       	1223.9604      	1223.9087      	1223.8907      	1223.848       	1224.0264      	1223.8635      	1223.905       	1223.8708      	1223.9038      	1223.9192      	1223.9636      	1223.9838      	1223.903       	1223.9138      	1223.6794      	1223.5248      	1223.5116      	1223.5696      	1223.9894      	1223.8442      	1223.9238      	1223.8647      	1223.9012      	1223.8761      	1223.9093      	1223.9393      	1223.8888      	1223.9553      	1223.854       	1223.8983      	1223.9042      	1223.9172      	1223.8346      	1223.8591      	1223.9373      	1223.8972      	1223.8009      	1223.7937      	1223.8948      	1223.8308      	1224.0933      	1224.103       	1224.0458      	1224.0741      	1223.9607      	1223.9084      	1223.8748      	1223.9424      	1223.8169      	1223.9227      	1223.8917      	1223.9276      	1223.9258      	1223.9143      	1223.9862      	1223.9003      	1224.0015      	1223.9493      	1223.9178      	1224.0186      	1223.9001      	1223.9464      	1223.9319      	1224.0437      	1223.9839      	1224.0365      	1223.9581      	1224.0532      	1224.0503      	1224.0458      	1224.0188      	1224.0286      	1223.9926      	
1223.8441      	1223.8204      	1223.7626      	1223.9175      	1224.3055      	1224.113       	1224.0392      	1223.9696      	1223.8251      	1223.7587      	1223.8384      	1223.8654      	1223.8171      	1223.8013      	1223.8376      	1223.7915      	1223.8214      	1223.8972      	1223.8019      	1223.8611      	1223.8975      	1223.8352      	1223.8462      	1223.8335      	1223.8765      	1223.8972      	1223.8186      	1223.9161      	1223.7355      	1223.9453      	1223.8647      	1223.8932      	1223.8427      	1223.8273      	1223.8319      	1223.8021      	1223.8944      	1223.8169      	1223.8761      	1223.8632      	1223.903       	1223.6838      	1223.615       	1223.3541      	1223.3254      	1224.0548      	1223.8464      	1223.8975      	1223.8317      	1223.8833      	1223.8258      	1223.8722      	1223.8809      	1223.7548      	1223.981       	1223.8451      	1223.8734      	1223.945       	1223.9222      	1223.8927      	1223.7845      	1223.9833      	1223.8915      	1223.8657      	1223.8997      	1223.9136      	1223.8322      	1224.1401      	1224.173       	1224.0828      	1224.1083      	1224.056       	1223.9491      	1223.9857      	1223.97        	1223.9462      	1224.0176      	1223.9683      	1224.014       	1223.9683      	1224.104       	1224.077       	1224.0283      	1223.9642      	1224.0065      	1224.0497      	1224.0775      	1224.062       	1224.0198      	1223.9874      	1224.0212      	1224.0929      	1224.0604      	1223.9944      	1224.1707      	1224.1082      	1224.1233      	1224.0372      	1224.0784      	1224.0742      	
1223.9662      	1223.9537      	1223.913       	1224.0458      	1224.3966      	1224.2104      	1224.197       	1224.0953      	1223.9622      	1223.7947      	1224.013       	1223.9427      	1223.9286      	1223.9237      	1223.9124      	1223.9949      	1223.9806      	1223.95        	1223.9524      	1223.9822      	1223.9508      	1223.9673      	1223.9337      	1224.06        	1224.0146      	1223.9803      	1223.947       	1224.0209      	1223.9553      	1224.0292      	1223.9849      	1224.0364      	1223.8962      	1224.0503      	1223.9104      	1224.0377      	1223.9926      	1224.0405      	1223.9233      	1223.9562      	1224.0317      	1223.8655      	1223.7339      	1223.6196      	1223.428       	1224.0759      	1224.1183      	1223.9928      	1224.0201      	1223.9702      	1223.9668      	1224.1005      	1224.0018      	1224.0204      	1224.0493      	1224.0067      	1224.1106      	1224.1521      	1224.0332      	1224.029       	1224.101       	1223.9304      	1224.2396      	1224.0233      	1224.0422      	1224.0894      	1224.1189      	1224.3152      	1224.3839      	1224.2769      	1224.2842      	1224.1835      	1224.1876      	1224.1606      	1224.1499      	1224.1323      	1224.1099      	1224.2316      	1224.1707      	1224.1976      	1224.1853      	1224.218       	1224.2273      	1224.1925      	1224.1511      	1224.201       	1224.2312      	1224.1489      	1224.2092      	1224.2203      	1224.2179      	1224.2162      	1224.2019      	1224.1565      	1224.2062      	1224.2349      	1224.2122      	1224.1825      	1224.1362      	1224.1064      	
1224.0555      	1224.0562      	1224.0554      	1224.0835      	1224.426       	1224.3651      	1224.2817      	1224.1941      	1224.1049      	1223.9827      	1224.0592      	1224.078       	1224.078       	1224.0214      	1224.058       	1224.0477      	1224.0688      	1224.0383      	1224.0071      	1224.0398      	1224.0206      	1224.0695      	1224.0505      	1224.13        	1224.0138      	1224.0857      	1224.084       	1224.1066      	1224.0873      	1224.1296      	1224.0581      	1224.1282      	1224.1238      	1224.0824      	1224.1047      	1224.1434      	1224.1122      	1224.1401      	1224.0839      	1224.1975      	1224.0953      	1224.0399      	1223.8855      	1223.6963      	1223.7369      	1223.8577      	1224.2493      	1224.0972      	1224.0815      	1224.0608      	1224.1454      	1224.1353      	1224.1124      	1224.0994      	1224.121       	1224.0884      	1224.0917      	1224.1821      	1224.0714      	1224.1626      	1224.1434      	1224.1302      	1224.1355      	1224.1183      	1224.0872      	1224.1582      	1224.0698      	1224.1437      	1224.4108      	1224.2806      	1224.2805      	1224.2852      	1224.2012      	1224.1296      	1224.1044      	1224.1384      	1224.1896      	1224.1559      	1224.1359      	1224.2736      	1224.1428      	1224.1615      	1224.2258      	1224.1068      	1224.2242      	1224.2358      	1224.1936      	1224.1542      	1224.1886      	1224.1534      	1224.1642      	1224.1979      	1224.2316      	1224.2167      	1224.1819      	1224.1589      	1224.2402      	1224.254       	1224.2417      	1224.1202      	
1224.0164      	1224.0461      	1224.0433      	1224.0431      	1224.5459      	1224.38        	1224.2908      	1224.279       	1224.1428      	1224.0496      	1224.0625      	1223.9684      	1224.0743      	1224.0857      	1224.0251      	1224.1257      	1224.101       	1224.165       	1224.0669      	1224.0966      	1224.1296      	1224.1127      	1224.0839      	1224.1135      	1224.0867      	1224.1471      	1224.0874      	1224.1296      	1224.0836      	1224.1102      	1224.1428      	1224.0701      	1224.1147      	1224.1125      	1224.1223      	1224.1255      	1224.0923      	1224.1013      	1224.0857      	1224.1184      	1224.1146      	1224.1484      	1223.9073      	1223.827       	1223.6451      	1223.6945      	1224.2773      	1224.1718      	1224.1644      	1224.0754      	1224.1421      	1224.1058      	1224.0543      	1224.1333      	1224.0969      	1224.1426      	1224.1124      	1224.1482      	1224.1077      	1224.1262      	1224.1046      	1224.0732      	1224.1627      	1224.147       	1224.13        	1224.1528      	1224.0852      	1224.1763      	1224.5522      	1224.3651      	1224.3384      	1224.3534      	1224.276       	1224.211       	1224.2626      	1224.1835      	1224.175       	1224.2686      	1224.2053      	1224.1597      	1224.2268      	1224.3147      	1224.2318      	1224.2026      	1224.2229      	1224.2227      	1224.1742      	1224.2455      	1224.1174      	1224.311       	1224.2812      	1224.2192      	1224.1998      	1224.2063      	1224.1445      	1224.1381      	1224.1824      	1224.1956      	1224.2722      	1224.2123      	
1223.9503      	1224.0099      	1224.0065      	1223.9723      	1224.2605      	1224.3966      	1224.2363      	1224.1881      	1224.0853      	1223.9988      	1223.9979      	1224.0453      	1224.007       	1224.0171      	1224.0125      	1223.966       	1224.0824      	1224.0311      	1223.9922      	1224.0659      	1224.0302      	1224.0184      	1224.0067      	1224.0747      	1224.053       	1223.9799      	1224.0685      	1224.0564      	1224.0436      	1224.079       	1224.0879      	1224.0294      	1224.0142      	1224.0428      	1224.0204      	1223.9705      	1224.0632      	1224.0162      	1224.0702      	1224.039       	1223.9783      	1224.1057      	1223.8817      	1223.8226      	1223.4708      	1223.5312      	1224.2172      	1224.0912      	1224.0126      	1224.0665      	1224.0707      	1224.0559      	1224.077       	1223.9861      	1224.0984      	1224.113       	1223.9816      	1224.0776      	1224.078       	1224.0768      	1224.032       	1224.0671      	1224.133       	1224.1229      	1224.0555      	1224.0797      	1224.119       	1224.0823      	1224.3284      	1224.3567      	1224.2773      	1224.3087      	1224.2754      	1224.1846      	1224.227       	1224.1298      	1224.1896      	1224.1632      	1224.1938      	1224.1936      	1224.1555      	1224.2019      	1224.1653      	1224.1208      	1224.0402      	1224.2892      	1224.1017      	1224.0664      	1224.2219      	1224.1401      	1224.1804      	1224.0897      	1224.2058      	1224.0842      	1224.2155      	1224.1456      	1224.0978      	1224.1957      	1224.2422      	1224.0039      	
1224.0337      	1224.0115      	1223.9663      	1223.9908      	1224.1935      	1224.3618      	1224.1444      	1224.187       	1224.1616      	1224.0225      	1224.0042      	1224.0503      	1223.9861      	1224.0497      	1224.0674      	1224.011       	1224.0278      	1224.0437      	1224.0402      	1224.0549      	1224.1245      	1224.0553      	1224.0942      	1224.1355      	1224.0369      	1224.0708      	1224.1241      	1224.0417      	1224.0364      	1224.0614      	1224.03        	1223.9719      	1224.0697      	1224.0302      	1224.0269      	1224.0486      	1224.0427      	1224.0157      	1224.0769      	1223.9506      	1224.0002      	1224.1118      	1223.8772      	1223.8218      	1223.5249      	1223.6913      	1223.984       	1224.0966      	1224.0151      	1224.033       	1223.9567      	1224.0481      	1224.0105      	1224.0082      	1224.0193      	1224.0198      	1224.063       	1224.0675      	1224.0485      	1224.051       	1224.1064      	1224.0647      	1224.0897      	1224.1171      	1224.0688      	1224.0498      	1224.1288      	1224.1106      	1224.3208      	1224.4161      	1224.3129      	1224.3191      	1224.3306      	1224.2367      	1224.2352      	1224.2382      	1224.2104      	1224.166       	1224.2286      	1224.0791      	1224.1941      	1224.0852      	1224.2247      	1224.2186      	1224.0287      	1224.2596      	1224.2448      	1224.0608      	1224.0825      	1224.1848      	1224.1864      	1224.2418      	1224.034       	1224.1844      	1224.1569      	1224.1362      	1224.2004      	1224.249       	1224.3137      	1224.2944      	
1224.1222      	1224.0591      	1224.0052      	1224.0334      	1224.1171      	1224.4734      	1224.3273      	1224.311       	1224.2692      	1224.201       	1224.124       	1224.0209      	1224.2051      	1224.1614      	1224.0728      	1224.1564      	1224.0925      	1224.2029      	1224.124       	1224.1696      	1224.1917      	1224.1506      	1224.1938      	1224.1893      	1224.1284      	1224.2113      	1224.1825      	1224.1318      	1224.1766      	1224.118       	1224.2112      	1224.2009      	1224.1213      	1224.1934      	1224.1969      	1224.1298      	1224.1415      	1224.1743      	1224.1956      	1224.1729      	1224.1794      	1224.23        	1224.0883      	1223.9911      	1223.8174      	1223.8129      	1223.9503      	1224.3182      	1224.1857      	1224.2358      	1224.2294      	1224.2277      	1224.1549      	1224.16        	1224.1897      	1224.1895      	1224.2383      	1224.2179      	1224.2336      	1224.2006      	1224.1881      	1224.2339      	1224.3033      	1224.2585      	1224.276       	1224.2023      	1224.3162      	1224.2551      	1224.3901      	1224.6106      	1224.5022      	1224.457       	1224.4077      	1224.4088      	1224.3907      	1224.4073      	1224.2391      	1224.3196      	1224.4431      	1224.4895      	1224.2585      	1224.4144      	1224.2882      	1224.2883      	1224.3938      	1224.3511      	1224.3044      	1224.4355      	1224.3088      	1224.3419      	1224.3203      	1224.3473      	1224.1959      	1224.4999      	1224.5145      	1224.4332      	1224.4165      	1224.4167      	1224.4415      	1224.4232      	
1224.3429      	1224.3169      	1224.2838      	1224.2228      	1224.261       	1224.6886      	1224.5911      	1224.5056      	1224.5541      	1224.4171      	1224.2931      	1224.2393      	1224.4813      	1224.3071      	1224.3419      	1224.3723      	1224.3683      	1224.3373      	1224.3555      	1224.3674      	1224.3267      	1224.3413      	1224.4385      	1224.3406      	1224.4006      	1224.4337      	1224.2742      	1224.3612      	1224.4098      	1224.3624      	1224.3588      	1224.4331      	1224.4014      	1224.4443      	1224.3641      	1224.4397      	1224.3854      	1224.4237      	1224.3643      	1224.4539      	1224.4172      	1224.4543      	1224.3651      	1224.296       	1224.1593      	1223.9677      	1224.0505      	1224.5022      	1224.4364      	1224.4103      	1224.3987      	1224.3806      	1224.3904      	1224.3846      	1224.3845      	1224.3689      	1224.3937      	1224.3314      	1224.3074      	1224.4235      	1224.3511      	1224.3931      	1224.3759      	1224.3817      	1224.3503      	1224.302       	1224.3914      	1224.3683      	1224.4478      	1224.4751      	1224.5555      	1224.5126      	1224.5259      	1224.4668      	1224.5884      	1224.4862      	1224.3342      	1224.2736      	1224.6245      	1224.4507      	1224.4236      	1224.2847      	1224.3239      	1224.361       	1224.4323      	1224.3433      	1224.3396      	1224.49        	1224.37        	1224.6274      	1224.5078      	1224.5055      	1224.5105      	1224.4764      	1224.537       	1224.4745      	1224.51        	1224.463       	1224.5171      	1224.4668      	
1224.4083      	1224.4133      	1224.3265      	1224.3488      	1224.5326      	1224.7563      	1224.7128      	1224.6189      	1224.5366      	1224.4641      	1224.4181      	1224.2739      	1224.1669      	1224.5109      	1224.4514      	1224.357       	1224.461       	1224.4133      	1224.3944      	1224.4092      	1224.4391      	1224.4076      	1224.4072      	1224.3821      	1224.4661      	1224.4557      	1224.4165      	1224.4609      	1224.4224      	1224.385       	1224.384       	1224.3694      	1224.4298      	1224.4374      	1224.4015      	1224.4094      	1224.3918      	1224.447       	1224.424       	1224.4226      	1224.4233      	1224.4368      	1224.4073      	1224.235       	1224.134       	1223.931       	1223.858       	1224.5581      	1224.4626      	1224.3538      	1224.3428      	1224.4336      	1224.4122      	1224.3921      	1224.386       	1224.3905      	1224.3868      	1224.3982      	1224.3433      	1224.3938      	1224.3691      	1224.42        	1224.4447      	1224.3867      	1224.38        	1224.4128      	1224.4161      	1224.4138      	1224.4575      	1224.3496      	1224.4783      	1224.7102      	1224.5911      	1224.4597      	1224.4941      	1224.6206      	1224.303       	1224.3201      	1224.3577      	1224.2178      	1224.6104      	1224.2915      	1224.1963      	1224.3301      	1224.4734      	1224.4811      	1224.5195      	1224.4333      	1224.4855      	1224.4404      	1224.4968      	1224.5195      	1224.4653      	1224.4811      	1224.4828      	1224.448       	1224.4728      	1224.4752      	1224.491       	1224.4608      	
1224.3713      	1224.3358      	1224.3848      	1224.4174      	1224.2821      	1224.7665      	1224.6255      	1224.5321      	1224.5087      	1224.5298      	1224.4608      	1224.382       	1224.3381      	1224.4495      	1224.5011      	1224.4388      	1224.4462      	1224.4464      	1224.4673      	1224.4464      	1224.3875      	1224.422       	1224.4347      	1224.398       	1224.3551      	1224.4276      	1224.4103      	1224.378       	1224.3606      	1224.433       	1224.4368      	1224.409       	1224.4001      	1224.451       	1224.3802      	1224.344       	1224.4767      	1224.4677      	1224.42        	1224.4822      	1224.4946      	1224.4606      	1224.524       	1224.4172      	1224.2567      	1223.9983      	1224.1417      	1224.3105      	1224.5109      	1224.4836      	1224.4158      	1224.4878      	1224.4852      	1224.3606      	1224.4572      	1224.4869      	1224.4014      	1224.404       	1224.4695      	1224.4092      	1224.5188      	1224.4174      	1224.4617      	1224.4651      	1224.4946      	1224.4315      	1224.4636      	1224.4924      	1224.4819      	1224.5002      	1224.5607      	1224.4044      	1224.4634      	1224.6107      	1224.4863      	1224.4904      	1224.4829      	1224.4513      	1224.4471      	1224.5177      	1224.3967      	1224.4523      	1224.6007      	1224.6301      	1224.5745      	1224.5542      	1224.5417      	1224.5762      	1224.5323      	1224.5479      	1224.5206      	1224.5573      	1224.5485      	1224.5647      	1224.5792      	1224.5846      	1224.5732      	1224.5659      	1224.563       	1224.5916      	
1224.3585      	1224.3262      	1224.3112      	1224.3508      	1224.3059      	1224.4712      	1224.6968      	1224.553       	1224.5594      	1224.5757      	1224.4587      	1224.3608      	1224.4037      	1224.4104      	1224.4003      	1224.3981      	1224.4431      	1224.4241      	1224.3827      	1224.4077      	1224.4025      	1224.3289      	1224.4288      	1224.3585      	1224.3931      	1224.3541      	1224.4526      	1224.3483      	1224.4387      	1224.3484      	1224.4144      	1224.4094      	1224.4414      	1224.4032      	1224.4103      	1224.3427      	1224.4082      	1224.4125      	1224.387       	1224.4         	1224.3993      	1224.409       	1224.4624      	1224.3673      	1224.2339      	1224.0273      	1223.931       	1224.1451      	1224.47        	1224.3633      	1224.2955      	1224.3658      	1224.4308      	1224.3257      	1224.3418      	1224.3253      	1224.3744      	1224.3281      	1224.3904      	1224.3257      	1224.4025      	1224.3156      	1224.4033      	1224.436       	1224.3892      	1224.386       	1224.4132      	1224.4569      	1224.4833      	1224.3993      	1224.4448      	1224.4331      	1224.4353      	1224.4858      	1224.4534      	1224.4325      	1224.4067      	1224.4008      	1224.462       	1224.452       	1224.4349      	1224.3715      	1224.4761      	1224.4913      	1224.3936      	1224.4109      	1224.4585      	1224.3767      	1224.4382      	1224.3925      	1224.4458      	1224.4567      	1224.3679      	1224.4187      	1224.4298      	1224.3972      	1224.4149      	1224.4384      	1224.4463      	1224.4574      	
1224.3737      	1224.3595      	1224.3613      	1224.298       	1224.4054      	1224.3667      	1224.6603      	1224.6295      	1224.593       	1224.6085      	1224.5354      	1224.4568      	1224.4299      	1224.4197      	1224.4521      	1224.466       	1224.4529      	1224.5151      	1224.4865      	1224.5643      	1224.5366      	1224.5671      	1224.4761      	1224.4856      	1224.4935      	1224.4813      	1224.5016      	1224.5188      	1224.5118      	1224.5455      	1224.395       	1224.596       	1224.5133      	1224.534       	1224.5259      	1224.53        	1224.565       	1224.573       	1224.5049      	1224.5979      	1224.5776      	1224.6111      	1224.6604      	1224.593       	1224.3473      	1224.216       	1224.1873      	1224.0745      	1224.7264      	1224.4866      	1224.5574      	1224.5397      	1224.4539      	1224.5862      	1224.561       	1224.6034      	1224.6083      	1224.5919      	1224.5323      	1224.6238      	1224.5643      	1224.5867      	1224.6272      	1224.5436      	1224.6362      	1224.6189      	1224.5731      	1224.6549      	1224.6337      	1224.6721      	1224.5854      	1224.5487      	1224.7091      	1224.6108      	1224.6681      	1224.5829      	1224.6526      	1224.6405      	1224.6597      	1224.6064      	1224.69        	1224.6743      	1224.6564      	1224.6278      	1224.6354      	1224.6477      	1224.6246      	1224.5425      	1224.7296      	1224.6692      	1224.6893      	1224.6443      	1224.5745      	1224.7043      	1224.6506      	1224.6941      	1224.5833      	1224.6794      	1224.6157      	1224.5756      	
1224.7743      	1224.7831      	1224.7747      	1224.7675      	1224.7294      	1224.7577      	1225.0392      	1225.0999      	1224.9889      	1225.0309      	1224.9617      	1224.8523      	1224.8774      	1224.8678      	1224.8755      	1224.8591      	1224.7444      	1224.8441      	1224.8055      	1224.766       	1224.807       	1224.8025      	1224.8317      	1224.8132      	1224.8899      	1224.7998      	1224.8989      	1224.7888      	1224.873       	1224.8146      	1224.9038      	1224.8553      	1224.8363      	1224.8743      	1224.8612      	1224.9193      	1224.869       	1224.8503      	1224.9669      	1224.8794      	1224.9084      	1224.9064      	1224.8624      	1224.8746      	1224.7042      	1224.6459      	1224.3396      	1224.3936      	1224.8429      	1224.8636      	1224.949       	1224.8813      	1224.8662      	1224.8373      	1224.8413      	1224.8624      	1224.8082      	1224.8744      	1224.769       	1224.8267      	1224.7905      	1224.8505      	1224.828       	1224.8608      	1224.862       	1224.894       	1224.8989      	1224.9286      	1224.8658      	1224.8846      	1224.9305      	1224.8903      	1224.8563      	1224.9442      	1224.8674      	1224.8514      	1224.9269      	1224.9292      	1224.9232      	1224.8285      	1224.9778      	1224.9196      	1224.8855      	1224.925       	1224.8494      	1224.843       	1224.8873      	1224.9259      	1224.8848      	1224.8999      	1224.8893      	1224.879       	1224.8464      	1224.8868      	1224.8702      	1224.842       	1224.9044      	1224.8468      	1224.8475      	1224.878       	
1224.8622      	1224.8472      	1224.7396      	1224.8433      	1224.921       	1224.721       	1225.138       	1225.182       	1225.0059      	1224.9983      	1225.0109      	1224.8918      	1224.8527      	1224.9081      	1224.8755      	1224.9188      	1224.843       	1224.8999      	1225.0399      	1224.9817      	1224.9224      	1224.9276      	1224.8954      	1224.9233      	1224.8691      	1224.963       	1224.9132      	1224.9282      	1224.9181      	1224.8804      	1224.8837      	1224.9805      	1224.8541      	1224.9324      	1224.9435      	1224.9739      	1224.9497      	1224.8755      	1224.976       	1224.9448      	1224.9772      	1224.9594      	1224.9634      	1224.9523      	1224.8591      	1224.7659      	1224.4503      	1224.5951      	1224.766       	1224.9718      	1224.9143      	1224.8711      	1224.8746      	1224.8479      	1224.8762      	1224.7589      	1225.0377      	1224.8938      	1224.847       	1224.9412      	1224.9805      	1224.8707      	1224.9055      	1224.946       	1224.9283      	1224.874       	1225.0232      	1224.9333      	1225.0106      	1224.9026      	1224.9645      	1224.9934      	1224.969       	1224.7831      	1225.0028      	1224.9861      	1224.8861      	1224.9028      	1224.9816      	1224.9779      	1224.9216      	1224.955       	1224.934       	1224.9149      	1224.9497      	1224.895       	1224.8921      	1224.8821      	1224.9465      	1224.8801      	1224.9015      	1224.85        	1224.8767      	1224.9309      	1224.8535      	1224.9374      	1224.9159      	1224.8766      	1224.7163      	1224.8738      	
1224.7614      	1224.729       	1224.6523      	1224.7457      	1224.798       	1224.6935      	1224.8146      	1225.0222      	1224.9567      	1224.9591      	1224.9111      	1224.8093      	1224.7483      	1224.8107      	1224.7609      	1224.8403      	1224.6604      	1224.8937      	1224.8315      	1224.7754      	1224.7001      	1224.8557      	1224.7758      	1224.7871      	1224.7653      	1224.8401      	1224.7667      	1224.8059      	1224.7996      	1224.7802      	1224.7974      	1224.8273      	1224.7743      	1224.839       	1224.7703      	1224.7976      	1224.8634      	1224.8331      	1224.7341      	1224.7997      	1224.7898      	1224.7721      	1224.8269      	1224.7681      	1224.7083      	1224.7881      	1224.6346      	1224.5104      	1224.3755      	1224.9089      	1224.8591      	1224.8302      	1224.8616      	1224.7958      	1224.8433      	1224.834       	1224.7556      	1224.7909      	1224.8247      	1224.7418      	1224.8342      	1224.7638      	1224.8678      	1224.8915      	1224.769       	1224.8013      	1224.8422      	1224.7778      	1224.7751      	1224.844       	1224.6921      	1224.912       	1224.7762      	1224.7815      	1224.7905      	1224.7749      	1224.7986      	1224.648       	1224.8517      	1224.7091      	1224.7412      	1224.742       	1224.7296      	1224.787       	1224.741       	1224.77        	1224.7092      	1224.7268      	1224.722       	1224.6727      	1224.7288      	1224.6729      	1224.6718      	1224.6624      	1224.6733      	1224.6909      	1224.6354      	1224.6837      	1224.6501      	1224.6497      	
1224.5068      	1224.4972      	1224.5343      	1224.536       	1224.5117      	1224.4017      	1224.628       	1224.8148      	1224.7654      	1224.7095      	1224.6454      	1224.645       	1224.5925      	1224.6196      	1224.6765      	1224.5677      	1224.4259      	1224.3835      	1224.6078      	1224.6432      	1224.6179      	1224.6472      	1224.63        	1224.628       	1224.62        	1224.6206      	1224.6417      	1224.6366      	1224.6633      	1224.6252      	1224.7092      	1224.696       	1224.6582      	1224.6985      	1224.6561      	1224.5399      	1224.6212      	1224.631       	1224.7511      	1224.5956      	1224.6083      	1224.6268      	1224.6924      	1224.6115      	1224.6874      	1224.6228      	1224.5636      	1224.3744      	1224.1034      	1224.74        	1224.6376      	1224.7142      	1224.6304      	1224.6462      	1224.5085      	1224.73        	1224.7216      	1224.6066      	1224.5729      	1224.7025      	1224.6008      	1224.5697      	1224.5532      	1224.5663      	1224.5581      	1224.6132      	1224.5994      	1224.7048      	1224.6682      	1224.6892      	1224.7029      	1224.6713      	1224.7058      	1224.6305      	1224.7091      	1224.5605      	1224.6809      	1224.722       	1224.5645      	1224.6859      	1224.5896      	1224.6099      	1224.582       	1224.5798      	1224.6366      	1224.606       	1224.5692      	1224.5405      	1224.6241      	1224.5939      	1224.6052      	1224.531       	1224.5096      	1224.542       	1224.5724      	1224.4545      	1224.5537      	1224.4713      	1224.4923      	1224.5212      	
1224.4276      	1224.4253      	1224.4159      	1224.399       	1224.4677      	1224.3827      	1224.4481      	1224.6619      	1224.7241      	1224.5658      	1224.6808      	1224.5294      	1224.4539      	1224.4534      	1224.5122      	1224.4946      	1224.4805      	1224.4722      	1224.4933      	1224.5095      	1224.4791      	1224.4827      	1224.5211      	1224.4769      	1224.5264      	1224.451       	1224.4952      	1224.5142      	1224.516       	1224.4275      	1224.4807      	1224.4861      	1224.5043      	1224.4479      	1224.495       	1224.3981      	1224.4658      	1224.4016      	1224.6033      	1224.4542      	1224.3778      	1224.3674      	1224.4468      	1224.5162      	1224.4993      	1224.4569      	1224.4148      	1224.1587      	1224.2772      	1224.5494      	1224.5183      	1224.5256      	1224.4875      	1224.5067      	1224.4956      	1224.439       	1224.4945      	1224.4888      	1224.4877      	1224.4847      	1224.5044      	1224.4651      	1224.5057      	1224.5453      	1224.4685      	1224.5538      	1224.5419      	1224.5457      	1224.5206      	1224.4672      	1224.5663      	1224.4524      	1224.619       	1224.5061      	1224.5724      	1224.5359      	1224.4952      	1224.5613      	1224.5709      	1224.4624      	1224.5305      	1224.5223      	1224.4312      	1224.4739      	1224.5525      	1224.49        	1224.4716      	1224.379       	1224.5569      	1224.418       	1224.4741      	1224.4375      	1224.465       	1224.3229      	1224.4692      	1224.342       	1224.4667      	1224.3702      	1224.4346      	1224.3534      	
1224.4934      	1224.5243      	1224.4806      	1224.4458      	1224.4962      	1224.5562      	1224.4503      	1224.6534      	1224.8097      	1224.6921      	1224.7032      	1224.6564      	1224.5618      	1224.5667      	1224.5784      	1224.6079      	1224.5974      	1224.5773      	1224.5472      	1224.5826      	1224.6085      	1224.6085      	1224.6056      	1224.6458      	1224.5833      	1224.5522      	1224.5852      	1224.6112      	1224.5774      	1224.5428      	1224.5345      	1224.4495      	1224.6747      	1224.5854      	1224.5994      	1224.6292      	1224.5565      	1224.4216      	1224.5444      	1224.7198      	1224.5166      	1224.5541      	1224.6167      	1224.6072      	1224.4913      	1224.5114      	1224.4485      	1224.5898      	1224.6848      	1224.659       	1224.602       	1224.648       	1224.6483      	1224.6825      	1224.5673      	1224.6296      	1224.6525      	1224.6888      	1224.6265      	1224.662       	1224.6587      	1224.5768      	1224.7085      	1224.6838      	1224.6796      	1224.7078      	1224.7029      	1224.7072      	1224.704       	1224.701       	1224.6844      	1224.741       	1224.7261      	1224.7299      	1224.7428      	1224.6692      	1224.672       	1224.7253      	1224.7341      	1224.6274      	1224.6526      	1224.6738      	1224.7053      	1224.6384      	1224.6503      	1224.6515      	1224.5002      	1224.6719      	1224.5839      	1224.6061      	1224.5906      	1224.6327      	1224.5847      	1224.5917      	1224.5682      	1224.6038      	1224.5593      	1224.6129      	1224.5479      	1224.5818      	
1224.8241      	1224.8296      	1224.7571      	1224.7195      	1224.8508      	1224.7365      	1224.7815      	1224.882       	1225.1893      	1224.9855      	1224.9968      	1224.9852      	1224.8628      	1224.8647      	1224.9187      	1224.8075      	1224.8936      	1224.8679      	1224.7638      	1224.8156      	1224.8856      	1224.8329      	1224.7645      	1224.8059      	1224.7821      	1224.8103      	1224.798       	1224.7854      	1224.8446      	1224.8179      	1224.7544      	1224.7961      	1224.8636      	1224.8499      	1224.7919      	1224.8771      	1224.7368      	1224.7947      	1224.6927      	1224.969       	1224.689       	1224.755       	1224.991       	1224.7391      	1224.9353      	1224.865       	1224.687       	1225.0221      	1224.8544      	1224.8481      	1224.896       	1224.867       	1224.8862      	1224.8065      	1224.938       	1224.909       	1224.8425      	1224.9233      	1224.8453      	1224.9539      	1224.895       	1224.9022      	1224.8956      	1224.9313      	1224.8735      	1224.9396      	1224.9548      	1224.9689      	1224.9598      	1224.9851      	1224.9683      	1224.964       	1224.921       	1224.8839      	1224.9028      	1224.9009      	1224.9122      	1224.7948      	1224.8406      	1224.9043      	1224.8256      	1224.8792      	1224.8109      	1224.7603      	1224.8336      	1224.8357      	1224.8276      	1224.7899      	1224.7449      	1224.8978      	1224.8154      	1224.799       	1224.805       	1224.7681      	1224.7876      	1224.7516      	1224.7651      	1224.7411      	1224.7988      	1224.7163      	
1224.9427      	1224.9137      	1224.905       	1224.846       	1224.9612      	1224.7388      	1224.9939      	1224.947       	1225.2744      	1225.11        	1225.1266      	1225.1525      	1225.0234      	1224.9907      	1224.9481      	1224.9481      	1225.028       	1224.9103      	1224.9354      	1224.8518      	1224.8387      	1225.1327      	1224.9602      	1224.872       	1224.9895      	1224.9495      	1224.9009      	1224.9746      	1225.0288      	1224.9501      	1224.9198      	1224.888       	1224.8743      	1224.9958      	1224.9017      	1224.8367      	1224.9973      	1224.8405      	1224.9417      	1224.9733      	1225.0237      	1225.0541      	1225.0406      	1224.971       	1224.9799      	1225.0524      	1224.9608      	1224.8922      	1225.0397      	1224.946       	1225.0198      	1224.9716      	1224.9563      	1225.0013      	1224.9269      	1224.9148      	1225.0592      	1224.9579      	1224.9724      	1224.9746      	1224.9932      	1224.9832      	1225.003       	1225.0061      	1224.9911      	1224.9308      	1225.007       	1225.0096      	1225.0024      	1224.9878      	1224.9712      	1224.9893      	1224.971       	1224.9332      	1224.9497      	1224.8835      	1224.8931      	1224.924       	1224.9126      	1224.8752      	1224.8645      	1224.7686      	1224.9387      	1224.8309      	1224.8691      	1224.8195      	1224.8787      	1224.8048      	1224.7566      	1224.8469      	1224.7898      	1224.8617      	1224.8152      	1224.8433      	1224.6923      	1224.8391      	1224.759       	1224.776       	1224.7273      	1224.7931      	
1224.9071      	1224.8569      	1224.8368      	1224.7909      	1224.9111      	1224.9661      	1224.8931      	1224.8595      	1225.1234      	1225.2277      	1225.0743      	1225.0999      	1225.02        	1224.8856      	1224.7817      	1225.0353      	1224.948       	1224.9274      	1224.9182      	1224.8136      	1224.9519      	1224.8557      	1224.996       	1224.9026      	1224.9178      	1224.8782      	1224.8684      	1224.9224      	1224.9363      	1224.9065      	1224.9055      	1224.8662      	1224.78        	1224.9435      	1225.02        	1224.9711      	1224.983       	1225.0175      	1224.9689      	1224.928       	1225.0034      	1224.9817      	1224.956       	1224.9355      	1224.9407      	1225.1132      	1224.963       	1224.9519      	1224.9604      	1225.055       	1224.9746      	1224.9946      	1224.9517      	1224.9662      	1224.944       	1224.9667      	1224.9451      	1224.9825      	1224.9562      	1224.9355      	1224.961       	1224.9725      	1224.9806      	1224.9368      	1224.9985      	1224.9576      	1224.9589      	1224.9485      	1224.9309      	1224.8945      	1224.8821      	1224.9559      	1224.8826      	1224.8777      	1224.9486      	1224.8954      	1224.8927      	1224.8795      	1224.8508      	1224.8391      	1224.8452      	1224.8169      	1224.8384      	1224.7365      	1224.8569      	1224.7844      	1224.7943      	1224.787       	1224.7981      	1224.8389      	1224.7946      	1224.7971      	1224.7925      	1224.8501      	1224.8341      	1224.8091      	1224.8516      	1224.7714      	1224.7942      	1224.7682      	
1224.804       	1224.81        	1224.688       	1224.6866      	1224.8909      	1224.8286      	1224.7872      	1224.8274      	1225.0016      	1225.0337      	1224.8889      	1224.9379      	1224.9175      	1224.8677      	1224.7906      	1224.846       	1224.805       	1224.7909      	1224.9264      	1224.7611      	1224.6738      	1224.7892      	1224.7997      	1224.8279      	1224.7927      	1224.7485      	1224.7615      	1224.7136      	1224.7712      	1224.7203      	1224.914       	1224.9247      	1224.88        	1224.8625      	1224.8833      	1224.8373      	1224.8145      	1224.8944      	1224.8505      	1224.8958      	1224.8427      	1224.7322      	1225.0159      	1224.9132      	1224.8972      	1224.8553      	1224.8645      	1224.8729      	1224.8892      	1224.8895      	1224.8964      	1224.8383      	1224.8306      	1224.8904      	1224.8833      	1224.8536      	1224.8998      	1224.888       	1224.8484      	1224.8973      	1224.8903      	1224.868       	1224.8981      	1224.8729      	1224.9161      	1224.8376      	1224.8739      	1224.866       	1224.8524      	1224.8405      	1224.8326      	1224.8567      	1224.8477      	1224.828       	1224.8275      	1224.8143      	1224.8182      	1224.7207      	1224.8574      	1224.7677      	1224.7942      	1224.7616      	1224.7944      	1224.7734      	1224.7677      	1224.816       	1224.7665      	1224.6787      	1224.7736      	1224.772       	1224.7317      	1224.7694      	1224.7225      	1224.7273      	1224.736       	1224.7421      	1224.716       	1224.7084      	1224.6792      	1224.7046      	
1224.8044      	1224.7864      	1224.6438      	1224.6571      	1224.9651      	1224.8687      	1224.8417      	1224.811       	1224.7853      	1224.9213      	1224.9202      	1225.1311      	1224.9341      	1224.9689      	1224.8726      	1224.8866      	1224.8384      	1224.7966      	1224.8429      	1224.7638      	1224.8035      	1224.7826      	1224.8475      	1224.8185      	1224.9028      	1224.8374      	1224.9531      	1225.0262      	1224.913       	1224.8815      	1224.895       	1224.9397      	1224.9304      	1224.9783      	1224.9401      	1224.9191      	1224.9595      	1224.967       	1225.0067      	1224.926       	1224.9893      	1224.9312      	1225.0079      	1224.9669      	1224.9661      	1224.8385      	1224.6431      	1224.8582      	1224.9269      	1224.9432      	1224.9174      	1225.0012      	1224.9294      	1224.9723      	1224.9509      	1224.9879      	1224.9442      	1225.0228      	1224.9703      	1224.967       	1224.9667      	1224.9651      	1224.9559      	1224.9968      	1224.9387      	1224.9435      	1224.9589      	1224.9489      	1224.9797      	1224.8965      	1224.973       	1224.9171      	1224.9304      	1224.9373      	1224.957       	1224.9958      	1224.886       	1224.8553      	1224.9357      	1224.8843      	1224.826       	1224.8948      	1224.9191      	1224.8516      	1224.8685      	1224.909       	1224.7992      	1224.8549      	1224.8513      	1224.8301      	1224.7437      	1224.9318      	1224.7678      	1224.8422      	1224.8285      	1224.7572      	1224.8071      	1224.756       	1224.7727      	1224.7648      	
1224.9885      	1224.9863      	1224.8231      	1224.8538      	1225.1648      	1224.9816      	1224.9607      	1224.9562      	1225.0034      	1224.9685      	1225.0533      	1225.2377      	1225.0486      	1225.0359      	1225.0096      	1225.1217      	1224.954       	1224.9517      	1224.9594      	1224.8892      	1224.9374      	1225.1816      	1225.1581      	1225.0658      	1225.1252      	1225.0964      	1225.0417      	1225.1682      	1225.1475      	1225.1171      	1225.1554      	1225.117       	1225.1449      	1225.1233      	1225.1376      	1225.1034      	1225.161       	1225.0857      	1225.1499      	1225.1246      	1225.2008      	1225.117       	1225.1443      	1225.0796      	1225.1804      	1225.1511      	1225.1304      	1225.113       	1225.1122      	1225.1354      	1225.1261      	1225.1194      	1225.0743      	1225.1349      	1225.0919      	1225.0883      	1225.0952      	1225.1115      	1225.0714      	1225.096       	1225.0659      	1225.1074      	1224.9851      	1225.1569      	1225.0425      	1225.1433      	1225.0319      	1225.0691      	1225.0647      	1225.0568      	1225.0217      	1224.9855      	1225.0007      	1224.9877      	1225.0424      	1225.0624      	1224.957       	1225.0022      	1224.9708      	1224.9075      	1224.9716      	1224.9608      	1224.9572      	1225.0037      	1224.9526      	1224.9441      	1224.8944      	1224.917       	1224.9104      	1224.9646      	1224.9377      	1224.8865      	1224.8708      	1224.91        	1224.9144      	1224.9124      	1224.9365      	1224.9165      	1224.9061      	1224.9188      	
1225.1213      	1225.1133      	1225.0865      	1225.1008      	1225.1173      	1225.1401      	1225.1747      	1225.1907      	1225.1174      	1225.1818      	1225.1215      	1225.1146      	1225.219       	1225.1771      	1225.093       	1225.2146      	1225.0283      	1225.1184      	1225.2183      	1225.2207      	1225.2478      	1225.193       	1225.1431      	1225.231       	1225.1782      	1225.2367      	1225.2141      	1225.2098      	1225.3142      	1225.2472      	1225.2346      	1225.2657      	1225.209       	1225.2556      	1225.2195      	1225.2495      	1225.2194      	1225.2417      	1225.2871      	1225.2739      	1225.3363      	1225.2495      	1225.3611      	1225.3098      	1225.2798      	1225.3013      	1225.328       	1225.2937      	1225.2683      	1225.2913      	1225.2286      	1225.3281      	1225.3137      	1225.2974      	1225.2742      	1225.2902      	1225.2947      	1225.2986      	1225.3392      	1225.296       	1225.2839      	1225.2896      	1225.2792      	1225.26        	1225.2584      	1225.2133      	1225.2024      	1225.2355      	1225.1066      	1225.3024      	1225.2151      	1225.1733      	1225.1506      	1225.1995      	1225.1373      	1225.1953      	1225.1785      	1225.2429      	1225.1609      	1225.1863      	1225.1143      	1225.1649      	1225.1558      	1225.1011      	1225.0387      	1225.2554      	1225.1661      	1225.1272      	1225.106       	1225.1188      	1225.0581      	1225.2255      	1225.1223      	1225.0936      	1225.1143      	1225.1299      	1225.1074      	1225.1307      	1225.0786      	1225.154       	
1225.2556      	1225.2435      	1225.2263      	1225.1447      	1225.2501      	1225.2219      	1225.1575      	1225.3319      	1225.1782      	1225.3632      	1225.2501      	1225.2649      	1225.2786      	1225.3218      	1225.2609      	1225.2563      	1225.3259      	1225.1912      	1225.3306      	1225.2649      	1225.3074      	1225.3948      	1225.2833      	1225.3649      	1225.2666      	1225.3206      	1225.285       	1225.3962      	1225.4088      	1225.3093      	1225.3413      	1225.3768      	1225.3407      	1225.3414      	1225.3143      	1225.3129      	1225.3262      	1225.3494      	1225.3267      	1225.3202      	1225.3605      	1225.2891      	1225.3533      	1225.3599      	1225.3406      	1225.4022      	1225.3494      	1225.3618      	1225.3684      	1225.4104      	1225.327       	1225.3044      	1225.3489      	1225.3344      	1225.313       	1225.3047      	1225.282       	1225.3285      	1225.2616      	1225.3442      	1225.3065      	1225.2777      	1225.3048      	1225.3335      	1225.2802      	1225.3019      	1225.284       	1225.2648      	1225.2175      	1225.2013      	1225.2305      	1225.2076      	1225.186       	1225.1702      	1225.1915      	1225.199       	1225.1752      	1225.1915      	1225.1575      	1225.1893      	1225.0952      	1225.1024      	1225.2258      	1225.127       	1225.1128      	1225.1345      	1225.0352      	1225.2284      	1225.1262      	1225.075       	1225.0833      	1225.0968      	1225.1195      	1225.0588      	1225.0927      	1225.0776      	1225.0891      	1225.0688      	1225.0442      	1225.0823      	
1225.247       	1225.226       	1225.2344      	1225.2294      	1225.2351      	1225.1891      	1225.3029      	1225.3414      	1225.2375      	1225.2667      	1225.2073      	1225.3411      	1225.2521      	1225.34        	1225.3229      	1225.3134      	1225.2972      	1225.2966      	1225.4005      	1225.2977      	1225.3081      	1225.3557      	1225.3684      	1225.3877      	1225.4003      	1225.304       	1225.366       	1225.2899      	1225.3685      	1225.3374      	1225.3817      	1225.3829      	1225.3245      	1225.38        	1225.3273      	1225.3003      	1225.3729      	1225.3345      	1225.3729      	1225.3153      	1225.3228      	1225.3633      	1225.344       	1225.4163      	1225.3365      	1225.378       	1225.336       	1225.3063      	1225.3505      	1225.3456      	1225.2651      	1225.377       	1225.3784      	1225.292       	1225.3572      	1225.3053      	1225.2982      	1225.3755      	1225.3298      	1225.3499      	1225.3318      	1225.3087      	1225.2876      	1225.3503      	1225.3         	1225.3059      	1225.3231      	1225.2755      	1225.285       	1225.2981      	1225.2655      	1225.254       	1225.2325      	1225.2195      	1225.2235      	1225.1906      	1225.2438      	1225.2355      	1225.1842      	1225.1436      	1225.1483      	1225.1638      	1225.1573      	1225.1719      	1225.159       	1225.1179      	1225.1187      	1225.1648      	1225.1516      	1225.0471      	1225.2151      	1225.1788      	1225.1261      	1225.1511      	1225.0968      	1225.1265      	1225.0363      	1225.0797      	1225.099       	1225.1178      	
1225.3146      	1225.3093      	1225.3074      	1225.3273      	1225.3121      	1225.3698      	1225.2797      	1225.4462      	1225.2876      	1225.4064      	1225.3281      	1225.3802      	1225.4159      	1225.3546      	1225.4045      	1225.3817      	1225.2847      	1225.3947      	1225.4702      	1225.4047      	1225.4647      	1225.4478      	1225.4497      	1225.4414      	1225.4944      	1225.468       	1225.4347      	1225.4614      	1225.5522      	1225.4697      	1225.5653      	1225.53        	1225.5305      	1225.5399      	1225.4884      	1225.4937      	1225.4658      	1225.4529      	1225.5001      	1225.4869      	1225.4312      	1225.4777      	1225.4727      	1225.5598      	1225.5037      	1225.5322      	1225.5135      	1225.4972      	1225.423       	1225.4817      	1225.4629      	1225.4951      	1225.4794      	1225.5088      	1225.473       	1225.4684      	1225.4259      	1225.4377      	1225.4062      	1225.3988      	1225.3859      	1225.3959      	1225.3726      	1225.4093      	1225.3975      	1225.3568      	1225.3594      	1225.3523      	1225.3994      	1225.3713      	1225.3093      	1225.3225      	1225.2986      	1225.3348      	1225.314       	1225.3378      	1225.3236      	1225.298       	1225.3284      	1225.241       	1225.3212      	1225.221       	1225.2407      	1225.2631      	1225.2615      	1225.279       	1225.214       	1225.2797      	1225.2446      	1225.2443      	1225.2871      	1225.2483      	1225.2501      	1225.2236      	1225.312       	1225.2489      	1225.288       	1225.3069      	1225.2893      	1225.2831      	
1225.4109      	1225.3904      	1225.3975      	1225.363       	1225.452       	1225.4353      	1225.4271      	1225.4603      	1225.4504      	1225.4319      	1225.4344      	1225.4612      	1225.5106      	1225.409       	1225.4485      	1225.4822      	1225.404       	1225.4493      	1225.4572      	1225.5308      	1225.4465      	1225.5399      	1225.402       	1225.5413      	1225.5167      	1225.5577      	1225.4976      	1225.5466      	1225.5398      	1225.567       	1225.5469      	1225.525       	1225.5199      	1225.5663      	1225.5486      	1225.5494      	1225.5062      	1225.5509      	1225.5378      	1225.5519      	1225.5455      	1225.5452      	1225.5663      	1225.5521      	1225.5366      	1225.5205      	1225.4773      	1225.5808      	1225.4706      	1225.496       	1225.4673      	1225.5332      	1225.5538      	1225.471       	1225.5168      	1225.4515      	1225.4805      	1225.5052      	1225.4891      	1225.42        	1225.4194      	1225.4146      	1225.4745      	1225.453       	1225.4542      	1225.3982      	1225.4722      	1225.392       	1225.4243      	1225.4231      	1225.3801      	1225.4231      	1225.3569      	1225.3905      	1225.3315      	1225.3524      	1225.3755      	1225.3687      	1225.3525      	1225.3125      	1225.3483      	1225.3134      	1225.2905      	1225.3359      	1225.3225      	1225.302       	1225.3094      	1225.3645      	1225.2837      	1225.3279      	1225.3075      	1225.352       	1225.3032      	1225.3535      	1225.3732      	1225.3734      	1225.3049      	1225.3612      	1225.3569      	1225.3221      	
1225.4136      	1225.395       	1225.3839      	1225.4452      	1225.4576      	1225.4592      	1225.4486      	1225.5134      	1225.4409      	1225.518       	1225.47        	1225.5001      	1225.5249      	1225.5409      	1225.4755      	1225.5295      	1225.4562      	1225.5453      	1225.5334      	1225.5273      	1225.5367      	1225.5519      	1225.5441      	1225.5786      	1225.5378      	1225.523       	1225.5917      	1225.5637      	1225.5925      	1225.589       	1225.5571      	1225.5465      	1225.5604      	1225.5378      	1225.5392      	1225.5647      	1225.5001      	1225.5009      	1225.5327      	1225.5394      	1225.576       	1225.4983      	1225.5753      	1225.5314      	1225.5222      	1225.5226      	1225.5526      	1225.5878      	1225.4797      	1225.4934      	1225.5078      	1225.4872      	1225.5173      	1225.4885      	1225.4915      	1225.4651      	1225.5045      	1225.4893      	1225.4733      	1225.5558      	1225.5261      	1225.5004      	1225.4445      	1225.4358      	1225.3956      	1225.433       	1225.3661      	1225.4346      	1225.3999      	1225.3875      	1225.3746      	1225.3722      	1225.3737      	1225.352       	1225.3751      	1225.3367      	1225.378       	1225.377       	1225.4003      	1225.3319      	1225.3821      	1225.36        	1225.3425      	1225.3123      	1225.2192      	1225.3694      	1225.4708      	1225.3278      	1225.3401      	1225.3406      	1225.352       	1225.356       	1225.27        	1225.4215      	1225.3572      	1225.4001      	1225.3655      	1225.3527      	1225.4156      	1225.388       	
1225.3976      	1225.397       	1225.3917      	1225.3269      	1225.4017      	1225.4598      	1225.3906      	1225.4474      	1225.4716      	1225.5089      	1225.4916      	1225.4739      	1225.4722      	1225.4366      	1225.4982      	1225.4734      	1225.45        	1225.4641      	1225.4868      	1225.4934      	1225.4895      	1225.5332      	1225.4609      	1225.5109      	1225.4784      	1225.4943      	1225.4832      	1225.4861      	1225.4877      	1225.4286      	1225.4679      	1225.4602      	1225.4636      	1225.4752      	1225.4646      	1225.4766      	1225.438       	1225.4655      	1225.4122      	1225.4634      	1225.489       	1225.4694      	1225.4763      	1225.408       	1225.4724      	1225.4185      	1225.4928      	1225.4788      	1225.4198      	1225.4255      	1225.4614      	1225.4197      	1225.4489      	1225.3823      	1225.4103      	1225.4309      	1225.4135      	1225.4347      	1225.4392      	1225.3673      	1225.3824      	1225.372       	1225.3688      	1225.3483      	1225.3663      	1225.3412      	1225.3254      	1225.2871      	1225.3185      	1225.2843      	1225.2745      	1225.2518      	1225.2255      	1225.2561      	1225.23        	1225.2505      	1225.2313      	1225.2643      	1225.2042      	1225.1919      	1225.1921      	1225.2141      	1225.0945      	1225.2438      	1225.1583      	1225.2179      	1225.2101      	1225.1277      	1225.1979      	1225.2733      	1225.1848      	1225.1857      	1225.1776      	1225.2147      	1225.1884      	1225.205       	1225.237       	1225.2261      	1225.4067      	1225.382       	
1225.3596      	1225.3071      	1225.275       	1225.3328      	1225.3738      	1225.2903      	1225.3539      	1225.3374      	1225.4004      	1225.3495      	1225.4309      	1225.4042      	1225.4568      	1225.4758      	1225.3406      	1225.5386      	1225.4434      	1225.5372      	1225.4219      	1225.412       	1225.4531      	1225.4641      	1225.4924      	1225.4393      	1225.4675      	1225.4692      	1225.3755      	1225.4746      	1225.4667      	1225.4487      	1225.4309      	1225.4104      	1225.4296      	1225.3937      	1225.465       	1225.4331      	1225.4237      	1225.4397      	1225.3584      	1225.5295      	1225.3507      	1225.4525      	1225.4761      	1225.4678      	1225.3778      	1225.4479      	1225.4183      	1225.4943      	1225.4204      	1225.3748      	1225.4221      	1225.3511      	1225.3936      	1225.3894      	1225.3564      	1225.3845      	1225.3439      	1225.3899      	1225.3672      	1225.3391      	1225.3586      	1225.2986      	1225.3567      	1225.2924      	1225.3673      	1225.2744      	1225.2528      	1225.3215      	1225.2654      	1225.2798      	1225.2975      	1225.2628      	1225.2925      	1225.2452      	1225.2043      	1225.245       	1225.2402      	1225.2261      	1225.2329      	1225.2551      	1225.2206      	1225.2454      	1225.1128      	1225.2856      	1225.2036      	1225.2307      	1225.2097      	1225.1254      	1225.3359      	1225.2288      	1225.2573      	1225.2156      	1225.2551      	1225.4666      	1225.3707      	1225.3446      	1225.321       	1225.469       	1225.4438      	1225.4412      	
1225.3726      	1225.3098      	1225.3093      	1225.3368      	1225.3429      	1225.314       	1225.3417      	1225.3787      	1225.3555      	1225.3757      	1225.4128      	1225.3563      	1225.3828      	1225.4294      	1225.3866      	1225.3566      	1225.3315      	1225.4087      	1225.3888      	1225.3378      	1225.4279      	1225.3965      	1225.3832      	1225.394       	1225.3989      	1225.4347      	1225.3651      	1225.381       	1225.4005      	1225.4343      	1225.4219      	1225.3927      	1225.4335      	1225.3611      	1225.2665      	1225.4755      	1225.2856      	1225.3694      	1225.4268      	1225.387       	1225.378       	1225.342       	1225.4304      	1225.337       	1225.3774      	1225.445       	1225.3822      	1225.4175      	1225.382       	1225.3336      	1225.3419      	1225.3671      	1225.3553      	1225.3243      	1225.3066      	1225.3583      	1225.3074      	1225.356       	1225.2775      	1225.2825      	1225.3086      	1225.2719      	1225.282       	1225.2291      	1225.285       	1225.2921      	1225.2306      	1225.2433      	1225.2654      	1225.2059      	1225.2092      	1225.2286      	1225.1394      	1225.2561      	1225.1954      	1225.2014      	1225.2081      	1225.2103      	1225.2697      	1225.1749      	1225.2186      	1225.154       	1225.2285      	1225.1655      	1225.2312      	1225.2286      	1225.214       	1225.1678      	1225.177       	1225.2599      	1225.3939      	1225.4315      	1225.4073      	1225.4487      	1225.4409      	1225.3553      	1225.3993      	1225.3556      	1225.3654      	1225.3396      	
1225.267       	1225.2917      	1225.1995      	1225.2001      	1225.3798      	1225.2549      	1225.332       	1225.294       	1225.34        	1225.3378      	1225.3517      	1225.3845      	1225.3624      	1225.3883      	1225.4435      	1225.3284      	1225.3236      	1225.3976      	1225.3551      	1225.405       	1225.3956      	1225.366       	1225.4276      	1225.3595      	1225.3684      	1225.3755      	1225.399       	1225.3817      	1225.3242      	1225.3376      	1225.3746      	1225.3169      	1225.4253      	1225.3073      	1225.2908      	1225.3417      	1225.332       	1225.3378      	1225.3689      	1225.268       	1225.3318      	1225.3276      	1225.2788      	1225.3218      	1225.2957      	1225.3502      	1225.2947      	1225.3312      	1225.343       	1225.2928      	1225.2955      	1225.2926      	1225.2665      	1225.2681      	1225.2147      	1225.2919      	1225.2052      	1225.2908      	1225.2115      	1225.2261      	1225.2417      	1225.1923      	1225.3235      	1225.1082      	1225.2379      	1225.2355      	1225.1439      	1225.1903      	1225.1343      	1225.1742      	1225.178       	1225.1062      	1225.1785      	1225.1819      	1225.134       	1225.1991      	1225.1445      	1225.1667      	1225.1708      	1225.1633      	1225.205       	1225.1039      	1225.1946      	1225.1796      	1225.0857      	1225.4604      	1225.461       	1225.3517      	1225.3053      	1225.3542      	1225.3898      	1225.3099      	1225.4163      	1225.3357      	1225.3499      	1225.4011      	1225.3757      	1225.3871      	1225.3987      	1225.3855      	
1225.3206      	1225.301       	1225.2781      	1225.3102      	1225.3933      	1225.2966      	1225.4019      	1225.3989      	1225.3364      	1225.4269      	1225.3628      	1225.4291      	1225.4564      	1225.465       	1225.4482      	1225.4283      	1225.3337      	1225.4954      	1225.4293      	1225.4292      	1225.468       	1225.4115      	1225.4763      	1225.3856      	1225.4374      	1225.4019      	1225.4187      	1225.4484      	1225.4309      	1225.307       	1225.4674      	1225.3737      	1225.4258      	1225.3546      	1225.3796      	1225.3922      	1225.3875      	1225.3904      	1225.3595      	1225.3597      	1225.4138      	1225.3949      	1225.4329      	1225.3845      	1225.364       	1225.3882      	1225.36        	1225.3894      	1225.384       	1225.3894      	1225.3707      	1225.3339      	1225.4227      	1225.3989      	1225.3474      	1225.3192      	1225.4156      	1225.3535      	1225.3381      	1225.2706      	1225.3295      	1225.2555      	1225.3562      	1225.2706      	1225.2773      	1225.2704      	1225.2706      	1225.2991      	1225.2551      	1225.2574      	1225.24        	1225.2667      	1225.2684      	1225.2231      	1225.215       	1225.2625      	1225.2631      	1225.2068      	1225.261       	1225.3236      	1225.3567      	1225.3749      	1225.4718      	1225.4296      	1225.3739      	1225.4653      	1225.441       	1225.3486      	1225.3641      	1225.3778      	1225.3683      	1225.3859      	1225.3623      	1225.4172      	1225.382       	1225.4514      	1225.3878      	1225.4292      	1225.4265      	1225.4159      	
1225.3914      	1225.3153      	1225.158       	1225.3293      	1225.5193      	1225.4464      	1225.4554      	1225.4427      	1225.436       	1225.3712      	1225.4435      	1225.4478      	1225.4407      	1225.4401      	1225.4866      	1225.4381      	1225.4103      	1225.4176      	1225.4298      	1225.4576      	1225.4641      	1225.406       	1225.4338      	1225.4863      	1225.397       	1225.4426      	1225.4204      	1225.467       	1225.4371      	1225.4275      	1225.4155      	1225.4916      	1225.3749      	1225.3708      	1225.3833      	1225.3735      	1225.3856      	1225.4233      	1225.4011      	1225.385       	1225.4093      	1225.4111      	1225.3392      	1225.3682      	1225.3413      	1225.3715      	1225.3724      	1225.3444      	1225.3733      	1225.3124      	1225.309       	1225.3026      	1225.3026      	1225.3206      	1225.241       	1225.2897      	1225.2653      	1225.288       	1225.2255      	1225.273       	1225.2655      	1225.2723      	1225.179       	1225.277       	1225.2719      	1225.2657      	1225.1786      	1225.2896      	1225.2114      	1225.2234      	1225.1962      	1225.1926      	1225.2157      	1224.699       	1224.9746      	1225.2566      	1225.2693      	1225.2228      	1225.3169      	1225.4578      	1225.41        	1225.3983      	1225.4142      	1225.4048      	1225.3362      	1225.3436      	1225.3638      	1225.3585      	1225.4058      	1225.3845      	1225.4517      	1225.3904      	1225.4453      	1225.4142      	1225.4329      	1225.3762      	1225.4652      	1225.483       	1225.4884      	1225.5018      	
1225.3398      	1225.291       	1225.2911      	1225.3428      	1225.3668      	1225.3574      	1225.4329      	1225.3752      	1225.4197      	1225.3777      	1225.385       	1225.3519      	1225.451       	1225.3821      	1225.3013      	1225.47        	1225.4253      	1225.3337      	1225.3318      	1225.3634      	1225.3202      	1225.3689      	1225.2932      	1225.3118      	1225.2999      	1225.3514      	1225.3605      	1225.3303      	1225.3306      	1225.3254      	1225.2937      	1225.3091      	1225.3315      	1225.3064      	1225.3016      	1225.3063      	1225.2921      	1225.2368      	1225.2421      	1225.2738      	1225.262       	1225.2871      	1225.2756      	1225.3025      	1225.2892      	1225.2806      	1225.2424      	1225.1945      	1225.2919      	1225.1973      	1225.2367      	1225.1906      	1225.161       	1225.2302      	1225.1752      	1225.2185      	1225.2129      	1225.2278      	1225.1808      	1225.1818      	1225.1436      	1225.1794      	1225.0931      	1225.1593      	1225.1562      	1225.1223      	1225.117       	1225.1772      	1225.1139      	1225.1632      	1225.1213      	1225.1791      	1225.1638      	1225.1061      	1225.165       	1225.1403      	1225.1952      	1225.2739      	1225.4762      	1225.4205      	1225.3491      	1225.2496      	1225.2185      	1225.2429      	1225.2649      	1225.2681      	1225.2286      	1225.2999      	1225.2122      	1225.3335      	1225.2435      	1225.3573      	1225.281       	1225.3137      	1225.3019      	1225.3416      	1225.3519      	1225.3634      	1225.3121      	1225.3423      	
1225.1604      	1225.1288      	1225.1439      	1225.0272      	1225.1819      	1225.1368      	1225.2351      	1225.1165      	1225.2726      	1225.259       	1225.2925      	1225.2124      	1225.269       	1225.2913      	1225.278       	1225.2872      	1225.3107      	1225.2357      	1225.2247      	1225.2859      	1225.231       	1225.2931      	1225.2214      	1225.2108      	1225.256       	1225.2966      	1225.216       	1225.273       	1225.2413      	1225.1753      	1225.2958      	1225.238       	1225.2429      	1225.2943      	1225.2577      	1225.2214      	1225.2228      	1225.2522      	1225.2722      	1225.2745      	1225.2307      	1225.214       	1225.2834      	1225.2306      	1225.257       	1225.2048      	1225.2354      	1225.19        	1225.2719      	1225.2233      	1225.237       	1225.1346      	1225.227       	1225.2231      	1225.2177      	1225.2251      	1225.1873      	1225.2239      	1225.1733      	1225.2205      	1225.2109      	1225.2108      	1225.1938      	1225.1122      	1225.1831      	1225.1267      	1225.2585      	1225.1779      	1225.1422      	1225.1929      	1225.1699      	1225.1312      	1225.1699      	1225.1525      	1225.2023      	1225.1656      	1225.1785      	1225.5345      	1225.3809      	1225.3966      	1225.3807      	1225.2646      	1225.2614      	1225.258       	1225.2722      	1225.3156      	1225.2573      	1225.3295      	1225.3368      	1225.3036      	1225.3572      	1225.3292      	1225.34        	1225.3921      	1225.3446      	1225.3887      	1225.341       	1225.3331      	1225.3463      	1225.3867      	
1225.2949      	1225.2659      	1225.3141      	1225.3414      	1225.3274      	1225.2991      	1225.4009      	1225.3153      	1225.3331      	1225.3894      	1225.3475      	1225.2882      	1225.2772      	1225.3593      	1225.2533      	1225.38        	1225.3495      	1225.3177      	1225.2924      	1225.2734      	1225.3335      	1225.2944      	1225.2947      	1225.2515      	1225.321       	1225.2886      	1225.2551      	1225.2844      	1225.3121      	1225.271       	1225.2811      	1225.2706      	1225.3124      	1225.2753      	1225.3627      	1225.3022      	1225.2733      	1225.2927      	1225.3104      	1225.2313      	1225.3182      	1225.3003      	1225.2733      	1225.2563      	1225.3287      	1225.2701      	1225.2869      	1225.2603      	1225.237       	1225.2616      	1225.2946      	1225.1863      	1225.1982      	1225.241       	1225.1721      	1225.2681      	1225.194       	1225.1294      	1225.241       	1225.1838      	1225.1844      	1225.2146      	1225.2354      	1225.1643      	1225.0865      	1225.2517      	1225.1208      	1225.2437      	1225.2256      	1225.2343      	1225.216       	1225.2113      	1225.255       	1225.2095      	1225.2322      	1225.2406      	1225.3048      	1225.5868      	1225.4305      	1225.4785      	1225.434       	1225.3671      	1225.3911      	1225.3228      	1225.345       	1225.3644      	1225.3928      	1225.3569      	1225.4102      	1225.4114      	1225.4388      	1225.3962      	1225.465       	1225.4308      	1225.41        	1225.4822      	1225.4664      	1225.4434      	1225.42        	1225.4597      	
1225.2235      	1225.2249      	1225.2301      	1225.2277      	1225.2334      	1225.2341      	1225.293       	1225.2272      	1225.304       	1225.2766      	1225.2717      	1225.2859      	1225.196       	1225.243       	1225.1467      	1225.3457      	1225.2734      	1225.3136      	1225.2504      	1225.2245      	1225.275       	1225.2194      	1225.2366      	1225.231       	1225.2802      	1225.2091      	1225.241       	1225.2255      	1225.2114      	1225.1978      	1225.1957      	1225.2806      	1225.1885      	1225.2021      	1225.258       	1225.2322      	1225.2507      	1225.2131      	1225.1428      	1225.2772      	1225.2186      	1225.1886      	1225.1875      	1225.165       	1225.1486      	1225.2264      	1225.2526      	1225.1306      	1225.1268      	1225.2314      	1225.1119      	1225.1758      	1225.1583      	1225.1324      	1225.1753      	1225.1742      	1225.1572      	1225.061       	1225.1122      	1225.1511      	1225.039       	1225.115       	1225.0779      	1225.094       	1225.1107      	1225.0857      	1225.0167      	1225.1663      	1225.1309      	1225.0753      	1225.1027      	1225.1552      	1225.1688      	1225.1215      	1225.1727      	1225.1681      	1225.0916      	1225.4802      	1225.445       	1225.3878      	1225.4199      	1225.2681      	1225.2654      	1225.3209      	1225.2405      	1225.3248      	1225.2928      	1225.2716      	1225.296       	1225.3259      	1225.342       	1225.2688      	1225.3207      	1225.3237      	1225.363       	1225.3466      	1225.3741      	1225.3585      	1225.347       	1225.3822      	
1225.2279      	1225.235       	1225.2064      	1225.2136      	1225.2528      	1225.2932      	1225.2443      	1225.2766      	1225.2017      	1225.3077      	1225.1993      	1225.2644      	1225.2739      	1225.2499      	1225.2178      	1225.2512      	1225.1927      	1225.2585      	1225.2411      	1225.2239      	1225.1954      	1225.2163      	1225.2083      	1225.1997      	1225.1921      	1225.2037      	1225.2375      	1225.1604      	1225.2113      	1225.1604      	1225.16        	1225.1808      	1225.2163      	1225.1779      	1225.1979      	1225.1661      	1225.1859      	1225.0796      	1225.2987      	1225.2095      	1225.1802      	1225.1615      	1225.1885      	1225.1362      	1225.144       	1225.1619      	1225.228       	1225.1523      	1225.1284      	1225.0992      	1225.145       	1225.1542      	1225.0522      	1225.1919      	1225.062       	1225.0684      	1225.0569      	1225.1405      	1225.0355      	1225.0665      	1225.0945      	1225.0831      	1225.0846      	1225.118       	1225.1068      	1225.114       	1225.0464      	1225.0842      	1225.0692      	1225.1074      	1225.0996      	1225.0369      	1225.1509      	1225.0677      	1225.0593      	1225.0743      	1225.1736      	1225.4495      	1225.4109      	1225.3715      	1225.4358      	1225.3507      	1225.2668      	1225.2388      	1225.3082      	1225.2571      	1225.3386      	1225.2714      	1225.2605      	1225.345       	1225.3102      	1225.3114      	1225.3182      	1225.3644      	1225.3054      	1225.3191      	1225.34        	1225.3329      	1225.3497      	1225.3722      	
1225.1333      	1225.0886      	1225.0374      	1225.1282      	1225.1388      	1225.1466      	1225.0985      	1225.1448      	1225.105       	1225.1333      	1225.0802      	1225.1158      	1225.1223      	1225.075       	1225.1226      	1225.0758      	1225.108       	1225.1031      	1225.0679      	1225.0979      	1225.0757      	1225.08        	1225.0663      	1225.0951      	1225.0988      	1225.0925      	1225.0723      	1225.0729      	1225.0818      	1225.0913      	1225.0669      	1225.0704      	1225.0719      	1225.0947      	1225.0371      	1225.0575      	1225.0872      	1225.0575      	1225.053       	1225.0464      	1225.0586      	1225.1082      	1225.1063      	1225.0272      	1224.9309      	1225.0383      	1225.048       	1225.0148      	1225.0138      	1224.9519      	1224.9264      	1225.1272      	1224.9033      	1225.0039      	1225.0219      	1224.9847      	1224.9587      	1225.0039      	1224.9249      	1224.9724      	1225.0216      	1224.9099      	1224.961       	1224.9739      	1224.9406      	1225.0475      	1225.0498      	1224.9451      	1225.0612      	1224.9478      	1225.0242      	1225.0116      	1225.0907      	1225.0187      	1225.0626      	1224.9799      	1225.0735      	1225.1521      	1225.3904      	1225.2335      	1225.3313      	1225.2905      	1225.1638      	1225.1615      	1225.1921      	1225.1666      	1225.1876      	1225.1495      	1225.2628      	1225.1913      	1225.2288      	1225.1982      	1225.2114      	1225.2439      	1225.2396      	1225.2576      	1225.2896      	1225.2557      	1225.2605      	1225.2821      	
1225.1415      	1225.0764      	1225.0354      	1225.0975      	1225.1317      	1225.1427      	1225.1045      	1225.1144      	1225.0903      	1225.045       	1225.0903      	1225.1039      	1225.0508      	1225.0966      	1225.0398      	1225.0532      	1225.0499      	1225.0703      	1225.0123      	1225.0459      	1224.9989      	1225.0349      	1225.0605      	1225.0552      	1224.9734      	1225.0721      	1225.0167      	1225.052       	1225.0607      	1225.0931      	1225.0001      	1225.0714      	1225.0858      	1224.9862      	1225.0337      	1225.0199      	1225.0167      	1225.0443      	1225.0059      	1224.9922      	1225.0604      	1224.9427      	1225.0275      	1224.9551      	1225.0117      	1225.0148      	1224.973       	1225.1313      	1225.1848      	1225.0631      	1224.9834      	1224.8204      	1224.8859      	1224.6229      	1224.5264      	1225.1438      	1224.9872      	1224.8884      	1224.9948      	1224.9462      	1224.8993      	1224.9646      	1224.9211      	1224.9285      	1224.9126      	1224.9241      	1224.9487      	1224.9933      	1224.955       	1224.9563      	1224.9568      	1224.9985      	1225.0349      	1225.014       	1224.9702      	1224.9373      	1225.0216      	1225.0798      	1225.3563      	1225.3005      	1225.2977      	1225.3052      	1225.1477      	1225.1427      	1225.1927      	1225.1849      	1225.1538      	1225.1847      	1225.2169      	1225.2316      	1225.2102      	1225.2706      	1225.2007      	1225.2416      	1225.1887      	1225.2557      	1225.2234      	1225.2075      	1225.2461      	1225.1733      	
1225.1505      	1225.1167      	1225.0093      	1225.1012      	1225.3077      	1225.103       	1225.1023      	1225.1287      	1225.1587      	1225.1434      	1225.162       	1225.137       	1225.1891      	1225.1381      	1225.0837      	1225.0688      	1225.1385      	1225.1411      	1225.051       	1225.1394      	1225.0359      	1225.136       	1225.075       	1225.0613      	1225.0679      	1225.0929      	1225.0493      	1225.0118      	1225.0994      	1225.0646      	1225.1036      	1225.0474      	1225.068       	1225.0774      	1224.9503      	1225.1997      	1225.1028      	1225.0425      	1225.0529      	1225.0665      	1224.9841      	1225.0492      	1225.0201      	1225.1306      	1225.2854      	1225.1765      	1225.174       	1225.2189      	1225.1997      	1225.1062      	1225.046       	1224.95        	1224.7876      	1224.7886      	1224.341       	1224.8862      	1225.0236      	1224.9729      	1225.0411      	1225.0315      	1224.9683      	1225.0178      	1225.0548      	1224.9758      	1225.064       	1225.0447      	1225.057       	1225.0297      	1225.0891      	1225.0763      	1225.0636      	1225.0763      	1225.1024      	1225.1049      	1225.1085      	1225.0747      	1225.1287      	1225.0835      	1225.4976      	1225.3452      	1225.3568      	1225.357       	1225.3099      	1225.256       	1225.1722      	1225.2288      	1225.2869      	1225.2664      	1225.2798      	1225.253       	1225.2847      	1225.286       	1225.2773      	1225.3035      	1225.2988      	1225.345       	1225.2445      	1225.3542      	1225.3174      	1225.2906      	
1225.1652      	1225.0544      	1225.0646      	1225.2704      	1225.1901      	1225.1733      	1225.1641      	1225.1497      	1225.2128      	1225.1895      	1225.1718      	1225.1443      	1225.1721      	1225.1884      	1225.0991      	1225.1694      	1225.1677      	1225.1727      	1225.1095      	1225.1172      	1225.1202      	1225.0691      	1225.1777      	1225.1049      	1225.1074      	1225.0984      	1225.1771      	1225.069       	1225.1147      	1225.1814      	1225.1497      	1225.1624      	1225.0999      	1225.1095      	1225.0697      	1225.0894      	1225.048       	1225.1088      	1225.1222      	1225.079       	1225.3108      	1225.2227      	1225.1458      	1225.1545      	1225.1346      	1225.096       	1225.1466      	1225.1013      	1225.0903      	1225.1239      	1225.0879      	1225.037       	1224.8567      	1224.823       	1224.5039      	1224.7173      	1225.1927      	1225.0565      	1225.0339      	1225.0588      	1225.0938      	1225.1284      	1225.0684      	1225.1001      	1225.0808      	1225.0436      	1225.137       	1225.1147      	1225.1228      	1225.1873      	1225.0659      	1225.1561      	1225.136       	1225.1843      	1225.1891      	1225.2053      	1225.1821      	1225.2404      	1225.4769      	1225.4915      	1225.4484      	1225.4861      	1225.3242      	1225.3425      	1225.3135      	1225.3157      	1225.3634      	1225.2899      	1225.3052      	1225.2883      	1225.3497      	1225.3447      	1225.3768      	1225.3292      	1225.4362      	1225.394       	1225.3708      	1225.3986      	1225.3677      	1225.3518      	
1225.3335      	1225.3695      	1225.2927      	1225.2524      	1225.3484      	1225.3424      	1225.2948      	1225.3407      	1225.3038      	1225.3517      	1225.2251      	1225.2863      	1225.2498      	1225.2246      	1225.2231      	1225.2517      	1225.2495      	1225.198       	1225.204       	1225.2141      	1225.1426      	1225.3042      	1225.2693      	1225.2344      	1225.2665      	1225.1892      	1225.2511      	1225.2424      	1225.2319      	1225.2188      	1225.328       	1225.2404      	1225.278       	1225.2147      	1225.213       	1225.3925      	1225.3081      	1225.4066      	1225.462       	1225.3695      	1225.3064      	1225.2483      	1225.323       	1225.2737      	1225.3308      	1225.2986      	1225.2268      	1225.2167      	1225.3319      	1225.2296      	1225.3284      	1225.1982      	1225.0927      	1225.024       	1224.8613      	1224.7406      	1225.142       	1225.2649      	1225.2495      	1225.2537      	1225.281       	1225.1628      	1225.2631      	1225.2772      	1225.2655      	1225.2344      	1225.2593      	1225.3892      	1225.3237      	1225.2288      	1225.3995      	1225.2788      	1225.3348      	1225.3562      	1225.351       	1225.3596      	1225.4116      	1225.4127      	1225.5411      	1225.7313      	1225.6313      	1225.6459      	1225.6252      	1225.4227      	1225.5272      	1225.4331      	1225.5391      	1225.4921      	1225.5142      	1225.5084      	1225.5348      	1225.505       	1225.4908      	1225.5382      	1225.5317      	1225.5164      	1225.5298      	1225.5018      	1225.5089      	1225.5033      	
1225.496       	1225.4039      	1225.4237      	1225.4857      	1225.4137      	1225.4869      	1225.3597      	1225.4855      	1225.4374      	1225.3689      	1225.4551      	1225.4462      	1225.3386      	1225.481       	1225.4299      	1225.3911      	1225.3832      	1225.3656      	1225.437       	1225.4027      	1225.3726      	1225.4094      	1225.3993      	1225.38        	1225.4033      	1225.4235      	1225.3663      	1225.4246      	1225.4009      	1225.3846      	1225.3619      	1225.5917      	1225.5372      	1225.4994      	1225.6093      	1225.5078      	1225.4719      	1225.3279      	1225.4192      	1225.409       	1225.396       	1225.304       	1225.4088      	1225.4098      	1225.373       	1225.4138      	1225.3918      	1225.4222      	1225.3403      	1225.3676      	1225.285       	1225.3372      	1225.2626      	1225.0767      	1225.022       	1225.1248      	1225.0159      	1225.5067      	1225.3801      	1225.3658      	1225.3739      	1225.453       	1225.4052      	1225.4238      	1225.4757      	1225.4952      	1225.4294      	1225.3965      	1225.4902      	1225.5083      	1225.4445      	1225.4315      	1225.5392      	1225.5278      	1225.4048      	1225.5862      	1225.6366      	1225.5184      	1225.6111      	1225.8805      	1225.8314      	1225.7812      	1225.7634      	1225.6288      	1225.5835      	1225.6372      	1225.6376      	1225.6505      	1225.6322      	1225.5857      	1225.669       	1225.638       	1225.6135      	1225.6641      	1225.6501      	1225.6663      	1225.6473      	1225.6552      	1225.6208      	1225.6354      	
1225.538       	1225.4963      	1225.4481      	1225.5728      	1225.6083      	1225.5881      	1225.5176      	1225.6255      	1225.4902      	1225.5228      	1225.5596      	1225.5619      	1225.448       	1225.5573      	1225.4722      	1225.5477      	1225.5298      	1225.5219      	1225.4667      	1225.533       	1225.4896      	1225.5002      	1225.5472      	1225.5167      	1225.5581      	1225.5046      	1225.3335      	1225.6692      	1225.7942      	1225.698       	1225.6388      	1225.597       	1225.5828      	1225.4598      	1225.6581      	1225.5454      	1225.599       	1225.4944      	1225.5437      	1225.4865      	1225.5472      	1225.5519      	1225.5479      	1225.5415      	1225.5502      	1225.6011      	1225.6526      	1225.5809      	1225.5541      	1225.5912      	1225.5533      	1225.552       	1225.5105      	1225.2994      	1225.3467      	1225.1277      	1225.2634      	1225.6069      	1225.5399      	1225.5411      	1225.5481      	1225.5577      	1225.6033      	1225.5356      	1225.5969      	1225.6052      	1225.6497      	1225.615       	1225.6533      	1225.6399      	1225.6848      	1225.6171      	1225.6859      	1225.6881      	1225.6545      	1225.7208      	1225.7646      	1225.616       	1225.6727      	1226.0559      	1225.9539      	1225.9692      	1225.9529      	1225.8356      	1225.7019      	1225.7557      	1225.8273      	1225.8075      	1225.6825      	1225.8055      	1225.833       	1225.8198      	1225.8195      	1225.7651      	1225.8031      	1225.7827      	1225.8124      	1225.8282      	1225.7262      	1225.7764      	
1225.7665      	1225.7485      	1225.7579      	1225.7349      	1225.7714      	1225.737       	1225.7462      	1225.723       	1225.7233      	1225.7085      	1225.7491      	1225.6548      	1225.7411      	1225.7495      	1225.6361      	1225.7211      	1225.6903      	1225.7009      	1225.6511      	1225.7316      	1225.6555      	1225.5764      	1225.6793      	1225.8834      	1225.9034      	1225.8859      	1225.8207      	1225.6675      	1225.7395      	1225.7098      	1225.6384      	1225.7134      	1225.7129      	1225.6882      	1225.763       	1225.5776      	1225.681       	1225.6906      	1225.6838      	1225.6844      	1225.6652      	1225.6957      	1225.6473      	1225.6251      	1225.6737      	1225.6431      	1225.7001      	1225.6287      	1225.712       	1225.6989      	1225.6602      	1225.7007      	1225.5911      	1225.4829      	1225.4181      	1225.182       	1225.1147      	1225.8407      	1225.6921      	1225.6272      	1225.7266      	1225.6882      	1225.6564      	1225.7539      	1225.6655      	1225.6672      	1225.7355      	1225.6809      	1225.7532      	1225.7504      	1225.6779      	1225.7079      	1225.7456      	1225.7648      	1225.8015      	1225.7554      	1225.7994      	1225.8463      	1225.7831      	1226.1155      	1226.0757      	1226.0029      	1226.0165      	1225.9551      	1225.8794      	1225.814       	1225.7354      	1225.9208      	1225.7214      	1225.8181      	1225.8402      	1225.8688      	1225.8721      	1225.7941      	1225.808       	1225.8064      	1225.7625      	1225.8318      	1225.8079      	1225.8589      	
1225.7341      	1225.7312      	1225.7512      	1225.7122      	1225.8038      	1225.6659      	1225.673       	1225.6492      	1225.7095      	1225.6588      	1225.6501      	1225.6061      	1225.5771      	1225.6804      	1225.6002      	1225.6605      	1225.6317      	1225.6058      	1225.6282      	1225.8142      	1225.8501      	1225.7391      	1225.8104      	1225.755       	1225.7712      	1225.6965      	1225.6907      	1225.5989      	1225.649       	1225.6644      	1225.6564      	1225.6683      	1225.632       	1225.697       	1225.6069      	1225.6016      	1225.6663      	1225.6277      	1225.6467      	1225.6068      	1225.497       	1225.7109      	1225.6324      	1225.6355      	1225.6449      	1225.6316      	1225.6707      	1225.6133      	1225.6229      	1225.6935      	1225.6306      	1225.6299      	1225.6237      	1225.4651      	1225.4126      	1225.0701      	1225.2146      	1225.6228      	1225.6448      	1225.4885      	1225.6952      	1225.6667      	1225.632       	1225.6501      	1225.7068      	1225.7043      	1225.6991      	1225.7303      	1225.6661      	1225.7195      	1225.6727      	1225.6295      	1225.8544      	1225.7263      	1225.7693      	1225.7318      	1225.7373      	1225.7537      	1225.717       	1225.868       	1226.1172      	1226.0024      	1225.97        	1225.8685      	1225.821       	1225.8634      	1225.7654      	1225.6744      	1226.055       	1225.8124      	1225.7865      	1225.8365      	1225.779       	1225.7958      	1225.7571      	1225.8375      	1225.7573      	1225.7424      	1225.7844      	1225.7593      	
1225.6399      	1225.6079      	1225.5072      	1225.5787      	1225.6761      	1225.5753      	1225.5612      	1225.5911      	1225.6036      	1225.5446      	1225.587       	1225.5703      	1225.5292      	1225.5654      	1225.5143      	1225.538       	1225.5536      	1225.8573      	1225.9645      	1225.8309      	1225.656       	1225.5378      	1225.5746      	1225.5521      	1225.5763      	1225.5728      	1225.5603      	1225.4331      	1225.5187      	1225.5747      	1225.5197      	1225.5917      	1225.5444      	1225.5037      	1225.5624      	1225.5587      	1225.5354      	1225.5353      	1225.6083      	1225.5247      	1225.5408      	1225.5399      	1225.5734      	1225.5845      	1225.4624      	1225.5892      	1225.5579      	1225.5715      	1225.5425      	1225.51        	1225.5525      	1225.4846      	1225.4941      	1225.3916      	1225.2677      	1225.0645      	1225.3497      	1225.1072      	1225.5742      	1225.5214      	1225.4891      	1225.4427      	1225.601       	1225.4962      	1225.5653      	1225.52        	1225.596       	1225.5874      	1225.5679      	1225.6105      	1225.5955      	1225.6194      	1225.5944      	1225.6876      	1225.5868      	1225.6354      	1225.6171      	1225.64        	1225.6499      	1225.6818      	1225.9591      	1225.799       	1225.8046      	1225.7915      	1225.6542      	1225.6229      	1225.5734      	1225.591       	1225.6301      	1225.637       	1225.61        	1225.7018      	1225.5687      	1225.6427      	1225.6313      	1225.6345      	1225.6261      	1225.5757      	1225.678       	1225.5759      	
1225.433       	1225.4111      	1225.3759      	1225.3981      	1225.3812      	1225.3439      	1225.3439      	1225.3628      	1225.3398      	1225.3474      	1225.303       	1225.3163      	1225.331       	1225.2872      	1225.3083      	1225.317       	1225.5093      	1225.7385      	1225.5906      	1225.4618      	1225.4456      	1225.2776      	1225.2078      	1225.5594      	1225.2711      	1225.4106      	1225.3835      	1225.3788      	1225.3815      	1225.3724      	1225.3542      	1225.254       	1225.4236      	1225.3856      	1225.4099      	1225.3425      	1225.3107      	1225.4209      	1225.3787      	1225.2543      	1225.4025      	1225.3615      	1225.3302      	1225.4012      	1225.3892      	1225.328       	1225.3457      	1225.3527      	1225.3767      	1225.2915      	1225.3599      	1225.3928      	1225.3324      	1225.3353      	1225.1405      	1225.002       	1224.9769      	1224.9906      	1225.4667      	1225.4081      	1225.2819      	1225.3784      	1225.3977      	1225.38        	1225.3713      	1225.4253      	1225.3735      	1225.4187      	1225.4526      	1225.4136      	1225.4021      	1225.4565      	1225.4216      	1225.4813      	1225.3308      	1225.4315      	1225.4498      	1225.4702      	1225.4305      	1225.5001      	1225.6332      	1225.6716      	1225.6206      	1225.5879      	1225.5353      	1225.4109      	1225.4598      	1225.4666      	1225.4724      	1225.4545      	1225.4484      	1225.4924      	1225.4622      	1225.4475      	1225.4927      	1225.4453      	1225.4261      	1225.4854      	1225.4634      	1225.4138      	
1225.3346      	1225.2742      	1225.23        	1225.31        	1225.2874      	1225.2385      	1225.2717      	1225.2595      	1225.2509      	1225.2511      	1225.1821      	1225.3025      	1225.1917      	1225.1925      	1225.1968      	1225.2535      	1225.3986      	1225.549       	1225.3839      	1225.5011      	1225.4009      	1225.2614      	1225.2837      	1225.3298      	1225.2991      	1225.3114      	1225.2726      	1225.3364      	1225.4125      	1225.2609      	1225.204       	1225.2935      	1225.305       	1225.2944      	1225.3235      	1225.3114      	1225.297       	1225.3242      	1225.2845      	1225.2743      	1225.3668      	1225.2726      	1225.2761      	1225.3368      	1225.3168      	1225.274       	1225.244       	1225.3625      	1225.3064      	1225.3076      	1225.352       	1225.3606      	1225.1975      	1225.3112      	1225.1583      	1225.1068      	1224.8514      	1224.7982      	1225.5176      	1225.3726      	1225.3236      	1225.2816      	1225.3335      	1225.3745      	1225.2775      	1225.3973      	1225.3668      	1225.4774      	1225.3143      	1225.4862      	1225.3972      	1225.4785      	1225.3607      	1225.448       	1225.4507      	1225.4249      	1225.4257      	1225.4589      	1225.4423      	1225.4456      	1225.5522      	1225.8317      	1225.5958      	1225.6732      	1225.5568      	1225.3951      	1225.3982      	1225.413       	1225.4608      	1225.4663      	1225.4169      	1225.3895      	1225.4774      	1225.4471      	1225.4612      	1225.479       	1225.4421      	1225.4591      	1225.4673      	1225.4369      	
1225.3892      	1225.3259      	1225.2991      	1225.3351      	1225.3212      	1225.3763      	1225.2365      	1225.3234      	1225.2463      	1225.2522      	1225.2772      	1225.3801      	1225.3585      	1225.3466      	1225.3191      	1225.2704      	1225.4879      	1225.7092      	1225.5654      	1225.5881      	1225.5305      	1225.412       	1225.4191      	1225.4226      	1225.3881      	1225.4768      	1225.3964      	1225.3937      	1225.3463      	1225.3229      	1225.3928      	1225.3049      	1225.4065      	1225.3274      	1225.3315      	1225.3119      	1225.3219      	1225.3068      	1225.3572      	1225.356       	1225.3508      	1225.387       	1225.3837      	1225.302       	1225.3457      	1225.3618      	1225.4095      	1225.3304      	1225.3722      	1225.3708      	1225.3958      	1225.3762      	1225.3937      	1225.3259      	1225.1531      	1225.0925      	1224.9082      	1224.9775      	1225.4478      	1225.3279      	1225.3723      	1225.4965      	1225.343       	1225.3608      	1225.3749      	1225.4714      	1225.3049      	1225.425       	1225.4316      	1225.3876      	1225.5455      	1225.4388      	1225.3921      	1225.5227      	1225.4161      	1225.2974      	1225.4362      	1225.4368      	1225.4049      	1225.4263      	1225.469       	1225.8296      	1225.6455      	1225.574       	1225.5586      	1225.4219      	1225.38        	1225.4265      	1225.3446      	1225.385       	1225.3857      	1225.3579      	1225.4517      	1225.4556      	1225.3572      	1225.365       	1225.3511      	1225.4122      	1225.3724      	1225.3787      	
1225.3351      	1225.367       	1225.3767      	1225.3308      	1225.2963      	1225.3257      	1225.2739      	1225.3055      	1225.2333      	1225.3304      	1225.328       	1225.286       	1225.217       	1225.3241      	1225.2832      	1225.2854      	1225.3202      	1225.7056      	1225.5591      	1225.5039      	1225.5306      	1225.4504      	1225.3445      	1225.3868      	1225.3418      	1225.4166      	1225.2578      	1225.3925      	1225.3309      	1225.4011      	1225.3433      	1225.3895      	1225.3846      	1225.3801      	1225.3112      	1225.4358      	1225.3474      	1225.4167      	1225.385       	1225.3495      	1225.43        	1225.3694      	1225.3948      	1225.3915      	1225.3965      	1225.3837      	1225.4603      	1225.329       	1225.4023      	1225.4419      	1225.4845      	1225.4001      	1225.3694      	1225.4384      	1225.2916      	1225.1797      	1224.9502      	1224.8823      	1225.4227      	1225.4324      	1225.4265      	1225.4142      	1225.493       	1225.3901      	1225.4087      	1225.5286      	1225.4631      	1225.4481      	1225.4615      	1225.4602      	1225.5432      	1225.4774      	1225.4347      	1225.4412      	1225.4772      	1225.4918      	1225.4698      	1225.4434      	1225.5297      	1225.5223      	1225.406       	1225.8436      	1225.6685      	1225.6533      	1225.5864      	1225.433       	1225.5144      	1225.4         	1225.3462      	1225.4915      	1225.3752      	1225.4025      	1225.5092      	1225.4637      	1225.425       	1225.4619      	1225.4519      	1225.4199      	1225.4668      	1225.4268      	
1225.3477      	1225.3562      	1225.3419      	1225.3124      	1225.2108      	1225.48        	1225.3517      	1225.3276      	1225.363       	1225.3282      	1225.3179      	1225.3489      	1225.3345      	1225.3064      	1225.3362      	1225.3729      	1225.2673      	1225.7065      	1225.6414      	1225.6085      	1225.6316      	1225.5513      	1225.4669      	1225.4813      	1225.4308      	1225.497       	1225.458       	1225.4227      	1225.4491      	1225.4084      	1225.4249      	1225.5155      	1225.3859      	1225.4071      	1225.3483      	1225.448       	1225.4034      	1225.4084      	1225.4841      	1225.4412      	1225.368       	1225.4856      	1225.3761      	1225.489       	1225.3784      	1225.4583      	1225.4419      	1225.4255      	1225.4336      	1225.4393      	1225.4425      	1225.3794      	1225.4851      	1225.4432      	1225.3228      	1225.2242      	1225.1257      	1224.8641      	1225.3099      	1225.5431      	1225.446       	1225.4353      	1225.401       	1225.3811      	1225.4272      	1225.45        	1225.4406      	1225.5181      	1225.3904      	1225.5287      	1225.3962      	1225.4747      	1225.4247      	1225.5369      	1225.3645      	1225.4143      	1225.4952      	1225.4714      	1225.4702      	1225.4343      	1225.4608      	1225.7584      	1225.6392      	1225.5973      	1225.6105      	1225.5184      	1225.4526      	1225.4105      	1225.349       	1225.3966      	1225.446       	1225.4111      	1225.449       	1225.4508      	1225.4266      	1225.4562      	1225.4067      	1225.4694      	1225.4432      	1225.4103      	
1225.4639      	1225.4491      	1225.446       	1225.3665      	1225.5001      	1225.4327      	1225.3484      	1225.3539      	1225.4288      	1225.4286      	1225.4247      	1225.4286      	1225.4594      	1225.4548      	1225.4733      	1225.3527      	1225.4076      	1225.5452      	1225.8489      	1225.7104      	1225.725       	1225.6299      	1225.5017      	1225.5204      	1225.5438      	1225.5365      	1225.5533      	1225.5157      	1225.474       	1225.5385      	1225.5051      	1225.5212      	1225.51        	1225.5007      	1225.47        	1225.49        	1225.5153      	1225.5002      	1225.4546      	1225.5939      	1225.4926      	1225.5685      	1225.4728      	1225.56        	1225.5278      	1225.5317      	1225.5731      	1225.498       	1225.4977      	1225.5443      	1225.5547      	1225.5454      	1225.6146      	1225.5331      	1225.4608      	1225.2891      	1225.2449      	1225.1613      	1225.0806      	1225.684       	1225.5936      	1225.4917      	1225.5636      	1225.5717      	1225.5325      	1225.5242      	1225.3871      	1225.586       	1225.5264      	1225.5367      	1225.575       	1225.5537      	1225.4675      	1225.5676      	1225.5221      	1225.507       	1225.6008      	1225.5151      	1225.5669      	1225.4971      	1225.5637      	1225.7855      	1225.7843      	1225.7083      	1225.7037      	1225.4598      	1225.4961      	1225.4584      	1225.3704      	1225.433       	1225.4894      	1225.4076      	1225.4669      	1225.412       	1225.4974      	1225.4606      	1225.414       	1225.4169      	1225.4849      	1225.4515      	
1225.4806      	1225.3455      	1225.352       	1225.3612      	1225.3971      	1225.4509      	1225.3522      	1225.2946      	1225.3098      	1225.4504      	1225.3353      	1225.3029      	1225.3962      	1225.4589      	1225.3005      	1225.3835      	1225.3966      	1225.4478      	1225.7896      	1225.6613      	1225.6166      	1225.6672      	1225.5339      	1225.5234      	1225.3927      	1225.5824      	1225.435       	1225.5181      	1225.4454      	1225.4338      	1225.4088      	1225.5193      	1225.3715      	1225.5372      	1225.5093      	1225.4846      	1225.4698      	1225.4597      	1225.4548      	1225.4818      	1225.4788      	1225.4648      	1225.4714      	1225.4858      	1225.4719      	1225.487       	1225.4878      	1225.4908      	1225.5236      	1225.4836      	1225.5299      	1225.4929      	1225.5027      	1225.4967      	1225.5583      	1225.3345      	1225.315       	1224.963       	1225.0544      	1225.6847      	1225.5558      	1225.4773      	1225.4786      	1225.5343      	1225.4445      	1225.527       	1225.5511      	1225.538       	1225.5774      	1225.5541      	1225.506       	1225.5736      	1225.5549      	1225.5314      	1225.4828      	1225.5254      	1225.4712      	1225.402       	1225.4994      	1225.4668      	1225.5386      	1225.5789      	1225.7802      	1225.6302      	1225.6802      	1225.476       	1225.4249      	1225.3872      	1225.3582      	1225.4608      	1225.3654      	1225.4061      	1225.4155      	1225.4141      	1225.3755      	1225.3282      	1225.385       	1225.3842      	1225.3635      	1225.4078      	
1225.454       	1225.4519      	1225.4646      	1225.4519      	1225.4915      	1225.424       	1225.4415      	1225.4933      	1225.3856      	1225.4767      	1225.5046      	1225.4634      	1225.4683      	1225.486       	1225.5134      	1225.4993      	1225.4592      	1225.4948      	1225.8776      	1225.782       	1225.7484      	1225.7233      	1225.6407      	1225.567       	1225.5107      	1225.575       	1225.5768      	1225.6167      	1225.586       	1225.546       	1225.4581      	1225.5985      	1225.5917      	1225.4944      	1225.5039      	1225.5509      	1225.5573      	1225.5046      	1225.5243      	1225.5764      	1225.5042      	1225.5503      	1225.5154      	1225.47        	1225.5518      	1225.5181      	1225.5935      	1225.4851      	1225.5503      	1225.5717      	1225.584       	1225.581       	1225.5497      	1225.5824      	1225.6447      	1225.4331      	1225.371       	1225.1564      	1224.961       	1225.6086      	1225.5771      	1225.5813      	1225.5371      	1225.504       	1225.6425      	1225.4884      	1225.6375      	1225.5944      	1225.5848      	1225.4963      	1225.5692      	1225.6611      	1225.6128      	1225.6564      	1225.5977      	1225.6691      	1225.5525      	1225.5862      	1225.636       	1225.6166      	1225.5848      	1225.7069      	1225.9548      	1225.7656      	1225.6758      	1225.6986      	1225.5292      	1225.4569      	1225.6033      	1225.6001      	1225.5165      	1225.5028      	1225.5496      	1225.5906      	1225.5455      	1225.4928      	1225.512       	1225.5071      	1225.4745      	1225.491       	
1225.6991      	1225.6417      	1225.6664      	1225.7638      	1225.7114      	1225.7291      	1225.7206      	1225.7296      	1225.7163      	1225.7036      	1225.7296      	1225.7343      	1225.7303      	1225.7228      	1225.7847      	1225.7211      	1225.7701      	1225.7992      	1226.0966      	1226.034       	1225.9836      	1225.9897      	1225.9368      	1225.8385      	1225.7836      	1225.8682      	1225.8563      	1225.8612      	1225.8118      	1225.8867      	1225.8761      	1225.8438      	1225.8193      	1225.8184      	1225.8679      	1225.8942      	1225.8312      	1225.9116      	1225.8782      	1225.8333      	1225.8085      	1225.9054      	1225.8667      	1225.8712      	1225.9281      	1225.8632      	1225.911       	1225.9025      	1225.9553      	1225.7589      	1225.9154      	1225.94        	1225.9067      	1225.9321      	1225.9976      	1225.9056      	1225.7693      	1225.5728      	1225.7661      	1225.5864      	1226.058       	1225.9548      	1225.9712      	1225.9604      	1226.0066      	1225.8856      	1225.9719      	1225.9695      	1225.9149      	1225.9963      	1225.927       	1225.9678      	1225.9495      	1225.9495      	1225.9232      	1225.9421      	1225.8868      	1225.9329      	1225.8918      	1225.9429      	1225.9358      	1225.8394      	1226.1958      	1226.0918      	1226.0188      	1226.0172      	1225.8827      	1225.8136      	1225.8456      	1225.9167      	1225.8556      	1225.6995      	1226.0183      	1225.8147      	1225.8079      	1225.8522      	1225.8901      	1225.8748      	1225.854       	1225.7948      	
1226.1464      	1226.0651      	1226.0309      	1226.085       	1226.0398      	1226.0168      	1226.0415      	1226.0895      	1226.012       	1226.0559      	1226.0416      	1226.0742      	1226.0199      	1226.0773      	1226.0852      	1226.0797      	1226.093       	1226.1276      	1226.2583      	1226.4487      	1226.3784      	1226.3536      	1226.3062      	1226.2343      	1226.1671      	1226.2235      	1226.236       	1226.0627      	1226.1709      	1226.2539      	1226.2294      	1226.2795      	1226.1589      	1226.2697      	1226.1603      	1226.2333      	1226.1758      	1226.246       	1226.2362      	1226.2031      	1226.2489      	1226.2491      	1226.1965      	1226.3083      	1226.2483      	1226.2825      	1226.2307      	1226.1847      	1226.302       	1226.2284      	1226.2611      	1226.2657      	1226.2198      	1226.2983      	1226.297       	1226.1624      	1226.0508      	1225.9891      	1225.7854      	1225.8516      	1226.3525      	1226.2682      	1226.3485      	1226.2184      	1226.1796      	1226.3036      	1226.1886      	1226.246       	1226.2239      	1226.2726      	1226.216       	1226.2589      	1226.2281      	1226.2078      	1226.1661      	1226.1849      	1226.2052      	1226.1692      	1226.091       	1226.2013      	1226.1858      	1226.1705      	1226.4553      	1226.4348      	1226.3711      	1226.3094      	1226.1962      	1226.0913      	1226.1206      	1226.1226      	1226.177       	1226.125       	1226.1047      	1226.1124      	1226.2623      	1226.0431      	1226.1077      	1226.1854      	1226.172       	1226.1753      	
1226.3187      	1226.3015      	1226.2535      	1226.3401      	1226.3202      	1226.3615      	1226.3401      	1226.3572      	1226.3577      	1226.3224      	1226.3966      	1226.3457      	1226.4045      	1226.3806      	1226.4222      	1226.4052      	1226.4415      	1226.4305      	1226.4346      	1226.7325      	1226.6602      	1226.6099      	1226.6288      	1226.4275      	1226.5145      	1226.4231      	1226.2988      	1226.593       	1226.3901      	1226.473       	1226.466       	1226.455       	1226.529       	1226.4723      	1226.409       	1226.4325      	1226.3804      	1226.4581      	1226.477       	1226.4995      	1226.5009      	1226.4791      	1226.472       	1226.5311      	1226.5269      	1226.5328      	1226.5013      	1226.5409      	1226.5017      	1226.4314      	1226.5425      	1226.5901      	1226.5002      	1226.5195      	1226.5438      	1226.5409      	1226.4358      	1226.287       	1226.091       	1225.9067      	1226.6835      	1226.61        	1226.5592      	1226.4846      	1226.4338      	1226.4504      	1226.5046      	1226.4877      	1226.4841      	1226.4446      	1226.5282      	1226.5042      	1226.4386      	1226.4539      	1226.4474      	1226.4618      	1226.4941      	1226.3619      	1226.3685      	1226.386       	1226.3796      	1226.3859      	1226.6755      	1226.6917      	1226.595       	1226.5712      	1226.4825      	1226.351       	1226.332       	1226.3732      	1226.3088      	1226.4354      	1226.2828      	1226.4585      	1226.3344      	1226.3542      	1226.4595      	1226.3799      	1226.382       	1226.3625      	
1226.4342      	1226.3702      	1226.3396      	1226.3151      	1226.384       	1226.4219      	1226.3982      	1226.4329      	1226.3948      	1226.4474      	1226.4327      	1226.4788      	1226.4698      	1226.4757      	1226.4785      	1226.503       	1226.4246      	1226.4954      	1226.4917      	1226.8142      	1226.7032      	1226.6296      	1226.6622      	1226.4855      	1226.5376      	1226.511       	1226.4333      	1226.5148      	1226.4641      	1226.4563      	1226.4752      	1226.4573      	1226.4698      	1226.4728      	1226.4631      	1226.5034      	1226.4514      	1226.4397      	1226.4861      	1226.45        	1226.4786      	1226.4312      	1226.4384      	1226.453       	1226.4617      	1226.5447      	1226.4712      	1226.4435      	1226.462       	1226.493       	1226.4984      	1226.4358      	1226.466       	1226.5347      	1226.4921      	1226.522       	1226.3394      	1226.2712      	1226.1505      	1226.1063      	1226.295       	1226.5415      	1226.4785      	1226.4894      	1226.4727      	1226.4016      	1226.4784      	1226.4078      	1226.4558      	1226.451       	1226.4717      	1226.5044      	1226.3754      	1226.4695      	1226.395       	1226.3889      	1226.3801      	1226.3429      	1226.3794      	1226.3728      	1226.3534      	1226.3181      	1226.4907      	1226.6881      	1226.4977      	1226.478       	1226.4515      	1226.3376      	1226.3405      	1226.2704      	1226.3378      	1226.3582      	1226.233       	1226.3312      	1226.3201      	1226.2701      	1226.2678      	1226.1486      	1226.2682      	1226.1652      	
1226.3867      	1226.3416      	1226.3667      	1226.4038      	1226.4152      	1226.4788      	1226.4471      	1226.4731      	1226.4246      	1226.414       	1226.4974      	1226.492       	1226.4824      	1226.4237      	1226.5027      	1226.4825      	1226.4701      	1226.4438      	1226.4661      	1226.6777      	1226.8196      	1226.6653      	1226.6942      	1226.5988      	1226.433       	1226.4497      	1226.5702      	1226.4845      	1226.4875      	1226.4917      	1226.4735      	1226.479       	1226.529       	1226.4829      	1226.504       	1226.526       	1226.5403      	1226.5011      	1226.491       	1226.5471      	1226.4933      	1226.4974      	1226.4951      	1226.576       	1226.484       	1226.5273      	1226.5859      	1226.5618      	1226.5276      	1226.5111      	1226.596       	1226.4824      	1226.6284      	1226.4991      	1226.539       	1226.5896      	1226.4922      	1226.3885      	1226.1526      	1226.272       	1226.0961      	1226.6486      	1226.553       	1226.5173      	1226.5598      	1226.5684      	1226.4624      	1226.4894      	1226.4852      	1226.4347      	1226.4976      	1226.4974      	1226.4564      	1226.4398      	1226.4423      	1226.4216      	1226.4305      	1226.414       	1226.4012      	1226.3839      	1226.388       	1226.396       	1226.4065      	1226.7216      	1226.6208      	1226.5369      	1226.5491      	1226.4103      	1226.3094      	1226.3427      	1226.3164      	1226.3424      	1226.206       	1226.3889      	1226.2922      	1226.2123      	1226.3798      	1226.2466      	1226.1677      	1226.3184      	
1226.2976      	1226.3147      	1226.3191      	1226.2823      	1226.3716      	1226.3047      	1226.2999      	1226.399       	1226.3652      	1226.4006      	1226.3916      	1226.4532      	1226.4436      	1226.2891      	1226.4773      	1226.4612      	1226.3638      	1226.3583      	1226.4302      	1226.4968      	1226.739       	1226.6064      	1226.6002      	1226.5267      	1226.4167      	1226.4019      	1226.4182      	1226.3811      	1226.4307      	1226.4524      	1226.4315      	1226.3799      	1226.4583      	1226.379       	1226.3654      	1226.4218      	1226.3784      	1226.35        	1226.4089      	1226.364       	1226.365       	1226.409       	1226.3588      	1226.4316      	1226.3788      	1226.3359      	1226.1292      	1225.9764      	1226.3417      	1226.4197      	1226.4044      	1226.3816      	1226.4122      	1226.4064      	1226.3837      	1226.4363      	1226.3865      	1226.2571      	1226.1442      	1225.9406      	1225.9169      	1226.5486      	1226.4264      	1226.347       	1226.3964      	1226.341       	1226.3182      	1226.3711      	1226.3027      	1226.3484      	1226.2827      	1226.315       	1226.2759      	1226.2366      	1226.2521      	1226.2507      	1226.2482      	1226.1636      	1226.2993      	1226.1589      	1226.1692      	1226.1472      	1226.1437      	1226.4662      	1226.4133      	1226.3318      	1226.3403      	1226.2872      	1226.2095      	1226.1271      	1226.1283      	1226.0845      	1226.23        	1225.9807      	1226.1375      	1226.1232      	1226.205       	1226.0923      	1226.0585      	1226.0027      	
1226.2786      	1226.2571      	1226.2721      	1226.3253      	1226.3036      	1226.2997      	1226.344       	1226.3208      	1226.3624      	1226.3071      	1226.405       	1226.3665      	1226.5299      	1226.3022      	1226.4026      	1226.4163      	1226.3279      	1226.4271      	1226.3677      	1226.5417      	1226.7792      	1226.5607      	1226.5808      	1226.542       	1226.4503      	1226.3882      	1226.177       	1226.4792      	1226.3721      	1226.3113      	1226.4031      	1226.409       	1226.4056      	1226.3259      	1226.4276      	1226.4143      	1226.3605      	1226.3953      	1226.4406      	1226.4137      	1226.4349      	1226.4231      	1226.4213      	1226.4386      	1226.4725      	1226.4432      	1226.5228      	1226.4283      	1226.4808      	1226.4305      	1226.4585      	1226.413       	1226.3989      	1226.4796      	1226.4733      	1226.4844      	1226.3893      	1226.2452      	1226.11        	1225.9338      	1226.1478      	1226.3651      	1226.4958      	1226.4169      	1226.4221      	1226.3829      	1226.3608      	1226.4103      	1226.3406      	1226.3314      	1226.2616      	1226.3721      	1226.2993      	1226.2428      	1226.281       	1226.2488      	1226.1866      	1226.261       	1226.1731      	1226.2325      	1226.1818      	1226.1965      	1226.1697      	1226.3262      	1226.4866      	1226.2805      	1226.2568      	1226.304       	1226.2937      	1226.214       	1226.1926      	1226.1224      	1226.1184      	1225.9999      	1226.1353      	1226.0728      	1226.1798      	1226.0461      	1226.0424      	1226.0747      	
1226.453       	1226.3995      	1226.3356      	1226.4424      	1226.459       	1226.4486      	1226.4509      	1226.4364      	1226.4329      	1226.4419      	1226.4474      	1226.4851      	1226.4344      	1226.4484      	1226.5305      	1226.5527      	1226.4478      	1226.4846      	1226.5151      	1226.489       	1226.7219      	1226.7504      	1226.689       	1226.6716      	1226.6029      	1226.3759      	1226.391       	1226.4885      	1226.5951      	1226.5112      	1226.4402      	1226.468       	1226.4823      	1226.4608      	1226.4286      	1226.5165      	1226.4594      	1226.4565      	1226.5293      	1226.5073      	1226.5468      	1226.5323      	1226.5529      	1226.5382      	1226.4907      	1226.5284      	1226.5583      	1226.477       	1226.531       	1226.499       	1226.494       	1226.5103      	1226.4744      	1226.5175      	1226.5168      	1226.5171      	1226.5098      	1226.3894      	1226.2546      	1226.0804      	1226.1248      	1226.4221      	1226.533       	1226.489       	1226.4526      	1226.5005      	1226.4663      	1226.3878      	1226.474       	1226.4015      	1226.4194      	1226.4305      	1226.3544      	1226.3286      	1226.3547      	1226.365       	1226.3247      	1226.3215      	1226.3751      	1226.3331      	1226.296       	1226.2943      	1226.3335      	1226.3004      	1226.3353      	1226.3624      	1226.4618      	1226.371       	1226.2948      	1226.5226      	1226.2195      	1226.1976      	1226.2681      	1226.1643      	1226.0573      	1226.2363      	1226.3198      	1226.1531      	1226.1539      	1226.034       	
1226.4116      	1226.3488      	1226.3728      	1226.4639      	1226.4666      	1226.4891      	1226.4344      	1226.466       	1226.4745      	1226.4637      	1226.493       	1226.5015      	1226.4927      	1226.5171      	1226.4546      	1226.4807      	1226.4647      	1226.5115      	1226.5272      	1226.4323      	1226.6337      	1226.8788      	1226.6151      	1226.6613      	1226.5848      	1226.4773      	1226.5061      	1226.4895      	1226.4368      	1226.4972      	1226.4849      	1226.4973      	1226.5096      	1226.5093      	1226.4386      	1226.5009      	1226.5073      	1226.5405      	1226.5018      	1226.4825      	1226.4747      	1226.5223      	1226.5358      	1226.5363      	1226.4937      	1226.4763      	1226.5686      	1226.4915      	1226.5432      	1226.4877      	1226.5277      	1226.5258      	1226.4738      	1226.5898      	1226.532       	1226.4583      	1226.5276      	1226.4062      	1226.2465      	1226.1647      	1226.031       	1226.0671      	1226.5588      	1226.402       	1226.3807      	1226.3002      	1226.3907      	1226.3655      	1226.331       	1226.355       	1226.3684      	1226.3126      	1226.2705      	1226.2579      	1226.3704      	1226.2333      	1226.3013      	1226.2405      	1226.2911      	1226.3524      	1226.3007      	1226.2719      	1226.3728      	1226.2352      	1226.3813      	1226.218       	1226.3619      	1226.3612      	1226.2446      	1226.4247      	1226.313       	1226.1376      	1226.0637      	1226.1587      	1226.2812      	1226.2189      	1226.1307      	1226.2253      	1226.3878      	1226.2798      	
1226.3352      	1226.3069      	1226.2557      	1226.3909      	1226.447       	1226.4003      	1226.3318      	1226.4265      	1226.3679      	1226.428       	1226.398       	1226.438       	1226.4708      	1226.4263      	1226.4381      	1226.422       	1226.4606      	1226.3901      	1226.3536      	1226.3839      	1226.369       	1226.6659      	1226.5924      	1226.5822      	1226.5199      	1226.3367      	1226.3743      	1226.3698      	1226.3915      	1226.4269      	1226.3451      	1226.405       	1226.3969      	1226.3419      	1226.4153      	1226.3268      	1226.4025      	1226.3662      	1226.3535      	1226.4254      	1226.3954      	1226.4113      	1226.3462      	1226.4569      	1226.4188      	1226.3645      	1226.4113      	1226.393       	1226.4459      	1226.4019      	1226.3826      	1226.3667      	1226.4336      	1226.4004      	1226.3755      	1226.4001      	1226.3938      	1226.3195      	1226.094       	1226.0239      	1225.935       	1225.9384      	1226.4279      	1226.3008      	1226.3057      	1226.3289      	1226.1925      	1226.3196      	1226.2802      	1226.2628      	1226.2638      	1226.2811      	1226.2626      	1226.1868      	1226.2152      	1226.231       	1226.2281      	1226.2194      	1226.1978      	1226.1929      	1226.2009      	1226.1423      	1226.2045      	1226.1954      	1226.1283      	1226.2147      	1226.1917      	1226.1033      	1226.1213      	1226.2833      	1226.0505      	1226.0741      	1226.0541      	1226.1357      	1226.381       	1226.161       	1226.1761      	1226.2633      	1226.1544      	1226.2096      	
1226.2659      	1226.2642      	1226.2917      	1226.2981      	1226.3538      	1226.3378      	1226.2767      	1226.3999      	1226.3771      	1226.3792      	1226.3221      	1226.3756      	1226.3796      	1226.4027      	1226.3749      	1226.3693      	1226.3546      	1226.4082      	1226.3643      	1226.3923      	1226.377       	1226.8158      	1226.6027      	1226.6328      	1226.6077      	1226.4568      	1226.3029      	1226.3378      	1226.4325      	1226.3345      	1226.3866      	1226.2799      	1226.4009      	1226.3827      	1226.436       	1226.3953      	1226.3835      	1226.351       	1226.3928      	1226.3533      	1226.366       	1226.4231      	1226.4393      	1226.3859      	1226.3901      	1226.365       	1226.4125      	1226.3695      	1226.3674      	1226.3767      	1226.3108      	1226.3468      	1226.3905      	1226.3557      	1226.3235      	1226.2905      	1226.3528      	1226.3036      	1226.1168      	1226.0739      	1225.8176      	1225.9253      	1226.3801      	1226.3225      	1226.3589      	1226.3304      	1226.3206      	1226.2665      	1226.2175      	1226.1748      	1226.2244      	1226.2375      	1226.1901      	1226.1854      	1226.1532      	1226.1964      	1226.1804      	1226.1112      	1226.2356      	1226.1439      	1226.2296      	1226.1202      	1226.2305      	1226.1252      	1226.176       	1226.1528      	1226.188       	1226.1202      	1226.1652      	1226.0957      	1226.1129      	1226.1063      	1226.1499      	1226.1565      	1226.105       	1226.1592      	1226.1672      	1226.1321      	1226.2212      	1226.1866      	
1226.3003      	1226.3081      	1226.3607      	1226.3713      	1226.3499      	1226.3733      	1226.38        	1226.3306      	1226.412       	1226.3977      	1226.4148      	1226.3517      	1226.3966      	1226.3478      	1226.3749      	1226.3287      	1226.3372      	1226.361       	1226.3806      	1226.3308      	1226.3182      	1226.6753      	1226.5643      	1226.4773      	1226.5354      	1226.3989      	1226.2295      	1226.2856      	1226.2708      	1226.3447      	1226.3025      	1226.2922      	1226.3257      	1226.2452      	1226.308       	1226.3384      	1226.305       	1226.3556      	1226.2892      	1226.3846      	1226.3778      	1226.383       	1226.3448      	1226.3143      	1226.3544      	1226.349       	1226.3179      	1226.353       	1226.3224      	1226.3278      	1226.355       	1226.3016      	1226.2599      	1226.3528      	1226.2827      	1226.2947      	1226.2909      	1226.2866      	1226.1759      	1225.8881      	1225.92        	1225.8865      	1225.9946      	1226.337       	1226.3198      	1226.2465      	1226.1344      	1226.2063      	1226.1583      	1226.1365      	1226.2174      	1226.1821      	1226.1024      	1226.1613      	1226.0986      	1226.1711      	1226.1086      	1226.1072      	1226.0903      	1226.0865      	1226.0773      	1226.0186      	1226.1364      	1226.1062      	1226.0717      	1226.1409      	1226.1018      	1226.067       	1226.201       	1226.1351      	1226.0333      	1226.1393      	1226.156       	1226.168       	1226.1328      	1226.1956      	1226.1184      	1226.1392      	1226.2153      	1226.0818      	
1226.2516      	1226.1796      	1226.0278      	1226.2128      	1226.2668      	1226.2657      	1226.2898      	1226.3944      	1226.3817      	1226.3698      	1226.379       	1226.3528      	1226.352       	1226.3739      	1226.3595      	1226.4185      	1226.3127      	1226.3013      	1226.3801      	1226.3716      	1226.3081      	1226.655       	1226.5681      	1226.4567      	1226.3318      	1226.396       	1226.2668      	1226.3168      	1226.3058      	1226.2754      	1226.3333      	1226.2877      	1226.3618      	1226.2932      	1226.3156      	1226.401       	1226.3779      	1226.3444      	1226.3201      	1226.3829      	1226.346       	1226.3734      	1226.3438      	1226.3473      	1226.3718      	1226.3044      	1226.3086      	1226.3856      	1226.3608      	1226.3152      	1226.3733      	1226.3251      	1226.353       	1226.3263      	1226.3293      	1226.3265      	1226.3767      	1226.3695      	1226.2499      	1226.1359      	1226.0651      	1225.7993      	1226.003       	1226.4338      	1226.3118      	1226.3046      	1226.2905      	1226.2468      	1226.1785      	1226.2953      	1226.2709      	1226.218       	1226.2404      	1226.219       	1226.1973      	1226.3195      	1226.2122      	1226.2222      	1226.2339      	1226.2869      	1226.1787      	1226.2665      	1226.2483      	1226.2656      	1226.2499      	1226.2322      	1226.2537      	1226.2345      	1226.2714      	1226.2765      	1226.2288      	1226.2435      	1226.2759      	1226.3231      	1226.206       	1226.3058      	1226.3394      	1226.3135      	1226.2544      	1226.2834      	
1226.5155      	1226.4976      	1226.4761      	1226.5675      	1226.6036      	1226.5576      	1226.5941      	1226.6248      	1226.6001      	1226.5895      	1226.6158      	1226.59        	1226.5674      	1226.578       	1226.573       	1226.5973      	1226.5525      	1226.5247      	1226.5385      	1226.5295      	1226.4839      	1226.6555      	1226.8651      	1226.7372      	1226.7202      	1226.6305      	1226.6199      	1226.4838      	1226.5685      	1226.6177      	1226.5688      	1226.6125      	1226.5955      	1226.5658      	1226.5988      	1226.5756      	1226.6232      	1226.6077      	1226.6366      	1226.5922      	1226.6716      	1226.674       	1226.6073      	1226.68        	1226.565       	1226.6705      	1226.6222      	1226.59        	1226.6405      	1226.5793      	1226.5979      	1226.6058      	1226.6112      	1226.6327      	1226.6008      	1226.5697      	1226.6661      	1226.3534      	1226.5984      	1226.4188      	1226.3301      	1226.1873      	1226.0524      	1226.6101      	1226.5894      	1226.5568      	1226.5026      	1226.5199      	1226.5093      	1226.5349      	1226.4912      	1226.5415      	1226.5087      	1226.4718      	1226.4724      	1226.5222      	1226.4719      	1226.3861      	1226.5782      	1226.4103      	1226.4976      	1226.4377      	1226.4078      	1226.5225      	1226.45        	1226.4679      	1226.4941      	1226.4708      	1226.5029      	1226.5304      	1226.5454      	1226.473       	1226.5591      	1226.5409      	1226.5143      	1226.5616      	1226.5466      	1226.5411      	1226.6079      	1226.5552      	
1226.7579      	1226.7148      	1226.7511      	1226.8339      	1226.7675      	1226.8253      	1226.7919      	1226.8658      	1226.7511      	1226.7926      	1226.8586      	1226.8104      	1226.8116      	1226.8306      	1226.827       	1226.779       	1226.8059      	1226.7668      	1226.7456      	1226.7719      	1226.7734      	1226.7089      	1227.0911      	1226.9735      	1226.9279      	1226.9302      	1226.7878      	1226.7067      	1226.7714      	1226.7101      	1226.803       	1226.8628      	1226.761       	1226.8247      	1226.8411      	1226.888       	1226.8544      	1226.8235      	1226.8738      	1226.8943      	1226.9092      	1226.8883      	1226.877       	1226.888       	1226.8407      	1226.8468      	1226.8741      	1226.8647      	1226.9025      	1226.7838      	1226.8783      	1226.7775      	1226.8801      	1226.7476      	1226.8434      	1226.7393      	1226.8364      	1226.7218      	1226.6421      	1226.7975      	1226.7175      	1226.7103      	1226.4094      	1226.6086      	1226.7727      	1226.8322      	1226.769       	1226.7365      	1226.7091      	1226.7915      	1226.6547      	1226.7384      	1226.7405      	1226.6451      	1226.6997      	1226.6934      	1226.6613      	1226.6841      	1226.6624      	1226.7029      	1226.6981      	1226.7177      	1226.716       	1226.7444      	1226.7338      	1226.7502      	1226.7432      	1226.7372      	1226.7559      	1226.7792      	1226.7651      	1226.6986      	1226.8276      	1226.7599      	1226.7982      	1226.7932      	1226.8162      	1226.7816      	1226.8959      	1226.8022      	
1226.8726      	1226.9104      	1226.9501      	1226.963       	1226.9471      	1226.965       	1226.9666      	1226.9548      	1226.988       	1227.0076      	1227.0172      	1226.9852      	1227.0314      	1226.9388      	1226.9504      	1226.9313      	1226.8984      	1227.0054      	1226.9556      	1226.909       	1226.9089      	1226.9254      	1227.2249      	1227.1858      	1227.0726      	1227.1229      	1227.0206      	1226.8817      	1226.822       	1227.0454      	1226.9581      	1226.8253      	1227.063       	1226.9397      	1226.9204      	1227.0035      	1226.9465      	1227.0051      	1226.9803      	1226.9677      	1227.0212      	1226.9739      	1226.9584      	1226.9689      	1226.9989      	1226.9861      	1226.9471      	1226.8623      	1226.9075      	1226.8951      	1226.8204      	1226.8761      	1226.8497      	1226.8007      	1226.9028      	1226.6923      	1226.9811      	1226.855       	1226.8267      	1226.7532      	1226.7334      	1226.8987      	1226.3088      	1226.8628      	1226.893       	1226.8683      	1226.8602      	1226.7885      	1226.7943      	1226.8029      	1226.7424      	1226.857       	1226.8014      	1226.7927      	1226.7405      	1226.8148      	1226.8368      	1226.779       	1226.7917      	1226.8065      	1226.8429      	1226.8024      	1226.7662      	1226.828       	1226.7911      	1226.7966      	1226.8263      	1226.7979      	1226.7649      	1226.8511      	1226.8044      	1226.835       	1226.8197      	1226.8353      	1226.8868      	1226.8639      	1226.9513      	1226.798       	1226.9816      	1226.9299      	
1226.9324      	1226.9132      	1226.9519      	1226.951       	1226.8885      	1227.011       	1226.9458      	1226.9335      	1226.9851      	1226.8865      	1227.0105      	1226.8813      	1226.9427      	1226.9302      	1226.9314      	1226.9526      	1226.8959      	1226.9241      	1226.9283      	1226.8917      	1226.8575      	1226.8771      	1227.0907      	1227.1697      	1227.0037      	1227.0752      	1226.9985      	1226.883       	1226.8723      	1226.873       	1226.9021      	1226.826       	1226.9044      	1226.9438      	1226.8644      	1226.953       	1226.8884      	1226.953       	1226.9069      	1226.9188      	1226.9248      	1226.8489      	1226.8969      	1226.8274      	1226.8031      	1226.8005      	1226.6842      	1226.8586      	1226.7097      	1226.8241      	1226.759       	1226.878       	1226.7642      	1226.7129      	1226.7029      	1226.9093      	1226.6936      	1226.8153      	1226.5787      	1226.774       	1226.5685      	1226.6525      	1226.5531      	1226.9158      	1226.7817      	1226.8152      	1226.7703      	1226.7856      	1226.6993      	1226.8069      	1226.7177      	1226.7043      	1226.7241      	1226.8035      	1226.7323      	1226.6881      	1226.7854      	1226.6986      	1226.7511      	1226.696       	1226.6555      	1226.7559      	1226.707       	1226.746       	1226.6633      	1226.7418      	1226.7551      	1226.7577      	1226.7224      	1226.8269      	1226.703       	1226.7924      	1226.7533      	1226.7983      	1226.884       	1226.7565      	1226.8529      	1226.8884      	1226.8387      	1226.9006      	
1226.8743      	1226.8723      	1226.8884      	1226.8777      	1226.8876      	1226.8635      	1226.8572      	1226.9092      	1226.8751      	1226.7657      	1226.9783      	1226.8512      	1226.8888      	1226.87        	1226.7825      	1226.8745      	1226.8263      	1226.8159      	1226.8181      	1226.7898      	1226.7999      	1226.8217      	1226.8707      	1227.1365      	1226.9417      	1226.9761      	1226.91        	1226.7498      	1226.7378      	1226.7859      	1226.8065      	1226.7859      	1226.7778      	1226.8452      	1226.7749      	1226.846       	1226.81        	1226.7874      	1226.82        	1226.7849      	1226.7397      	1226.5896      	1226.827       	1226.6884      	1226.7775      	1226.7518      	1226.7294      	1226.6415      	1226.7207      	1226.6053      	1226.75        	1226.669       	1226.6724      	1226.6425      	1226.6183      	1226.712       	1226.794       	1226.5989      	1226.6676      	1226.7004      	1226.5021      	1226.8846      	1226.7872      	1226.692       	1226.7488      	1226.7025      	1226.6636      	1226.6854      	1226.7166      	1226.6466      	1226.6962      	1226.6296      	1226.6437      	1226.6742      	1226.7489      	1226.6877      	1226.732       	1226.6776      	1226.7205      	1226.6589      	1226.7136      	1226.6985      	1226.726       	1226.7031      	1226.6814      	1226.7245      	1226.7147      	1226.7192      	1226.718       	1226.7075      	1226.6757      	1226.7346      	1226.6948      	1226.7341      	1226.7034      	1226.7323      	1226.7562      	1226.7617      	1226.7307      	1226.7554      	
1226.7817      	1226.7218      	1226.7234      	1226.7844      	1226.7795      	1226.8019      	1226.8065      	1226.803       	1226.8042      	1226.8225      	1226.7512      	1226.7632      	1226.7483      	1226.833       	1226.7468      	1226.7168      	1226.7037      	1226.7003      	1226.6997      	1226.6985      	1226.6987      	1226.7874      	1226.7792      	1227.0946      	1226.8804      	1226.9061      	1226.872       	1226.671       	1226.6711      	1226.7251      	1226.6942      	1226.8196      	1226.7595      	1226.7096      	1226.6912      	1226.6824      	1226.7346      	1226.617       	1226.6786      	1226.828       	1226.6642      	1226.6461      	1226.5997      	1226.663       	1226.7572      	1226.7249      	1226.6482      	1226.6567      	1226.7319      	1226.5303      	1226.6548      	1226.683       	1226.6055      	1226.5387      	1226.6526      	1226.4603      	1226.801       	1226.6443      	1226.6425      	1226.7362      	1226.6226      	1226.6141      	1226.646       	1226.6278      	1226.6414      	1226.6118      	1226.6884      	1226.682       	1226.6042      	1226.6006      	1226.5923      	1226.697       	1226.6399      	1226.6489      	1226.6265      	1226.6155      	1226.6907      	1226.6431      	1226.685       	1226.6642      	1226.6879      	1226.7155      	1226.6707      	1226.7397      	1226.7739      	1226.6979      	1226.7167      	1226.716       	1226.8458      	1226.6766      	1226.8496      	1226.7897      	1226.8411      	1226.7798      	1226.8364      	1226.8566      	1226.8895      	1226.9016      	1226.81        	1226.8948      	
1227.035       	1226.9832      	1226.9955      	1227.0164      	1226.9895      	1227.0409      	1227.0155      	1226.9723      	1227.0061      	1226.9961      	1227.0083      	1226.9766      	1226.9478      	1226.9501      	1226.9489      	1226.9934      	1226.8894      	1226.9244      	1226.9253      	1226.9005      	1226.9229      	1226.9175      	1226.9597      	1227.1932      	1227.1226      	1227.0907      	1227.0969      	1227.0452      	1226.8783      	1226.8899      	1226.7936      	1226.8346      	1226.8947      	1226.8992      	1226.8497      	1226.7606      	1226.8932      	1226.8768      	1226.7714      	1226.9083      	1226.9055      	1226.8645      	1226.7582      	1226.7256      	1226.9067      	1226.9149      	1226.7462      	1226.6814      	1226.8527      	1226.9681      	1226.7557      	1226.9147      	1226.879       	1227.0668      	1226.9076      	1226.9419      	1226.8821      	1226.9122      	1226.9287      	1226.977       	1226.9238      	1226.9608      	1226.873       	1226.8884      	1226.9436      	1226.9058      	1226.942       	1226.9194      	1226.8959      	1226.9646      	1226.9109      	1226.847       	1226.9806      	1226.9912      	1226.9862      	1226.9221      	1227.0076      	1226.9259      	1226.9847      	1227.01        	1227.0162      	1226.8676      	1226.9823      	1227.0181      	1227.0668      	1227.0289      	1227.0227      	1227.0502      	1227.0604      	1227.0492      	1227.1095      	1227.0007      	1227.0819      	1227.0724      	1227.1356      	1227.0797      	1227.0878      	1227.2205      	1227.1671      	1227.1766      	
1227.1029      	1227.0804      	1227.0519      	1227.0554      	1227.0745      	1227.0793      	1227.1179      	1227.0604      	1227.1548      	1227.1409      	1227.0828      	1226.9998      	1227.021       	1227.0437      	1227.002       	1227.0007      	1226.9933      	1226.9669      	1227.0071      	1226.9512      	1226.9121      	1226.9476      	1226.9565      	1227.0157      	1227.2352      	1227.0397      	1227.0502      	1227.0356      	1226.9652      	1226.959       	1226.8722      	1226.8241      	1226.9644      	1226.8326      	1227.0114      	1226.7792      	1226.959       	1226.9441      	1226.7316      	1226.9595      	1226.8506      	1226.7024      	1226.7903      	1226.8531      	1226.7202      	1226.8322      	1227.0264      	1227.0262      	1227.0052      	1226.8508      	1226.8613      	1226.8872      	1226.9347      	1226.841       	1226.9042      	1226.8981      	1226.8885      	1226.9163      	1226.8955      	1226.9025      	1226.8596      	1226.9032      	1226.836       	1226.8488      	1226.8153      	1226.8754      	1226.8365      	1226.8416      	1226.8485      	1226.8643      	1226.9089      	1226.8021      	1226.8595      	1226.8818      	1226.8525      	1226.8721      	1226.8982      	1226.8562      	1226.9016      	1226.8534      	1226.8931      	1226.9517      	1226.9346      	1226.9263      	1226.886       	1226.9618      	1226.9342      	1226.9374      	1227.0206      	1226.9257      	1226.9963      	1226.9757      	1227.019       	1227.0581      	1227.0177      	1227.0577      	1227.0583      	1227.0533      	1227.0916      	1227.0642      	
1226.9061      	1226.8687      	1226.8524      	1226.8599      	1226.8738      	1226.8694      	1226.8628      	1226.8596      	1226.8615      	1226.849       	1226.7894      	1226.8583      	1226.8373      	1226.7291      	1226.76        	1226.8267      	1226.7788      	1226.7092      	1226.795       	1226.7739      	1226.8014      	1226.7079      	1226.6991      	1226.7313      	1226.8505      	1226.8146      	1226.8615      	1226.8064      	1226.8961      	1226.746       	1226.7181      	1226.672       	1226.6357      	1226.6667      	1226.7405      	1226.6362      	1226.8103      	1226.6368      	1226.7091      	1226.6593      	1226.6562      	1226.5815      	1226.8098      	1226.8029      	1226.7771      	1226.7537      	1226.7749      	1226.7544      	1226.7175      	1226.7493      	1226.7332      	1226.7372      	1226.7391      	1226.6837      	1226.7466      	1226.6886      	1226.7013      	1226.7112      	1226.7523      	1226.6755      	1226.7417      	1226.7518      	1226.6395      	1226.7915      	1226.6614      	1226.7544      	1226.7806      	1226.7249      	1226.7432      	1226.7294      	1226.7388      	1226.7745      	1226.7507      	1226.7278      	1226.7747      	1226.7876      	1226.7202      	1226.7562      	1226.7573      	1226.6942      	1226.8315      	1226.7595      	1226.8005      	1226.7844      	1226.8245      	1226.8503      	1226.7952      	1226.7744      	1226.8855      	1226.829       	1226.8965      	1226.9246      	1226.8278      	1227.0125      	1226.8926      	1226.9233      	1227.0333      	1226.8655      	1227.0177      	1226.91        	
1226.912       	1226.8956      	1226.8397      	1226.9148      	1226.9453      	1226.7902      	1226.9552      	1226.9037      	1226.8599      	1226.856       	1226.7864      	1226.8364      	1226.8192      	1226.7648      	1226.8112      	1226.7653      	1226.7742      	1226.731       	1226.756       	1226.7358      	1226.786       	1226.7236      	1226.7537      	1226.6737      	1226.8003      	1226.7856      	1226.9562      	1226.8269      	1226.7704      	1226.7869      	1226.7941      	1226.7192      	1226.68        	1226.7076      	1226.692       	1226.6741      	1226.7203      	1226.6027      	1226.8877      	1226.8059      	1226.7437      	1226.769       	1226.7675      	1226.7527      	1226.704       	1226.7605      	1226.69        	1226.6921      	1226.6674      	1226.7327      	1226.6462      	1226.6958      	1226.702       	1226.6863      	1226.6825      	1226.7147      	1226.7224      	1226.6871      	1226.7577      	1226.6428      	1226.7557      	1226.7615      	1226.6609      	1226.713       	1226.7073      	1226.7056      	1226.7089      	1226.7065      	1226.6946      	1226.6954      	1226.7177      	1226.5839      	1226.6906      	1226.7653      	1226.6978      	1226.6805      	1226.6771      	1226.7491      	1226.7457      	1226.6881      	1226.7596      	1226.7742      	1226.7488      	1226.7798      	1226.7051      	1226.8395      	1226.8038      	1226.8035      	1226.8134      	1226.8208      	1226.856       	1226.8641      	1226.8884      	1226.8961      	1226.86        	1226.9374      	1226.8868      	1226.9419      	1226.8606      	1226.9264      	
1226.604       	1226.2605      	1226.3839      	1226.83        	1226.6504      	1226.6975      	1226.5653      	1226.6111      	1226.5889      	1226.6243      	1226.5984      	1226.6206      	1226.5864      	1226.5315      	1226.5319      	1226.5071      	1226.5441      	1226.534       	1226.5239      	1226.5161      	1226.5289      	1226.5542      	1226.4858      	1226.3898      	1226.4456      	1226.5278      	1226.504       	1226.5917      	1226.5239      	1226.5676      	1226.4943      	1226.4161      	1226.3134      	1226.5696      	1226.5323      	1226.6686      	1226.5594      	1226.5905      	1226.5409      	1226.5588      	1226.5121      	1226.5743      	1226.5187      	1226.4572      	1226.5607      	1226.552       	1226.534       	1226.4293      	1226.4542      	1226.4614      	1226.4569      	1226.4985      	1226.5145      	1226.45        	1226.466       	1226.4792      	1226.508       	1226.5295      	1226.5293      	1226.4648      	1226.5308      	1226.51        	1226.462       	1226.4722      	1226.5182      	1226.5288      	1226.5514      	1226.4819      	1226.504       	1226.6389      	1226.5205      	1226.5516      	1226.4768      	1226.434       	1226.6208      	1226.578       	1226.5408      	1226.5477      	1226.5638      	1226.564       	1226.5901      	1226.5045      	1226.67        	1226.5809      	1226.5461      	1226.6954      	1226.5659      	1226.6027      	1226.6333      	1226.6483      	1226.663       	1226.7186      	1226.6892      	1226.6986      	1226.7128      	1226.7323      	1226.6703      	1226.7765      	1226.7726      	1226.7411      	
1226.6663      	1226.2694      	1226.2366      	1226.7722      	1226.7108      	1226.6221      	1226.565       	1226.6041      	1226.5751      	1226.638       	1226.5477      	1226.5317      	1226.5298      	1226.5073      	1226.5078      	1226.522       	1226.537       	1226.4584      	1226.453       	1226.5151      	1226.5187      	1226.472       	1226.5032      	1226.4753      	1226.4529      	1226.5388      	1226.5187      	1226.4818      	1226.5154      	1226.5312      	1226.5221      	1226.5011      	1226.4769      	1226.5925      	1226.5432      	1226.5054      	1226.5486      	1226.5251      	1226.5234      	1226.5021      	1226.4954      	1226.4862      	1226.5704      	1226.5292      	1226.5422      	1226.5579      	1226.4513      	1226.592       	1226.4901      	1226.507       	1226.4999      	1226.4686      	1226.5044      	1226.5531      	1226.5347      	1226.4565      	1226.5339      	1226.5306      	1226.4865      	1226.5514      	1226.5125      	1226.5073      	1226.5404      	1226.5718      	1226.5697      	1226.4642      	1226.5435      	1226.5865      	1226.5261      	1226.573       	1226.5739      	1226.5859      	1226.5337      	1226.5923      	1226.52        	1226.6271      	1226.5721      	1226.5796      	1226.6007      	1226.6101      	1226.6217      	1226.6278      	1226.6356      	1226.6296      	1226.5997      	1226.6936      	1226.6926      	1226.6799      	1226.6663      	1226.7632      	1226.6721      	1226.7462      	1226.7013      	1226.7842      	1226.7905      	1226.783       	1226.7435      	1226.7405      	1226.8029      	1226.8239      	
1226.7303      	1226.3566      	1226.1495      	1226.7521      	1226.7518      	1226.7411      	1226.5479      	1226.7101      	1226.5714      	1226.6163      	1226.6407      	1226.4844      	1226.6455      	1226.6194      	1226.642       	1226.535       	1226.6041      	1226.4259      	1226.3997      	1226.7823      	1226.4924      	1226.4474      	1226.5331      	1226.5623      	1226.5474      	1226.5084      	1226.4635      	1226.601       	1226.4962      	1226.4952      	1226.7067      	1226.5809      	1226.487       	1226.6421      	1226.5726      	1226.4949      	1226.6406      	1226.5441      	1226.5687      	1226.5793      	1226.5239      	1226.5391      	1226.5236      	1226.5145      	1226.515       	1226.5035      	1226.4978      	1226.5187      	1226.5056      	1226.4852      	1226.4949      	1226.4983      	1226.4963      	1226.5214      	1226.5236      	1226.5376      	1226.5588      	1226.5245      	1226.5858      	1226.5276      	1226.5284      	1226.5455      	1226.5463      	1226.579       	1226.5656      	1226.6344      	1226.5702      	1226.591       	1226.6052      	1226.6724      	1226.6276      	1226.6606      	1226.6552      	1226.6954      	1226.6992      	1226.6505      	1226.6428      	1226.7202      	1226.6444      	1226.6616      	1226.6752      	1226.6395      	1226.7183      	1226.6353      	1226.7319      	1226.7424      	1226.7185      	1226.7361      	1226.7869      	1226.7654      	1226.7837      	1226.788       	1226.853       	1226.7798      	1226.7975      	1226.8615      	1226.8153      	1226.8837      	1226.8466      	1226.7701      	
1226.815       	1226.5569      	1226.1239      	1226.5968      	1226.9036      	1226.6884      	1226.8088      	1226.7368      	1226.7133      	1226.7727      	1226.675       	1226.7175      	1226.6395      	1226.716       	1226.6768      	1226.6522      	1226.6066      	1226.6198      	1226.6665      	1226.6843      	1226.6536      	1226.7013      	1226.6743      	1226.67        	1226.6882      	1226.6769      	1226.6741      	1226.7206      	1226.6835      	1226.6526      	1226.7852      	1226.7075      	1226.6177      	1226.704       	1226.7554      	1226.6909      	1226.6964      	1226.7844      	1226.6868      	1226.7134      	1226.7362      	1226.6868      	1226.713       	1226.733       	1226.6298      	1226.7365      	1226.7277      	1226.6779      	1226.7303      	1226.7106      	1226.7019      	1226.7034      	1226.7347      	1226.797       	1226.6582      	1226.7201      	1226.698       	1226.8315      	1226.7634      	1226.6658      	1226.7965      	1226.7896      	1226.7723      	1226.9213      	1226.7783      	1226.8542      	1226.797       	1226.887       	1226.8309      	1226.8325      	1226.8495      	1226.7897      	1226.8466      	1226.866       	1226.8458      	1226.8837      	1226.9485      	1226.8363      	1226.8752      	1226.8328      	1226.9525      	1226.9012      	1226.9745      	1226.9944      	1227.0494      	1227.0203      	1226.9076      	1227.0676      	1226.9402      	1227.006       	1227.0168      	1227.005       	1227.0363      	1227.0823      	1227.0546      	1227.0564      	1227.0465      	1227.0831      	1227.088       	1227.0862      	
1226.9225      	1226.745       	1226.2308      	1226.5175      	1227.0776      	1226.9446      	1226.8458      	1226.8864      	1226.8815      	1226.7913      	1226.8322      	1226.8452      	1226.7816      	1226.7699      	1226.8431      	1226.7982      	1226.8124      	1226.8053      	1226.7493      	1226.8507      	1226.8088      	1226.787       	1226.7756      	1226.7977      	1226.7883      	1226.8403      	1226.8491      	1226.8049      	1226.8545      	1226.8737      	1226.8821      	1226.8212      	1226.8026      	1226.7316      	1226.9192      	1226.9934      	1226.833       	1226.9188      	1226.8301      	1226.8702      	1226.8436      	1226.8508      	1226.8274      	1226.8158      	1226.824       	1226.8611      	1226.8761      	1226.7642      	1226.8567      	1226.796       	1226.8287      	1226.8224      	1226.8502      	1226.8995      	1226.8678      	1226.8823      	1226.89        	1226.9081      	1226.9185      	1226.9137      	1226.8741      	1226.9052      	1226.9369      	1226.9181      	1226.9407      	1226.9692      	1226.977       	1227.019       	1226.9517      	1227.0128      	1226.9626      	1226.997       	1226.9977      	1227.0161      	1227.0272      	1226.9979      	1227.0442      	1227.0289      	1227.0685      	1226.9978      	1227.091       	1227.0093      	1227.1573      	1227.0898      	1227.0315      	1227.1307      	1227.0848      	1227.122       	1227.1799      	1227.2354      	1227.1134      	1227.121       	1227.209       	1227.203       	1227.1746      	1227.1919      	1227.2128      	1227.1942      	1227.0785      	1227.263       	
1226.9777      	1226.8077      	1226.2106      	1226.3807      	1227.099       	1226.9287      	1226.9548      	1226.9146      	1226.8514      	1226.8743      	1226.8477      	1226.9614      	1226.7478      	1226.8594      	1226.832       	1226.8171      	1226.836       	1226.8606      	1226.8864      	1226.8         	1226.824       	1226.9679      	1226.8914      	1226.9272      	1226.8741      	1226.9421      	1226.8328      	1226.9841      	1226.9565      	1226.8835      	1226.8914      	1226.9406      	1226.9207      	1226.9354      	1226.897       	1226.8685      	1226.8893      	1226.9133      	1226.8348      	1226.8376      	1226.8977      	1226.8726      	1226.8523      	1226.8865      	1226.7905      	1226.7747      	1226.9471      	1226.8595      	1226.8354      	1226.8536      	1226.842       	1226.8357      	1226.8557      	1226.9194      	1226.8732      	1226.9331      	1226.897       	1226.8927      	1226.9119      	1226.946       	1226.94        	1226.9872      	1226.9663      	1226.8564      	1226.9181      	1226.9827      	1226.965       	1226.9878      	1226.9841      	1226.9554      	1226.9929      	1226.9838      	1226.9829      	1226.9877      	1227.0104      	1227.0806      	1226.9279      	1226.9695      	1227.016       	1227.0989      	1227.092       	1227.0574      	1227.0873      	1227.0918      	1227.0343      	1227.089       	1227.0996      	1227.1003      	1227.092       	1227.1053      	1227.1978      	1227.0801      	1227.1003      	1227.187       	1227.0743      	1227.1122      	1227.1652      	1227.0837      	1227.1145      	1227.1082      	
1226.992       	1226.8181      	1226.3215      	1226.5588      	1227.1082      	1226.9697      	1226.8802      	1226.9509      	1226.8917      	1226.8958      	1226.8339      	1226.874       	1226.7919      	1226.905       	1226.8599      	1226.8805      	1226.8868      	1226.8466      	1226.9069      	1226.8999      	1226.856       	1226.9124      	1226.9016      	1226.8329      	1226.9731      	1226.9263      	1226.9099      	1226.9364      	1226.9438      	1226.9495      	1226.9574      	1226.9285      	1226.9487      	1226.8893      	1226.9396      	1226.8992      	1226.9514      	1226.932       	1226.9146      	1226.9027      	1226.9279      	1226.8783      	1226.8981      	1226.949       	1226.8671      	1226.941       	1226.9167      	1226.8826      	1226.9021      	1226.9071      	1226.978       	1226.9406      	1226.9055      	1226.9644      	1226.9144      	1227.0079      	1226.9725      	1226.9408      	1226.9958      	1226.9913      	1227.0248      	1226.9529      	1227.0363      	1226.9989      	1226.9835      	1226.9839      	1227.0641      	1227.0403      	1227.077       	1227.0269      	1227.063       	1227.0577      	1227.0851      	1227.0526      	1227.044       	1227.1361      	1227.0348      	1227.0983      	1227.0962      	1227.1143      	1227.1093      	1227.1404      	1227.0946      	1227.1625      	1227.2123      	1227.2155      	1227.2028      	1227.2684      	1227.1278      	1227.2874      	1227.1014      	1227.1995      	1227.2827      	1227.218       	1227.156       	1227.2125      	1227.1979      	1227.1823      	1227.1709      	1227.1858      	
1226.8362      	1226.6436      	1226.5573      	1226.9128      	1226.8855      	1226.7721      	1226.7903      	1226.7898      	1226.7394      	1226.8466      	1226.6366      	1226.722       	1226.8212      	1226.6116      	1226.6954      	1226.7205      	1226.7277      	1226.7632      	1226.7325      	1226.7264      	1226.7249      	1226.7208      	1226.7535      	1226.7136      	1226.7722      	1226.7782      	1226.7261      	1226.8053      	1226.7023      	1226.8673      	1226.7642      	1226.7283      	1226.8137      	1226.7458      	1226.8208      	1226.7593      	1226.7338      	1226.7032      	1226.8252      	1226.7388      	1226.7043      	1226.7736      	1226.7935      	1226.7086      	1226.6575      	1226.739       	1226.6796      	1226.7322      	1226.822       	1226.7524      	1226.6707      	1226.8375      	1226.8054      	1226.8243      	1226.7122      	1226.7211      	1226.8075      	1226.76        	1226.821       	1226.8586      	1226.7853      	1226.8153      	1226.8976      	1226.7784      	1226.871       	1226.7678      	1226.904       	1226.8435      	1226.8252      	1226.8914      	1226.8862      	1226.8868      	1226.8827      	1226.9075      	1226.8516      	1226.8848      	1226.9415      	1226.884       	1226.8496      	1226.9146      	1226.9012      	1226.9116      	1226.8907      	1226.9612      	1226.9232      	1226.9211      	1226.8536      	1226.9937      	1226.9409      	1226.8848      	1226.9734      	1226.9674      	1227.0331      	1226.9923      	1226.9536      	1226.9814      	1226.962       	1226.9264      	1226.8806      	1226.8751      	
1226.6995      	1226.6566      	1226.6566      	1226.7102      	1226.6863      	1226.6542      	1226.7208      	1226.6261      	1226.6438      	1226.632       	1226.6376      	1226.6421      	1226.6161      	1226.5913      	1226.6052      	1226.6401      	1226.6216      	1226.6306      	1226.6277      	1226.6716      	1226.6102      	1226.6678      	1226.6385      	1226.6415      	1226.7606      	1226.6372      	1226.6613      	1226.678       	1226.6642      	1226.6934      	1226.6688      	1226.7317      	1226.6633      	1226.6434      	1226.719       	1226.6669      	1226.7135      	1226.6517      	1226.6605      	1226.6497      	1226.7069      	1226.7009      	1226.659       	1226.6903      	1226.7268      	1226.6359      	1226.7122      	1226.7231      	1226.6306      	1226.7288      	1226.7227      	1226.7467      	1226.7504      	1226.799       	1226.7303      	1226.8431      	1226.7108      	1226.7612      	1226.775       	1226.7997      	1226.8429      	1226.8641      	1226.8439      	1226.8461      	1226.8662      	1226.8905      	1226.9259      	1226.9316      	1226.8586      	1226.8954      	1226.8693      	1226.8683      	1226.8842      	1226.8855      	1226.7766      	1226.9761      	1226.9283      	1226.8738      	1226.8859      	1226.9762      	1226.8887      	1226.9468      	1226.9292      	1226.9696      	1226.8976      	1226.9263      	1227.0151      	1226.987       	1226.8909      	1227.0969      	1226.9534      	1226.9249      	1227.1157      	1226.8553      	1226.9999      	1226.9563      	1226.9688      	1226.9594      	1226.9484      	1226.9182      	
1226.904       	1226.8662      	1226.8254      	1226.7573      	1226.9048      	1226.868       	1226.857       	1226.8815      	1226.8315      	1226.924       	1226.8424      	1226.8152      	1226.9025      	1226.8058      	1226.8513      	1226.948       	1226.8489      	1226.8474      	1226.9409      	1226.883       	1226.9224      	1226.906       	1226.8878      	1227.0325      	1226.9485      	1226.9366      	1226.9304      	1226.9373      	1226.9974      	1227.0233      	1226.955       	1226.9557      	1226.9741      	1226.9587      	1226.936       	1226.9542      	1226.9435      	1226.9886      	1226.9648      	1226.9205      	1226.9625      	1226.9009      	1226.9739      	1226.9529      	1226.9921      	1226.9678      	1226.9497      	1226.9581      	1227.0405      	1227           	1227.0107      	1227.0298      	1226.9803      	1227.0022      	1227.0839      	1226.9596      	1227.0826      	1227.0746      	1227.0688      	1227.1437      	1227.0826      	1227.0745      	1227.1713      	1227.1091      	1227.1366      	1227.2052      	1227.0958      	1227.1691      	1227.1597      	1227.1315      	1227.1077      	1227.1625      	1227.1592      	1227.1091      	1227.198       	1227.1564      	1227.1353      	1227.1935      	1227.1587      	1227.1987      	1227.1772      	1227.2167      	1227.209       	1227.1794      	1227.3293      	1227.3309      	1227.3097      	1227.2982      	1227.2811      	1227.2664      	1227.2777      	1227.2733      	1227.1609      	1227.342       	1227.2798      	1227.2537      	1227.0731      	1227.2693      	1227.2063      	1227.1799      	
1227.0907      	1227.0294      	1227.0251      	1227.0011      	1227.0095      	1227.0663      	1227.0068      	1226.9944      	1226.9657      	1227.039       	1226.9915      	1227.0468      	1226.9802      	1227.0493      	1226.9191      	1227.1223      	1227.0577      	1227.0782      	1227.0355      	1227.0425      	1227.0677      	1227.0037      	1227.0735      	1227.0161      	1227.1012      	1227.006       	1227.0779      	1227.1099      	1227.064       	1227.0538      	1227.0612      	1227.0884      	1226.9933      	1227.104       	1227.0068      	1227.0594      	1227.078       	1226.9745      	1227.0009      	1227.0975      	1226.9991      	1227.0513      	1227.0736      	1227.0317      	1227.0643      	1227.1028      	1227.0763      	1227.0359      	1227.1074      	1227.0594      	1227.091       	1227.0344      	1227.1759      	1227.138       	1227.0886      	1227.0806      	1227.1538      	1227.1895      	1227.1597      	1227.198       	1227.187       	1227.1183      	1227.2495      	1227.1736      	1227.1394      	1227.2552      	1227.1661      	1227.1927      	1227.2048      	1227.2356      	1227.1654      	1227.2104      	1227.1814      	1227.2266      	1227.2373      	1227.2488      	1227.1742      	1227.2706      	1227.2417      	1227.2078      	1227.2589      	1227.2356      	1227.2157      	1227.1951      	1227.2864      	1227.2477      	1227.2148      	1227.2727      	1227.2532      	1227.217       	1227.1993      	1227.1788      	1227.1814      	1227.2302      	1227.2694      	1227.1877      	1227.4435      	1227.338       	1227.2699      	1227.176       	
1226.8872      	1226.7952      	1226.7352      	1226.6881      	1227.0175      	1226.8159      	1226.8785      	1226.7606      	1226.8127      	1226.8411      	1226.838       	1226.6959      	1226.9304      	1226.8062      	1226.8315      	1226.7999      	1226.887       	1226.8314      	1226.8811      	1226.8984      	1226.7991      	1226.89        	1226.8728      	1226.8519      	1226.9255      	1226.8773      	1226.863       	1226.9236      	1226.8528      	1226.8856      	1226.7375      	1226.8892      	1226.9352      	1226.851       	1226.8674      	1226.7775      	1226.9069      	1226.8737      	1226.7788      	1226.8945      	1226.8064      	1226.8706      	1226.839       	1226.8816      	1226.83        	1226.8016      	1226.9136      	1226.7983      	1226.7751      	1226.8612      	1226.7715      	1226.91        	1226.8611      	1226.8966      	1226.9392      	1226.8799      	1226.9435      	1226.9138      	1226.945       	1226.9304      	1226.9353      	1226.9083      	1226.9542      	1226.9764      	1226.9417      	1226.924       	1226.9396      	1227.0402      	1227.0426      	1227.0966      	1227.0448      	1226.9612      	1226.9923      	1227.0074      	1226.9728      	1226.9615      	1227.0269      	1226.9552      	1226.9962      	1226.9653      	1227.0166      	1227.047       	1226.9584      	1227.0525      	1227.0421      	1226.9967      	1227.0864      	1226.9946      	1227.0515      	1227.0917      	1227.0487      	1227.027       	1226.8956      	1227.0154      	1227.2905      	1227.1775      	1227.0208      	1226.9861      	1226.9792      	1226.9508      	
