# www.neaspec.com
# Scan:	 	AFM
# Project:	 	20251007_PS
# Description:	 	
# Date:	 	10/07/2025 14:36:28
# Scanner Center Position (X, Y):	[µm]	49.66	48.17	 
# Rotation:	[°]	0	 	 
# Scan Area (X, Y, Z):	[µm]	5.000	5.000	0.000
# Pixel Area (X, Y, Z):	[px]	100	100	1
# Averaging:	 	1	 	 
# Integration time:	[ms]	5	 	 
# Laser Source:	 	4.5-15 µm nano-FTIR laser
# Detector:	 	R
# Target Wavelength:	[µm]	10.000	 	 
# Demodulation Mode:	 	Fourier
# Tip Frequency:	[Hz]	241,340.500	 	 
# Tip Amplitude:	[mV]	45.700	 	 
# Tapping Amplitude:	[nm]	74.418	 	 
# Modulation Frequency:	[Hz]	0.000	 	 
# Modulation Amplitude:	[mV]	0.000	 	 
# Modulation Offset:	[mV]	0.000	 	 
# Setpoint:	[%]	79.75	 	 
# Regulator (P, I, D):	 	4.206850	8.625812	1.000000
# Tip Potential:	[mV]	0.000	 	 
# M1A Scaling:	[nm/V]	0.426	 	 
# M1A Cantilever Factor:	 	1,000	 	 
# Q-Factor:	 	487.4	 	 
# Version:	 	2.1.11536.0
74.532265      	74.43372       	72.21541       	69.95922       	71.30391       	72.828735      	73.858116      	74.76271       	74.64957       	74.86571       	74.48947       	74.57611       	74.445175      	74.61113       	74.64362       	74.67959       	74.558304      	74.45493       	74.35122       	73.22891       	75.15566       	74.96422       	74.65858       	75.774536      	73.48466       	74.53699       	74.08884       	74.25296       	74.67862       	74.51302       	74.39001       	74.47037       	74.69411       	74.52999       	74.755684      	74.464745      	74.43336       	74.38379       	74.51408       	74.83075       	76.28099       	76.255745      	78.65375       	73.43629       	73.78683       	74.36023       	74.476944      	74.374794      	74.454124      	74.347115      	74.681984      	74.6087        	74.36833       	74.54738       	74.69311       	74.21079       	74.69274       	74.60895       	74.42187       	74.38342       	74.49609       	74.66411       	74.622314      	74.422165      	74.54634       	74.555         	72.36053       	72.86477       	72.95935       	73.575935      	74.03891       	74.31281       	74.49819       	74.95117       	74.54808       	74.48226       	74.636284      	74.41549       	74.81293       	74.538994      	74.39261       	74.600365      	74.6947        	74.49044       	74.61151       	74.625         	74.59605       	74.45642       	74.34118       	74.73427       	74.738625      	74.35031       	74.68967       	74.66624       	74.593285      	74.178185      	74.63681       	74.528656      	74.889946      	74.53444       	
74.720406      	74.733986      	73.070984      	70.64937       	72.13093       	72.568695      	73.80077       	74.78531       	74.7156        	74.593864      	74.456116      	74.54431       	74.65009       	74.54032       	74.41386       	74.67239       	74.76706       	74.48099       	74.306915      	74.5985        	74.80113       	74.52333       	74.032364      	74.8615        	74.70526       	74.28869       	74.677155      	74.60248       	74.61442       	74.64154       	74.516975      	74.5659        	74.709915      	74.38219       	74.54105       	74.524345      	74.541504      	74.55012       	74.24732       	74.9507        	75.90064       	76.08677       	78.72806       	75.21908       	73.21554       	74.80061       	74.06186       	74.2725        	74.58773       	74.625725      	74.542625      	74.613716      	74.44803       	74.433205      	74.555176      	74.64971       	74.64369       	74.45648       	74.53827       	74.44695       	75.000465      	74.32994       	74.37891       	74.47056       	74.70461       	74.65187       	72.292755      	72.743546      	73.355995      	73.22146       	73.97857       	74.805725      	74.37102       	74.70314       	74.32107       	74.64262       	74.64502       	74.45882       	74.73759       	74.502914      	74.32788       	74.73979       	74.659134      	74.520164      	74.35768       	74.58329       	74.583916      	74.658424      	74.31938       	74.598175      	74.8076        	74.58471       	74.18458       	74.70697       	74.59695       	74.63919       	74.52031       	74.506134      	74.38452       	74.57645       	
74.55501       	74.71505       	73.772606      	71.01478       	71.66437       	72.80585       	73.70721       	74.47357       	74.99775       	74.4958        	74.38945       	74.67864       	74.66289       	74.63967       	74.391525      	74.36996       	74.83952       	74.827385      	74.11297       	75.1161        	74.14324       	74.559044      	74.264015      	74.888016      	74.27286       	74.26667       	74.94438       	74.613396      	74.45784       	74.23955       	74.61445       	74.66284       	74.55763       	74.65664       	74.979385      	74.33346       	74.61381       	74.3686        	74.36829       	75.10748       	75.79426       	76.10905       	77.965385      	75.48441       	73.34602       	74.15672       	74.597145      	74.28098       	74.54395       	74.88455       	74.127975      	74.51222       	74.73539       	74.61248       	74.474976      	74.40511       	74.74751       	74.40903       	74.61081       	74.67156       	74.62223       	74.25383       	74.51635       	74.91702       	74.48296       	74.31154       	72.82589       	72.34158       	73.333176      	73.15632       	73.635666      	74.75703       	74.99223       	74.63872       	74.69993       	74.535835      	74.55862       	74.116844      	74.5887        	74.859116      	74.23354       	74.54549       	74.52038       	74.49479       	74.50029       	74.45936       	74.84912       	74.45245       	74.695915      	74.41464       	74.60584       	74.56443       	74.64627       	74.49408       	74.52512       	74.371056      	74.57912       	74.64153       	74.48125       	74.494545      	
74.59577       	74.58587       	73.72375       	71.10512       	71.38759       	72.880875      	73.45249       	74.391685      	74.850075      	74.45211       	74.57873       	74.83657       	74.348         	74.52503       	74.64446       	74.745834      	74.20758       	74.833435      	74.43174       	74.78575       	74.49762       	74.44081       	74.47916       	74.43264       	74.6629        	74.5595        	74.521126      	74.586655      	74.65234       	74.41544       	74.45329       	74.68797       	74.57849       	74.51064       	74.79185       	74.59724       	74.49096       	74.382         	74.38414       	74.76368       	75.75543       	75.908676      	77.78394       	76.37588       	74.85508       	74.13715       	74.06828       	74.74817       	74.25924       	74.62614       	74.579865      	74.22379       	74.856094      	74.32895       	74.47646       	74.64621       	74.516754      	74.43121       	74.545105      	74.51901       	74.741585      	74.307175      	74.72145       	74.541885      	74.57368       	74.62323       	73.65667       	72.09871       	73.00889       	73.2205        	73.64668       	74.34036       	74.54528       	74.76958       	74.72227       	74.53243       	74.364655      	74.6083        	74.59503       	74.64321       	74.52961       	74.660645      	74.6317        	74.61886       	74.26832       	74.67404       	74.39486       	74.74977       	74.552826      	74.32605       	74.621704      	74.33324       	74.68423       	74.64623       	74.2821        	74.77757       	74.739365      	74.34628       	74.63682       	74.41185       	
74.54178       	74.92779       	73.96907       	70.854576      	71.72052       	72.87166       	73.22197       	74.374054      	74.930504      	74.84154       	74.62292       	74.361855      	74.39533       	74.57497       	74.680595      	74.51338       	74.54535       	75.00305       	74.204834      	74.79594       	74.21845       	74.65738       	74.63469       	74.71954       	74.38997       	74.5868        	74.78877       	74.41141       	74.403534      	74.73736       	74.58438       	74.39072       	74.674065      	74.705475      	74.452255      	74.50628       	74.58587       	74.66437       	74.562195      	74.12263       	75.42489       	76.25363       	77.021706      	77.08793       	75.359505      	73.461136      	74.72652       	74.019745      	74.485596      	74.761475      	74.276566      	74.6044        	74.55837       	74.741005      	74.5608        	74.43711       	74.28879       	74.51222       	74.450966      	75.04929       	74.062485      	74.660355      	74.65899       	74.70098       	74.356155      	74.68424       	73.926865      	72.138275      	73.17674       	73.34671       	73.10428       	74.07946       	74.55708       	74.909775      	74.521454      	74.37749       	74.73326       	74.50973       	74.51368       	74.46923       	74.718445      	74.498116      	74.44236       	74.58464       	74.64758       	74.3681        	74.92881       	74.33925       	74.666954      	74.47486       	74.69797       	74.51682       	74.40308       	74.38916       	74.89048       	74.477745      	74.307465      	74.60688       	74.85639       	74.758705      	
74.52249       	74.74414       	75.26087       	72.891235      	70.838684      	72.64139       	73.22785       	73.91813       	74.56972       	75.0198        	74.406296      	74.60079       	74.66819       	74.6591        	74.57324       	74.588745      	74.8507        	73.72599       	74.95395       	74.611626      	74.596146      	74.31526       	74.17382       	74.84926       	75.041084      	74.09797       	74.70518       	74.39549       	74.48815       	74.592186      	74.98312       	74.015045      	74.81409       	74.642456      	74.70208       	74.43185       	74.61205       	74.51844       	74.41827       	74.744675      	74.47871       	76.31161       	76.818146      	77.17995       	75.61522       	73.42296       	74.53293       	73.9056        	74.56885       	74.490105      	74.67182       	74.2576        	74.25477       	74.74416       	74.20084       	74.97923       	74.47311       	74.30486       	74.37651       	74.90615       	75.01615       	74.18952       	74.35981       	74.87358       	74.995514      	74.19805       	74.15389       	72.80457       	72.56413       	73.25854       	73.0508        	73.95901       	74.58253       	74.80187       	74.24293       	75.09193       	74.46276       	74.506454      	74.34809       	74.777336      	74.64887       	74.06835       	74.9773        	74.332375      	74.5312        	74.8091        	74.064224      	75.05994       	74.49051       	74.714645      	74.38738       	74.42485       	74.282234      	74.87868       	74.38315       	74.500244      	74.5232        	74.700584      	74.45819       	74.66582       	
74.4739        	74.89245       	75.07306       	73.93972       	70.77093       	72.59689       	73.05092       	73.48603       	74.48793       	75.05284       	74.47483       	74.23518       	74.659874      	74.97489       	74.49442       	74.579895      	74.72043       	74.18299       	74.88288       	74.39985       	74.29603       	74.71511       	74.52382       	74.81543       	74.45731       	74.61836       	74.57591       	73.96756       	75.5112        	74.07337       	74.75219       	74.18393       	74.66297       	74.714516      	74.74015       	74.71289       	74.20875       	74.55856       	74.40193       	74.526985      	74.326294      	75.65019       	76.30448       	78.150085      	77.09433       	72.80537       	74.5443        	74.44699       	74.46202       	74.373314      	74.72335       	74.25843       	74.29568       	75.36748       	73.66541       	74.81454       	74.49933       	74.00036       	74.29598       	74.38139       	75.29398       	73.95987       	74.39531       	74.70017       	74.66245       	74.30852       	75.22858       	72.564095      	72.58157       	73.286         	73.35464       	73.922325      	74.523285      	74.24244       	74.592834      	74.70753       	74.31548       	74.66388       	74.467896      	75.09883       	74.17372       	74.21593       	74.5504        	74.915634      	74.82989       	74.52497       	74.19695       	74.65034       	74.38075       	74.74519       	74.687614      	74.4095        	74.47423       	75.26006       	74.03598       	74.509735      	74.45339       	75.11608       	74.865715      	74.84903       	
74.63298       	74.687546      	75.01103       	73.937744      	71.285835      	72.56024       	72.770905      	73.42146       	74.4632        	75.61742       	74.05771       	74.42023       	74.68461       	74.760506      	74.54319       	74.382385      	74.35618       	74.51736       	74.65208       	74.330536      	74.698235      	74.569855      	74.94513       	74.186424      	74.231445      	74.70456       	74.63145       	74.40694       	74.97309       	74.29393       	74.5907        	74.202576      	75.12357       	74.0387        	74.82998       	74.27408       	74.60604       	74.236626      	74.8574        	74.81779       	74.30133       	75.44475       	76.18402       	76.7377        	76.22499       	73.70555       	73.84836       	74.53313       	74.20222       	74.59256       	74.918976      	73.94321       	74.70127       	74.66907       	74.62946       	74.75864       	74.31093       	74.094795      	74.80045       	74.63151       	74.29185       	75.57053       	73.35411       	75.031075      	74.80264       	74.337494      	74.4508        	72.897865      	72.438         	73.426834      	73.37825       	73.961815      	73.95156       	74.53694       	74.56088       	74.56807       	74.9525        	73.96263       	74.60216       	74.63246       	74.74279       	74.684975      	74.23563       	74.29639       	75.10696       	74.46067       	74.142         	74.90263       	74.73272       	74.41753       	74.44506       	74.635155      	74.675575      	75.08162       	74.680626      	74.547035      	74.7591        	74.722786      	75.14808       	75.3677        	
74.5847        	74.72553       	74.51195       	73.96193       	71.183205      	72.14024       	72.9993        	73.4537        	73.96108       	75.238235      	74.39974       	74.52533       	74.498856      	74.92007       	74.54631       	74.39695       	74.40297       	74.67196       	74.58424       	74.65277       	74.61971       	74.36875       	74.71173       	74.29395       	75.14035       	74.38463       	74.60697       	74.32797       	74.38458       	74.487045      	74.98613       	74.38574       	74.44787       	74.59385       	74.74205       	74.15154       	74.722046      	74.63072       	75.05884       	73.839294      	74.74613       	75.051956      	76.278175      	77.53711       	76.72822       	75.148865      	73.26213       	74.210266      	74.4048        	74.840195      	74.032135      	74.496475      	74.65827       	74.552605      	74.53199       	74.87224       	74.552536      	74.032234      	74.98757       	74.05688       	74.58115       	74.49332       	74.24873       	74.70995       	74.58029       	74.45628       	74.918304      	73.00892       	71.87706       	73.26971       	73.12706       	73.43627       	74.060295      	74.652374      	74.82642       	74.68642       	74.13862       	74.87245       	74.67467       	73.80934       	74.9345        	74.80436       	74.320206      	75.143196      	74.0917        	74.43931       	74.59977       	74.69156       	74.56149       	74.771996      	74.91798       	75.14455       	74.41438       	74.61499       	75.00044       	75.122246      	74.493034      	74.584785      	74.80983       	75.69459       	
74.75142       	74.69522       	74.74822       	74.79505       	71.22021       	72.07224       	72.97289       	72.99525       	74.28145       	74.69763       	74.59981       	75.13373       	74.39414       	74.346         	74.99069       	74.339966      	74.72199       	74.17157       	74.828064      	74.69791       	74.31917       	74.331024      	74.76432       	74.56848       	74.554634      	74.33099       	74.95131       	74.403946      	74.80358       	74.52945       	74.38089       	74.6446        	74.6231        	74.73412       	74.428696      	74.29561       	74.45787       	74.688156      	74.58786       	74.553764      	74.67772       	74.33452       	76.216064      	76.66603       	77.88598       	75.585686      	73.09636       	74.166954      	74.15386       	74.71037       	74.19722       	74.500984      	74.840775      	74.31838       	74.65609       	74.27049       	74.46415       	74.41093       	74.56332       	74.493355      	74.68631       	75.107376      	74.302864      	74.40463       	74.50674       	74.19272       	74.73611       	74.29017       	71.71397       	73.035774      	73.46927       	73.471985      	73.982735      	74.70246       	74.1722        	74.69459       	74.75444       	74.058365      	74.76053       	74.98621       	74.79047       	74.11674       	74.577034      	74.73809       	74.67635       	74.582535      	75.15081       	74.75917       	75.47766       	74.07946       	74.602554      	74.56561       	74.836716      	74.94751       	75.14036       	75.48136       	75.01413       	74.86638       	74.85244       	74.96682       	
74.70977       	74.26748       	74.55571       	74.71589       	72.263885      	71.627205      	72.81678       	73.32537       	73.89878       	74.70054       	74.62977       	74.62967       	74.93194       	74.41095       	74.75758       	74.980835      	73.81217       	74.80581       	74.85653       	73.99491       	74.56283       	74.72467       	74.72138       	74.40298       	74.280205      	75.02534       	74.228424      	74.506325      	74.69915       	74.41404       	74.476814      	74.81912       	74.659355      	74.29382       	74.59601       	74.81516       	74.299545      	74.7644        	74.38159       	74.58627       	75.10451       	73.97713       	75.54514       	76.23594       	78.50002       	76.060104      	73.16217       	73.9411        	74.725075      	74.44928       	74.44953       	74.665184      	74.38758       	74.92896       	74.31718       	74.00577       	75.162544      	74.43601       	74.04477       	74.54184       	74.97384       	74.39919       	74.12133       	74.29019       	74.86401       	74.59167       	74.190346      	74.71473       	72.40189       	72.83345       	73.37251       	73.42288       	73.61592       	74.591644      	74.44779       	74.6874        	74.30718       	74.80529       	74.342155      	74.571594      	74.77494       	74.812805      	74.78707       	75.26759       	75.66219       	73.2878        	75.13278       	75.35639       	74.27343       	74.83682       	74.486786      	75.484375      	74.63639       	75.44792       	74.9335        	75.41578       	75.20813       	74.88546       	74.25222       	76.186455      	
74.44979       	74.60308       	75.07441       	74.863655      	72.79247       	71.41959       	73.37483       	73.17096       	73.46306       	74.1489        	74.82589       	74.4463        	75.03857       	74.6591        	74.356804      	74.644165      	74.570465      	74.7544        	74.45001       	74.43879       	74.44673       	75.03666       	74.20068       	74.15941       	74.9337        	74.51957       	74.332405      	74.70777       	74.80721       	74.57487       	74.33282       	74.77098       	74.533516      	74.559586      	74.60244       	74.342995      	74.72479       	74.51758       	74.177414      	75.01621       	74.73025       	73.903076      	75.92362       	76.076225      	77.91123       	75.18532       	74.09028       	74.0336        	74.36782       	74.31373       	74.796684      	74.37652       	74.47353       	74.53542       	74.596825      	74.68155       	74.480576      	74.432304      	74.68805       	74.50462       	74.38442       	74.80938       	74.33473       	74.18188       	74.89129       	74.81012       	74.13186       	74.64693       	72.690765      	72.388214      	73.29308       	73.30982       	73.70113       	74.529884      	74.45121       	74.44338       	74.60393       	74.775536      	74.4098        	75.52074       	74.52718       	75.50727       	74.44536       	74.406105      	75.64393       	74.17977       	74.29883       	75.68408       	75.59362       	74.83288       	74.844696      	74.80717       	76.008804      	74.87637       	75.15272       	75.325714      	75.130394      	74.2231        	73.94337       	74.30708       	
74.32736       	74.63178       	74.94291       	74.760254      	73.938416      	71.366425      	72.53772       	73.13218       	73.55753       	74.21115       	74.73675       	75.34856       	73.939224      	74.2713        	74.79634       	74.626656      	74.88818       	74.17083       	74.718155      	74.48586       	74.45439       	74.687675      	74.46488       	74.60314       	74.87405       	74.09754       	74.627205      	74.72023       	74.51696       	74.91523       	74.06459       	74.455765      	74.95675       	74.48398       	74.16803       	74.87879       	74.74107       	74.30428       	74.3417        	74.648865      	74.651505      	74.36358       	75.36313       	76.1333        	77.16187       	76.95349       	74.05481       	73.42417       	74.55072       	74.182945      	74.42664       	74.27098       	74.69874       	74.68852       	74.44469       	74.760956      	74.170906      	74.59385       	74.60789       	74.70175       	74.823524      	74.333305      	74.17891       	74.52298       	74.4637        	75.070335      	74.2117        	74.55214       	73.63339       	72.0838        	73.301216      	73.67138       	73.95756       	74.18244       	74.54042       	74.445755      	75.650215      	74.95821       	74.12973       	74.07721       	75.335785      	74.56461       	75.55017       	75.53942       	74.64102       	75.11898       	75.43752       	74.419235      	75.46923       	74.97119       	75.24972       	74.721664      	75.93728       	74.06724       	73.456894      	74.111374      	74.6413        	74.535225      	74.27004       	74.408264      	
74.60671       	74.75422       	74.974396      	75.31048       	74.68341       	70.44344       	72.51306       	73.31007       	73.0214        	74.049644      	75.01007       	75.42049       	73.49524       	75.039894      	74.8017        	74.37776       	74.52279       	74.73729       	74.43443       	74.3461        	74.88724       	74.99311       	74.10922       	74.75717       	74.31637       	74.09415       	75.3294        	74.519424      	74.25837       	74.71594       	74.444374      	74.29895       	74.63994       	74.70639       	74.67006       	74.26612       	74.630135      	74.51615       	74.779335      	74.28033       	74.55169       	74.40205       	75.24446       	76.01259       	76.659195      	77.558556      	74.09113       	73.48613       	74.12107       	74.236176      	74.50139       	74.56838       	74.46015       	74.65147       	74.50044       	74.47365       	74.43342       	74.86917       	74.969894      	73.97338       	74.81368       	74.35681       	74.31963       	74.55725       	74.76932       	74.587204      	74.0732        	74.7245        	74.135544      	72.97744       	73.49178       	73.8778        	73.907196      	74.27848       	73.65988       	74.36528       	75.00389       	75.53456       	73.53762       	74.76657       	74.443726      	76.03635       	75.446205      	75.21661       	74.8084        	75.47223       	75.50846       	74.38038       	75.10227       	73.58011       	74.30637       	74.142136      	74.42246       	74.783646      	74.232155      	74.56651       	74.32988       	74.7849        	74.15294       	74.40144       	
74.58207       	74.598755      	75.24028       	74.87274       	73.168945      	71.677124      	72.32829       	73.02818       	73.38389       	74.02081       	74.64707       	75.39187       	76.17658       	73.59873       	74.26396       	74.746506      	74.15102       	74.5218        	74.48593       	74.416916      	74.442665      	74.55923       	74.60135       	74.87261       	74.18112       	74.6966        	74.71752       	74.30078       	74.64713       	74.43345       	74.62587       	74.79951       	74.38089       	74.6295        	74.45736       	74.705696      	74.655266      	74.48468       	74.51256       	74.54773       	74.26725       	74.60709       	74.84859       	75.80062       	76.631935      	77.72461       	76.129326      	73.202934      	73.771126      	74.61044       	74.8005        	74.01007       	74.57336       	74.5645        	74.50146       	74.67335       	74.559006      	74.39783       	74.82976       	74.22153       	74.60998       	74.46964       	74.265816      	74.66099       	74.738434      	74.45163       	74.62424       	74.61726       	74.43286       	75.14352       	74.15029       	72.80199       	73.72077       	74.33619       	74.3979        	73.191345      	75.287766      	75.09363       	74.80165       	76.14939       	73.14451       	75.453735      	76.4503        	75.48274       	74.21626       	74.14792       	74.20646       	74.303375      	74.33665       	74.739426      	74.247986      	74.33415       	74.52647       	74.80046       	74.504974      	74.380615      	74.60969       	74.564964      	74.419655      	74.81329       	
74.610275      	74.91324       	74.595695      	74.311264      	75.14525       	71.25546       	72.40327       	73.61693       	73.69448       	73.6239        	74.38679       	74.86057       	75.39334       	74.30825       	74.07196       	74.659134      	74.643524      	74.322075      	74.41301       	74.561966      	74.73738       	74.48194       	74.42286       	74.546455      	74.75718       	74.4052        	74.37077       	74.62467       	74.764626      	74.31685       	74.3836        	74.59473       	74.79686       	74.34896       	74.574776      	75.20078       	74.32324       	74.12945       	74.91255       	74.53538       	74.433426      	75.01337       	74.409744      	75.381775      	75.98226       	77.749306      	74.78047       	73.7803        	73.998856      	74.44559       	74.645355      	74.00565       	74.38769       	75.18267       	74.26121       	74.338875      	74.76149       	75.051384      	74.236465      	74.47006       	74.0337        	74.68731       	74.427986      	74.72672       	74.48171       	74.53966       	74.48398       	74.44551       	74.655914      	74.28054       	74.27233       	74.59774       	73.77985       	73.69618       	74.57597       	74.51778       	74.798805      	75.18783       	74.95255       	74.595634      	75.69931       	75.221756      	74.19958       	73.78947       	74.30228       	74.60408       	74.63786       	74.52962       	74.52448       	74.31763       	74.78156       	74.44734       	74.344765      	74.57992       	74.7531        	74.39576       	74.571175      	74.59409       	74.446846      	74.4147        	
74.54111       	74.73152       	74.7347        	74.46292       	74.67652       	73.20768       	71.65691       	73.21748       	73.48605       	73.23702       	74.30203       	74.93483       	74.513985      	74.55102       	74.667915      	74.83786       	74.38545       	74.42518       	74.65891       	74.60789       	74.52884       	74.78794       	74.19802       	74.766205      	74.508316      	74.56882       	74.33227       	75.048676      	74.17004       	74.74613       	74.420525      	74.745575      	74.08888       	74.48917       	74.6597        	74.75733       	74.50794       	74.42583       	74.55072       	74.54806       	74.598854      	74.377785      	74.38726       	75.05235       	76.08547       	77.199455      	77.43547       	74.42501       	73.26726       	74.49954       	74.66459       	74.45165       	73.93746       	74.85958       	74.44289       	74.67898       	74.41538       	74.71989       	74.32504       	74.71681       	74.40839       	75.00073       	74.293945      	74.29804       	74.63128       	74.68061       	74.257164      	74.570595      	74.37446       	74.70389       	74.48407       	74.40566       	74.56001       	74.225815      	74.29904       	74.79293       	74.69028       	74.740875      	74.20911       	74.5549        	74.46786       	74.90123       	74.229485      	74.51103       	74.742195      	74.72946       	74.34579       	74.72637       	74.21938       	74.920074      	74.35749       	74.17396       	74.93151       	74.53234       	74.47051       	74.67267       	74.6556        	74.53164       	74.3047        	74.42151       	
74.473015      	74.7994        	74.61497       	74.976494      	74.17986       	74.51832       	71.93261       	72.592445      	73.136116      	73.364975      	73.88435       	74.618744      	74.88483       	74.774         	74.25745       	74.62155       	74.75998       	74.378334      	74.871025      	74.39621       	74.58291       	74.446014      	74.6812        	74.63442       	74.62984       	74.53926       	74.36543       	74.58037       	74.513245      	74.36616       	75.59171       	73.79087       	74.63348       	74.66071       	74.191284      	74.70489       	74.519035      	74.20782       	75.12801       	74.371666      	74.60614       	74.683174      	74.123215      	74.66058       	76.52084       	77.16463       	76.90357       	75.563736      	72.92766       	74.356316      	74.2497        	74.34832       	74.72254       	74.254105      	74.58816       	74.47867       	74.58376       	74.54296       	74.7139        	74.33628       	74.70025       	74.49146       	74.38592       	75.02855       	74.28049       	74.30638       	74.924866      	74.33537       	74.50684       	74.06553       	74.86824       	75.121544      	73.95855       	74.72414       	74.168205      	74.75707       	74.49475       	74.72752       	74.47018       	74.71304       	74.45546       	74.44163       	74.435455      	74.72595       	74.20321       	74.5195        	74.599525      	75.40715       	74.00874       	74.175224      	74.42702       	74.62175       	74.969955      	74.227844      	74.751976      	74.227196      	74.858765      	74.14231       	74.75575       	75.34421       	
74.6779        	74.42886       	74.49229       	74.70214       	74.766495      	74.56154       	72.26378       	72.1695        	73.384315      	73.14029       	74.00979       	74.705124      	74.40714       	74.84908       	74.40562       	74.5103        	74.99818       	74.21839       	74.51156       	74.72754       	74.489555      	74.45805       	74.425186      	74.84634       	74.10238       	74.955025      	74.26324       	74.88505       	74.26621       	74.71255       	74.543785      	74.57109       	74.58192       	74.46893       	74.72259       	74.37315       	74.61956       	74.958244      	74.138756      	74.53455       	74.52857       	74.49143       	74.689026      	74.50716       	75.84483       	76.23922       	77.95817       	76.486275      	74.07353       	74.352104      	73.879005      	74.30775       	74.48759       	74.61392       	74.39229       	74.58516       	74.845924      	74.147285      	74.799934      	74.51212       	74.70701       	74.41395       	74.86486       	74.36461       	74.46407       	74.34765       	74.480415      	74.33311       	74.66952       	74.754395      	74.25403       	74.52005       	74.88809       	74.27764       	74.64125       	74.932945      	74.20949       	74.3862        	74.40123       	75.10817       	73.8461        	74.57282       	74.70897       	74.35077       	74.65894       	74.46568       	74.67421       	74.421844      	74.70423       	74.601814      	74.41367       	74.41886       	74.7518        	74.54073       	74.29934       	74.71262       	74.345345      	74.58844       	74.53252       	74.439384      	
74.475235      	74.513275      	75.4416        	74.61079       	73.952614      	75.554955      	71.93363       	71.95343       	73.44941       	73.58148       	73.72079       	74.46011       	74.65644       	74.683525      	74.43758       	74.29909       	75.04612       	74.997475      	74.12735       	74.28955       	74.67644       	74.47484       	74.63761       	74.58175       	75.00098       	74.34906       	74.47613       	74.51568       	74.34452       	74.6521        	74.8719        	74.219826      	74.93706       	74.560486      	74.56214       	74.24404       	74.55634       	75.110535      	74.070465      	74.610245      	74.51051       	74.443016      	74.61025       	74.97279       	75.566864      	75.652855      	77.709656      	76.611694      	75.46956       	73.54147       	74.33259       	74.355705      	74.39548       	74.555786      	74.457855      	75.48232       	73.56392       	74.83698       	75.02354       	74.29289       	74.041245      	74.942         	74.71756       	74.2876        	74.704445      	74.94339       	73.85936       	74.63254       	74.23464       	74.87106       	74.371735      	74.33532       	74.527115      	75.52338       	74.02072       	73.94415       	74.9208        	74.46673       	74.282524      	74.26125       	74.6569        	74.53636       	74.40314       	74.77628       	74.38281       	74.59919       	74.59325       	74.80481       	74.23573       	74.646515      	74.56773       	74.69267       	74.44761       	74.28092       	74.817726      	74.34641       	74.19519       	74.49417       	75.67336       	74.40992       	
74.64094       	74.83322       	75.194016      	74.38814       	74.156944      	74.83464       	73.58214       	72.140205      	73.01081       	72.93427       	73.405716      	74.44725       	74.78868       	74.30503       	74.82211       	74.310776      	75.44349       	73.92954       	74.67994       	74.540306      	75.014336      	74.09095       	74.644966      	74.47788       	74.71335       	74.44739       	74.68971       	74.46604       	74.523796      	74.58981       	74.496315      	74.356445      	74.78831       	74.431564      	74.78073       	74.54467       	74.44158       	74.43775       	75.37582       	74.749725      	74.89247       	74.726746      	74.242294      	74.9268        	75.21267       	75.06736       	76.082855      	76.86356       	77.26461       	73.58029       	74.24799       	74.44575       	74.014275      	74.642235      	74.365845      	74.54174       	74.72454       	74.55299       	74.38848       	74.80412       	74.32424       	74.880516      	74.20166       	74.35165       	74.83571       	74.425674      	74.4641        	74.77971       	74.51168       	74.20588       	75.25693       	73.6457        	74.475914      	74.54739       	74.46824       	74.62816       	74.225266      	75.352         	73.952774      	74.720245      	74.381805      	74.60847       	74.576485      	74.41882       	74.79495       	74.459984      	74.54981       	74.73663       	74.31422       	74.80506       	74.29366       	74.619606      	74.58839       	74.76703       	74.5814        	74.33861       	74.767624      	74.34641       	74.53369       	74.58439       	
74.57768       	74.68486       	74.48764       	74.36499       	74.58724       	75.24474       	73.486336      	71.94198       	72.7034        	73.38933       	73.2076        	74.265915      	74.624504      	74.650406      	73.978745      	74.716385      	75.727196      	76.071205      	74.12323       	73.94519       	74.30689       	74.339554      	74.36948       	74.43358       	74.78123       	74.59301       	74.4128        	74.55697       	74.4516        	74.82312       	74.344505      	74.74832       	74.62185       	74.27679       	74.85149       	75.517914      	74.84899       	74.81805       	73.97818       	74.985886      	74.72884       	74.898224      	74.47198       	75.03924       	74.31535       	74.971924      	75.46442       	76.37652       	77.96848       	73.63927       	74.346245      	73.80141       	74.50812       	74.26823       	75.28724       	73.83621       	74.40883       	74.64929       	74.93924       	74.24756       	74.52714       	74.61408       	74.51752       	74.42382       	74.866714      	74.43808       	74.779655      	74.058105      	74.65102       	74.64039       	74.217545      	74.768715      	74.20508       	74.6475        	74.19629       	75.18085       	74.28498       	74.05721       	75.03778       	74.06239       	74.729126      	74.444954      	74.50396       	74.35793       	74.36062       	74.72895       	74.78082       	74.82212       	74.07657       	74.66169       	74.153366      	74.64389       	74.735245      	74.63485       	74.22637       	75.0854        	74.22423       	74.75382       	74.52259       	74.39687       	
74.595535      	74.69933       	74.64268       	74.618904      	74.11122       	74.81346       	74.532776      	72.46323       	72.051865      	73.38505       	72.93679       	74.12166       	74.64776       	74.83136       	74.34563       	74.38116       	74.63727       	74.93445       	74.515114      	74.36705       	74.59247       	74.74522       	74.433235      	74.60997       	74.50845       	74.855286      	74.451546      	74.493866      	74.43768       	75.100075      	74.60512       	74.74789       	74.665115      	75.01073       	74.63094       	75.328705      	74.83082       	75.20515       	73.61961       	75.269424      	75.32801       	75.476654      	74.861824      	74.65832       	74.508995      	74.70007       	75.48258       	76.54515       	75.61349       	74.16179       	74.13504       	74.22236       	74.36638       	74.48739       	74.55741       	74.57917       	74.22336       	74.633064      	74.6598        	74.505325      	74.48086       	74.67092       	74.31671       	74.53468       	74.89469       	74.17343       	74.456604      	74.5624        	74.467575      	74.83004       	74.15048       	75.301025      	73.76472       	74.72661       	74.07993       	74.55196       	74.88918       	74.591774      	74.21635       	74.80988       	74.28663       	74.512         	74.87765       	74.65583       	74.16077       	74.46282       	74.739265      	75.18077       	73.80677       	74.787926      	74.2235        	74.61976       	74.32906       	75.032135      	74.27401       	74.87874       	74.074936      	74.803444      	74.48922       	74.875496      	
74.57178       	74.373924      	74.75593       	74.79531       	74.31911       	74.05257       	74.73342       	72.71613       	71.94721       	73.38108       	73.29044       	73.56477       	74.52263       	74.799736      	74.28071       	74.55181       	74.79647       	74.60326       	74.840324      	74.45163       	74.33961       	74.74573       	74.507286      	74.24232       	74.806595      	74.8959        	74.87037       	74.67353       	74.9113        	74.95407       	74.8583        	75.57407       	73.876396      	74.713776      	74.63896       	74.4961        	75.39571       	76.03323       	75.062614      	74.072266      	75.33609       	75.1366        	74.71306       	74.395065      	75.511925      	75.13547       	75.69994       	74.55948       	73.97458       	74.33848       	74.68868       	74.41042       	74.18358       	74.42472       	75.03618       	74.71725       	74.45321       	74.11245       	74.387474      	74.38838       	74.48374       	75.13928       	74.11984       	74.45926       	74.60926       	74.59301       	74.54488       	74.570175      	74.46367       	74.773544      	74.389114      	74.503624      	74.59041       	74.42936       	74.03789       	74.89883       	74.63297       	74.34965       	74.32756       	74.951965      	74.83009       	74.26441       	74.35762       	74.81529       	74.45927       	74.490974      	75.27353       	73.73846       	74.667274      	74.45592       	74.462166      	74.31103       	74.757675      	74.47887       	74.589005      	74.53305       	74.61605       	74.43964       	74.840454      	74.5698        	
74.61541       	74.55217       	74.9016        	74.91646       	73.94505       	75.08453       	74.70027       	73.28557       	71.47355       	73.20145       	73.28732       	73.60943       	74.23201       	74.46541       	74.50777       	74.62433       	74.26055       	74.492065      	75.23823       	74.29485       	74.04407       	74.63482       	75.141846      	74.63136       	74.76696       	74.98738       	74.60924       	74.93794       	74.56697       	74.63678       	75.11181       	75.16219       	74.72722       	74.621735      	75.222824      	74.43845       	75.71395       	75.28408       	75.96564       	73.84625       	75.953835      	75.30448       	73.70853       	75.46917       	73.89338       	74.52652       	75.69537       	72.954834      	74.47607       	74.70359       	74.322464      	74.3956        	74.313156      	75.19808       	74.130295      	74.39858       	74.98516       	74.35068       	74.68575       	74.00705       	74.53654       	74.62184       	74.55489       	74.34033       	74.87436       	74.3735        	74.51283       	74.51349       	74.52285       	74.57274       	74.55985       	74.504585      	74.361084      	74.600136      	74.46014       	74.38807       	74.28235       	75.20546       	74.44489       	74.22098       	74.50273       	74.52245       	74.65616       	74.91163       	74.39041       	74.36421       	74.30552       	74.677574      	75.24322       	73.983116      	74.561584      	74.77206       	74.735374      	74.43286       	74.597404      	74.47291       	74.56262       	74.74246       	74.22122       	74.835335      	
74.52305       	74.63692       	74.82361       	75.03705       	74.03873       	75.5319        	74.17733       	73.89325       	71.32239       	73.181656      	73.329056      	73.4287        	74.20514       	74.357445      	74.66713       	74.556755      	74.346375      	75.199936      	74.80345       	75.46352       	75.569534      	73.25624       	74.900826      	75.18658       	74.48884       	74.69837       	75.004524      	74.6781        	74.59176       	74.91555       	74.972755      	75.54129       	75.44473       	74.87985       	75.167725      	75.45958       	74.72548       	75.371124      	74.704735      	74.611435      	74.32025       	73.914215      	74.1336        	74.60116       	74.4835        	74.10231       	74.756546      	75.186226      	73.89102       	74.57582       	74.330826      	74.616325      	74.56398       	74.352         	74.964775      	74.61898       	73.94675       	74.70933       	74.68756       	74.42318       	74.549126      	74.73487       	74.37402       	74.62755       	74.45811       	75.06223       	74.3261        	74.49756       	74.558136      	74.42061       	74.69544       	74.556015      	74.56271       	74.381386      	74.422646      	74.72143       	74.402885      	74.337654      	74.64951       	74.67521       	74.42206       	75.19705       	73.8482        	74.62992       	74.43288       	74.756905      	74.09465       	74.77905       	74.7987        	74.49886       	74.78112       	74.35732       	74.55507       	74.34652       	75.30359       	73.98097       	74.472755      	74.48095       	74.57679       	74.31119       	
74.54954       	74.91498       	74.854866      	75.01725       	74.21076       	73.75607       	74.708565      	74.63436       	72.33149       	72.2765        	73.34777       	73.34526       	74.025024      	74.93262       	75.60582       	73.87523       	74.53512       	74.83136       	74.898155      	75.44044       	74.28247       	75.28392       	74.25657       	74.82094       	74.85042       	75.07326       	75.377396      	74.80374       	74.883         	75.428894      	75.05308       	75.13898       	75.81174       	74.60159       	73.90253       	74.509476      	74.325615      	74.47701       	74.30955       	74.608406      	74.54685       	74.472885      	74.64421       	74.99759       	74.64401       	73.58185       	74.824036      	74.95825       	74.77201       	74.07202       	74.76275       	74.40368       	74.506454      	74.410355      	74.61644       	74.575005      	74.74169       	74.41696       	74.538475      	74.804146      	74.421776      	74.648766      	74.44764       	74.50784       	74.424835      	74.67747       	74.48641       	74.56422       	74.65764       	74.674355      	74.66012       	74.307045      	74.69244       	74.75751       	74.04953       	74.452644      	74.54303       	74.3644        	74.61173       	74.74271       	74.464325      	74.74192       	74.296844      	74.66624       	74.40126       	74.64175       	74.51795       	74.70392       	74.75879       	74.26133       	74.772255      	74.58196       	74.64562       	74.55131       	74.47332       	74.643326      	74.419334      	74.810295      	74.46803       	74.50738       	
74.531975      	74.63272       	75.16501       	75.32915       	73.557106      	74.32224       	74.57745       	74.53633       	73.09465       	72.79706       	74.01524       	73.82973       	74.00957       	74.33861       	74.926926      	74.53195       	74.74177       	74.75789       	74.105316      	75.36889       	75.79954       	75.007454      	75.06184       	74.70806       	74.84836       	75.26177       	75.16938       	75.40891       	74.73688       	75.4529        	73.89363       	74.10824       	74.46302       	74.54635       	74.25643       	74.51656       	74.86024       	74.22026       	74.55126       	74.407524      	74.94303       	75.6531        	73.25584       	74.42332       	74.561516      	74.510475      	74.47284       	74.73767       	74.45355       	74.60275       	74.331604      	74.774345      	74.69673       	74.1065        	74.55809       	74.63424       	74.47458       	74.62031       	74.8007        	74.43099       	74.579475      	74.56804       	74.4567        	74.555534      	74.25294       	74.8814        	74.36807       	74.479935      	74.43154       	74.74415       	74.39947       	74.59734       	74.36126       	74.63047       	74.67989       	74.4638        	74.3959        	75.22177       	73.826164      	74.625496      	74.3652        	74.70267       	74.66084       	74.73337       	74.519966      	74.38892       	74.68726       	75.0513        	74.23571       	74.637505      	74.51938       	74.338715      	74.692924      	74.51355       	74.504425      	74.48192       	74.439766      	74.558         	74.45851       	74.57873       	
74.558334      	74.6316        	75.6532        	75.60368       	73.222855      	74.08791       	74.459564      	74.775894      	74.62813       	73.68472       	74.05139       	72.330315      	74.19298       	73.949265      	74.14965       	74.78264       	74.74467       	75.254654      	75.06446       	75.666794      	75.284645      	75.48929       	75.088646      	74.91137       	74.57573       	75.10676       	74.152115      	73.772606      	74.45196       	74.60478       	74.85657       	74.17532       	74.63163       	74.49255       	74.46787       	74.83268       	74.50016       	74.38417       	74.351585      	74.897255      	74.254845      	74.78091       	74.392975      	74.52534       	74.44614       	74.60408       	74.64151       	74.67925       	74.59758       	74.64144       	74.80094       	74.12252       	74.876366      	74.52178       	74.30662       	74.522575      	74.76755       	74.44517       	74.66131       	74.553444      	74.55077       	74.63874       	74.51543       	74.37864       	74.695625      	74.37653       	74.559715      	74.770805      	74.21481       	74.93401       	74.46556       	74.66231       	74.58059       	74.71846       	74.37372       	73.94368       	74.71906       	74.79147       	74.13837       	74.73061       	74.84614       	74.443436      	74.5786        	74.580956      	74.38718       	74.408455      	74.89526       	74.19667       	74.53469       	74.37949       	75.12415       	73.83613       	75.01024       	74.247215      	74.40311       	74.75387       	74.47634       	74.66816       	74.31025       	74.41124       	
74.56382       	74.72979       	75.85455       	75.589165      	73.21289       	74.40522       	74.574165      	74.65454       	74.51959       	74.87624       	74.12962       	72.8118        	74.51794       	74.35414       	74.64077       	73.76444       	75.074425      	75.30284       	75.37475       	76.00953       	75.40007       	73.89926       	74.214355      	74.78631       	74.05981       	74.43711       	74.64756       	74.19204       	74.60654       	74.64503       	74.426056      	74.76425       	74.30224       	74.59699       	74.43613       	74.83642       	74.44717       	74.874054      	74.46172       	74.365486      	74.1554        	74.76288       	74.551796      	74.79059       	74.21295       	74.62819       	74.38513       	74.6941        	74.7279        	74.13479       	74.639366      	74.66378       	74.70431       	74.40532       	74.74504       	74.417435      	74.62631       	74.52908       	74.61105       	74.36021       	74.66479       	74.37473       	75.4155        	74.04407       	74.54802       	74.23921       	74.7598        	74.49799       	74.47269       	74.528694      	74.58667       	74.77495       	74.55733       	74.65952       	74.56089       	74.07157       	74.5984        	74.475235      	74.60926       	74.78826       	74.27316       	74.41333       	74.729416      	74.35307       	74.72255       	74.58046       	74.72556       	74.48478       	74.52329       	74.349495      	74.524994      	74.66228       	74.7842        	74.4435        	74.54078       	74.62329       	74.26256       	74.33513       	74.59691       	74.75222       	
74.593025      	74.751656      	74.793526      	74.62963       	74.51808       	74.50558       	74.256676      	74.271355      	74.742004      	74.2073        	74.770966      	75.01408       	74.19008       	74.36082       	74.86447       	74.54053       	74.85461       	74.647675      	74.24372       	74.33423       	74.159485      	74.45417       	74.97701       	74.38877       	74.558075      	74.36574       	74.71163       	74.71029       	74.03513       	74.65908       	74.51787       	74.29692       	74.70363       	74.65251       	74.61251       	74.41783       	74.65834       	74.646736      	74.52741       	74.62997       	74.5115        	74.793526      	74.111534      	74.79186       	74.56067       	74.37548       	74.388725      	74.774055      	74.94362       	74.37381       	74.97671       	74.4156        	74.42334       	74.47573       	74.83453       	74.71385       	74.28099       	74.59649       	74.53872       	74.77124       	74.445946      	74.64771       	74.53671       	74.403755      	74.473366      	74.93215       	74.74779       	74.28583       	75.374054      	74.02956       	74.405594      	74.70121       	74.83666       	74.0486        	74.64879       	74.51759       	74.69743       	74.10232       	74.370636      	74.3365        	74.81071       	74.610634      	74.58331       	75.070564      	75.38663       	73.556625      	74.47343       	74.45284       	74.60029       	74.39143       	75.099464      	73.88763       	74.676346      	74.61744       	74.36225       	74.49816       	74.553955      	74.56021       	74.852615      	74.42877       	
74.53625       	74.699326      	74.69183       	75.10569       	74.46942       	74.57268       	75.130035      	73.95562       	74.87885       	73.59302       	74.65277       	74.55412       	74.40918       	74.08464       	74.731636      	74.643074      	74.03426       	75.214226      	74.50469       	74.53149       	74.35099       	74.126434      	74.94796       	74.28392       	74.81171       	74.40153       	74.75058       	74.221924      	74.498116      	74.80461       	74.44689       	74.30624       	74.57714       	74.6787        	74.882744      	74.24724       	74.625145      	74.626884      	74.42752       	74.69535       	74.362206      	74.78551       	74.474724      	74.52167       	74.54144       	74.34616       	74.664185      	74.47161       	74.751335      	74.4631        	74.60363       	74.613         	74.4336        	74.32633       	74.62671       	74.8285        	74.62432       	74.4004        	74.83526       	74.25136       	74.525154      	74.858154      	74.30814       	74.472275      	74.65673       	74.33096       	74.55386       	74.80454       	74.59938       	74.94713       	74.17127       	74.551445      	74.63517       	74.55485       	74.48163       	74.49665       	74.66531       	74.15154       	74.63009       	74.62422       	74.83493       	74.57491       	73.6691        	74.625175      	74.65467       	74.46001       	75.47849       	73.849846      	74.32373       	74.526085      	74.905174      	74.401184      	74.17012       	74.81687       	74.375114      	74.42976       	74.43314       	74.67501       	74.62587       	74.54873       	
74.69507       	74.72253       	74.530464      	74.74015       	74.619026      	74.628494      	74.20457       	74.02198       	74.87857       	74.5989        	74.938576      	73.938225      	74.909004      	74.255646      	74.359436      	74.58673       	74.7996        	74.75122       	74.051636      	74.75585       	74.68426       	74.42998       	74.76781       	74.40478       	74.45571       	74.82004       	74.43268       	74.85647       	74.3576        	74.778175      	74.30311       	74.45223       	74.63932       	74.458954      	74.55295       	74.8435        	74.51953       	74.33864       	74.486374      	74.76961       	74.472565      	74.50085       	74.62533       	74.12471       	74.89657       	74.43392       	74.5202        	74.66449       	74.24484       	74.543396      	75.04279       	74.29283       	74.18813       	74.894394      	74.42646       	74.60403       	74.7394        	74.32755       	74.64344       	74.48202       	74.521835      	74.55789       	74.65953       	74.46545       	74.62          	74.49091       	74.51786       	74.83908       	74.60316       	74.38657       	74.56668       	74.46229       	74.63351       	74.54064       	74.60238       	74.751465      	74.13723       	74.37481       	74.616135      	74.503944      	74.68059       	74.61471       	74.5991        	74.26332       	74.46987       	74.89554       	74.765366      	74.19583       	74.42609       	75.330605      	74.05955       	74.36616       	74.88081       	74.3723        	74.50521       	74.54726       	74.84677       	74.35326       	74.63929       	74.63346       	
74.65111       	74.87454       	74.62738       	74.36658       	74.61143       	74.56896       	75.04279       	73.78915       	74.76106       	74.35369       	74.86105       	74.351555      	74.365845      	74.666626      	74.258736      	74.58139       	75.36318       	74.49408       	74.08          	74.824524      	74.170296      	74.53425       	74.556076      	74.55695       	74.332695      	74.81113       	74.76219       	74.52462       	74.22616       	74.781425      	74.29047       	74.53789       	74.28135       	74.41493       	74.7115        	74.58593       	74.886765      	74.46424       	74.41271       	74.46226       	74.788795      	74.490654      	74.7652        	74.17493       	74.65527       	74.46293       	74.5653        	74.67708       	75.1182        	74.484955      	74.47012       	74.46649       	74.692314      	74.20374       	74.74211       	74.482994      	74.65379       	74.51288       	74.64935       	74.668625      	74.761795      	74.391975      	74.62211       	74.39163       	74.40334       	74.66731       	74.67166       	74.54716       	74.38983       	74.4865        	74.70584       	74.48772       	74.58262       	74.514046      	74.80895       	74.37968       	74.547935      	74.777824      	74.11328       	74.82363       	73.99921       	74.78723       	74.53968       	74.6799        	74.51797       	74.303635      	74.835014      	74.38173       	74.54418       	74.68404       	74.35851       	74.574455      	74.726746      	74.70259       	74.45592       	74.58662       	74.31311       	74.521         	74.456276      	74.698         	
74.6389        	74.7009        	74.83926       	74.97671       	74.477325      	74.73098       	74.65529       	74.27233       	74.59431       	74.465355      	74.45517       	74.77356       	74.08468       	74.84876       	74.36612       	74.32288       	74.64336       	74.47685       	74.78616       	74.467354      	74.912575      	74.04228       	75.10574       	74.19574       	74.3469        	74.427635      	74.926414      	74.52571       	74.50983       	74.42873       	74.57952       	74.623055      	74.75006       	74.26101       	74.383965      	74.607574      	74.79117       	74.56946       	74.64824       	74.38267       	74.46294       	74.611885      	74.49067       	74.56071       	74.55011       	74.6654        	74.83077       	73.99042       	74.79777       	74.63944       	74.88035       	74.35904       	74.30758       	74.817635      	74.284996      	74.78796       	74.46033       	74.159706      	74.628006      	74.79262       	74.80351       	74.703064      	74.21802       	74.52965       	74.56348       	74.75388       	74.2217        	74.82372       	74.58493       	74.438736      	74.61458       	74.45696       	74.717445      	74.11152       	74.75864       	74.63705       	74.412796      	74.51699       	74.34474       	74.5429        	74.36173       	74.699455      	74.80509       	74.33883       	74.46537       	74.59289       	74.64747       	74.44198       	74.669426      	74.4787        	74.79918       	74.20554       	74.74          	74.51304       	74.60885       	74.58575       	74.71466       	74.39874       	74.48326       	74.73875       	
74.47954       	74.74404       	74.93663       	74.629364      	74.449844      	74.759575      	74.81053       	74.37673       	74.813156      	74.26483       	74.80721       	74.492325      	74.36935       	74.41219       	74.806404      	74.24658       	74.95931       	74.28757       	74.38043       	74.64015       	74.53603       	74.53172       	74.38496       	74.21782       	74.804306      	74.49808       	74.357124      	74.60203       	74.308266      	74.443886      	74.65592       	74.59119       	74.723465      	74.488785      	74.54596       	74.31848       	74.7467        	74.88196       	74.529854      	74.41176       	74.380356      	74.870895      	74.117935      	74.619194      	74.74633       	74.4537        	74.613045      	74.25212       	74.8674        	74.844894      	74.509895      	74.63393       	74.438866      	74.5587        	74.32557       	74.8033        	74.55487       	74.56814       	74.671135      	74.43403       	74.748886      	74.194756      	74.57418       	74.65599       	74.79151       	74.31789       	74.90609       	74.2316        	74.56526       	74.5879        	74.638535      	74.52632       	74.5278        	74.5695        	74.40575       	74.523636      	74.52132       	74.679276      	74.335846      	74.68473       	74.389595      	74.506874      	74.662994      	74.594475      	75.485664      	74.143875      	73.60361       	74.655235      	74.67089       	74.49966       	74.65497       	74.51928       	75.23843       	73.90453       	74.70464       	74.31079       	74.54574       	74.778625      	74.39653       	74.4974        	
74.58244       	74.43686       	74.75851       	75.21431       	74.71088       	74.61081       	74.76642       	74.60579       	74.4721        	74.368645      	74.37611       	74.50228       	74.46537       	74.75938       	74.38125       	74.31422       	74.607056      	74.43662       	74.61459       	74.4818        	74.62973       	74.51377       	74.80871       	74.470535      	74.62091       	74.500824      	74.55049       	74.659515      	74.59588       	74.5571        	74.37443       	74.55072       	74.393654      	74.67229       	74.588234      	74.53307       	74.49222       	74.54942       	74.87371       	74.517654      	74.2853        	74.70718       	74.372536      	74.89107       	74.41002       	74.701744      	74.151375      	74.45875       	74.70204       	74.77602       	74.47076       	74.83261       	74.27902       	74.89866       	74.40233       	74.55821       	74.677864      	74.469246      	74.43746       	74.886635      	74.38913       	74.54168       	74.444374      	74.702194      	74.468         	74.435684      	74.644394      	74.711174      	74.453995      	74.6018        	74.49218       	74.64431       	74.8358        	74.345245      	74.71207       	74.60018       	74.32903       	74.27535       	74.56627       	74.49928       	74.55167       	74.36417       	75.11356       	74.03311       	74.70406       	74.44324       	74.521996      	74.97259       	74.44519       	74.17203       	74.57969       	74.58574       	74.69576       	74.39766       	74.51032       	74.68684       	74.61064       	73.08754       	72.8238        	73.35828       	
74.455696      	74.99803       	75.042656      	74.49934       	74.18009       	74.78089       	74.514015      	74.898         	74.33061       	74.704         	74.37813       	74.60971       	74.27911       	74.14011       	75.28656       	73.83494       	74.80746       	74.122375      	74.89514       	74.859474      	74.34502       	74.357086      	74.454124      	74.83788       	74.55624       	74.25943       	75.057915      	74.30438       	74.39698       	74.48776       	74.570984      	74.50123       	74.57113       	74.67089       	74.3497        	74.51257       	74.64257       	74.5657        	75.11938       	73.78563       	75.171745      	74.411674      	74.31773       	74.31605       	74.89786       	74.38694       	74.57031       	74.33996       	74.593185      	74.880974      	74.35178       	74.927574      	74.58598       	74.61271       	74.57061       	74.43251       	74.74835       	74.29455       	74.46302       	74.737686      	74.42543       	74.75262       	74.41032       	74.86151       	74.18172       	74.708115      	74.872475      	74.20296       	74.73559       	74.57906       	74.328316      	74.51629       	74.31445       	74.61017       	74.72563       	74.273445      	74.63381       	74.789215      	74.502914      	74.258316      	74.38314       	74.45739       	75.20367       	73.99125       	74.71202       	74.348305      	74.42977       	75.4508        	73.78356       	74.46346       	74.329285      	74.62558       	74.45299       	71.970695      	73.620605      	74.073166      	74.14337       	73.53224       	73.83116       	74.06094       	
74.42284       	74.96038       	74.66175       	74.43043       	74.526566      	74.68651       	74.43822       	74.57341       	74.62041       	74.46133       	74.26184       	74.722725      	74.49404       	74.34088       	74.378876      	74.7422        	74.95566       	74.15372       	74.45877       	74.870636      	74.184166      	74.56941       	74.667564      	74.45852       	74.64343       	74.489655      	74.6628        	74.61932       	74.3619        	74.433205      	74.53594       	74.789764      	74.34535       	74.795685      	75.11136       	73.570656      	75.218575      	74.570854      	74.43446       	74.474846      	74.509636      	74.68018       	74.09275       	74.942406      	74.61375       	74.32955       	74.837006      	74.24527       	74.6912        	74.6372        	74.73201       	74.6422        	74.27797       	74.63999       	74.78937       	74.2414        	74.784355      	74.265205      	74.90966       	74.63356       	74.34834       	74.70722       	74.52725       	74.79295       	74.40338       	74.163086      	74.715675      	74.483116      	74.495995      	74.56912       	74.72951       	74.44275       	74.99472       	74.1347        	74.66334       	74.5809        	74.513054      	74.66897       	74.15355       	74.6197        	74.34422       	74.906906      	74.46309       	74.46723       	74.16541       	74.43668       	74.41589       	74.72033       	74.45515       	72.47342       	72.67657       	73.62979       	73.66292       	73.61386       	73.77848       	74.492966      	74.50224       	74.53926       	74.36257       	74.78898       	
74.48175       	74.297165      	75.11715       	75.35289       	74.15389       	74.88391       	74.391335      	74.72422       	74.428154      	74.64935       	74.68306       	74.371666      	74.47303       	74.439804      	73.95826       	75.00779       	74.920715      	74.237724      	74.58809       	74.21112       	74.40654       	74.60038       	74.21956       	74.76853       	74.68034       	74.56943       	74.52158       	74.60939       	74.516914      	74.43492       	74.59791       	74.79213       	74.103645      	74.79958       	74.727356      	74.51465       	74.41007       	74.47225       	74.37975       	74.69786       	74.47968       	74.515495      	74.81416       	74.50608       	74.58131       	74.55826       	74.64727       	74.399414      	74.45255       	74.962364      	74.612564      	74.464264      	74.72126       	74.36939       	74.631676      	74.40597       	74.82494       	74.14937       	74.75129       	74.63496       	74.57376       	74.84896       	73.78528       	75.36921       	74.35749       	74.165375      	74.95337       	74.45041       	74.578285      	74.27788       	74.52425       	74.73384       	74.509865      	74.412704      	74.80896       	74.24498       	74.63698       	74.488335      	74.74317       	74.47445       	74.2344        	74.99365       	74.133705      	74.50559       	74.899704      	71.376045      	72.80609       	73.7632        	74.299774      	73.87971       	74.02789       	74.52106       	74.100494      	74.87533       	74.48654       	74.37597       	74.569626      	74.63696       	74.417595      	74.78249       	
74.54453       	74.67931       	74.88432       	74.7196        	74.30586       	75.18412       	74.16689       	74.3143        	74.90313       	74.312614      	74.827354      	74.49755       	74.32644       	74.54471       	74.358574      	74.4634        	75.19188       	74.03139       	74.577866      	74.68746       	74.54716       	74.471825      	74.35615       	74.66171       	74.458595      	74.838036      	74.80563       	74.22698       	74.4618        	75.08334       	74.082275      	74.70827       	74.243614      	74.837135      	74.52187       	74.43299       	74.614136      	74.69704       	74.61628       	74.54264       	74.61537       	74.421104      	74.31028       	74.70322       	74.65674       	74.423386      	74.68724       	74.58248       	74.78948       	74.396515      	74.525345      	75.000824      	74.30106       	74.39864       	74.83487       	74.88115       	74.35202       	74.438896      	74.49361       	74.92728       	74.33389       	74.86267       	74.08485       	74.70437       	74.62515       	74.53398       	74.66931       	74.182045      	74.62815       	74.64887       	74.60174       	74.44418       	74.439606      	74.71777       	74.680275      	74.33785       	74.466225      	74.94846       	74.4262        	74.176285      	74.24987       	72.54648       	72.33205       	73.70917       	74.283905      	73.793655      	73.65202       	74.46738       	74.42198       	74.27904       	74.58424       	74.42819       	74.61668       	74.53389       	74.68309       	74.26015       	74.66769       	74.43865       	74.59938       	74.594955      	
74.518715      	74.86745       	76.04535       	74.95308       	73.825516      	74.36974       	74.36725       	74.53156       	74.51345       	74.77093       	74.533775      	74.413605      	74.45169       	74.516045      	74.26139       	74.548515      	74.60845       	74.60799       	74.64239       	74.45338       	74.34384       	74.62746       	74.8177        	74.21042       	74.72929       	74.56251       	74.732895      	74.29113       	74.6695        	74.73741       	74.46134       	74.08109       	74.74116       	74.616806      	74.340195      	74.76075       	74.5915        	74.38368       	74.55636       	74.59031       	74.55298       	74.342         	74.787315      	74.52805       	74.752396      	74.5529        	74.55617       	74.62216       	74.202705      	74.81668       	74.61213       	74.55769       	74.48628       	74.24084       	74.9136        	74.578156      	74.47913       	74.4463        	74.86628       	74.47811       	74.46377       	74.474434      	75.085724      	74.275505      	74.45693       	74.289665      	74.9977        	74.131676      	74.56146       	74.57622       	74.6395        	74.515465      	74.392395      	74.9065        	74.331894      	74.53591       	74.675476      	72.61832       	72.257706      	71.84052       	73.54509       	73.9002        	73.74442       	74.09754       	74.62725       	74.40298       	74.48526       	74.79575       	74.220055      	74.64708       	74.36664       	75.00656       	74.19163       	74.5108        	74.73248       	74.79693       	74.33977       	74.658066      	74.54235       	74.54412       	
74.51382       	74.845825      	74.960846      	74.78311       	74.58747       	74.69147       	73.99624       	74.73411       	74.48075       	74.75361       	74.552986      	74.885765      	73.959404      	74.531         	75.13118       	73.95133       	74.2013        	74.79794       	74.750694      	74.54322       	74.755035      	74.31561       	74.53429       	74.57258       	74.65608       	74.53301       	74.47278       	74.60885       	74.41441       	74.60191       	74.52093       	74.40052       	74.58893       	74.7438        	74.545975      	74.32995       	74.58597       	74.76209       	74.53914       	74.41976       	74.66529       	74.29007       	74.54102       	74.27586       	74.70109       	74.66722       	74.38623       	75.01737       	74.455345      	74.481316      	74.59854       	74.592384      	74.9118        	74.34545       	74.77712       	74.423996      	74.68593       	74.16287       	74.62357       	74.61472       	74.55256       	74.21052       	74.966965      	74.35307       	74.55984       	74.580444      	74.64739       	74.389915      	74.72007       	74.427086      	74.74989       	74.06174       	74.574425      	75.02409       	74.1451        	74.67928       	74.32342       	72.427055      	71.948746      	72.74008       	73.59052       	74.33624       	74.84465       	74.616486      	74.527176      	74.49276       	74.77364       	74.52046       	74.77025       	74.24683       	74.94344       	74.02593       	74.72642       	74.65154       	74.68891       	74.38543       	74.51957       	74.44909       	74.76466       	74.75996       	
74.46165       	74.62597       	74.62062       	75.39958       	74.31604       	74.59105       	74.278534      	75.27003       	74.468765      	74.46101       	74.283646      	74.860405      	74.4466        	74.37591       	74.549484      	74.33115       	74.29121       	74.48116       	74.60401       	74.435326      	74.58179       	74.39199       	74.77862       	74.79003       	74.53493       	74.37398       	74.862854      	74.2454        	74.53276       	75.03321       	74.11777       	74.71319       	74.78686       	74.17335       	74.542496      	74.5544        	74.93753       	74.52687       	74.40683       	74.48468       	74.61626       	74.82634       	74.133316      	74.57861       	74.53331       	74.72132       	74.54304       	74.87808       	74.297134      	74.358635      	74.549675      	75.07353       	74.20474       	74.63588       	74.376884      	74.56828       	74.93063       	74.34525       	74.79064       	74.41303       	74.71233       	74.46866       	74.24433       	74.79561       	74.65763       	74.82767       	73.99784       	74.591255      	74.64318       	74.23161       	74.52016       	74.711136      	74.51332       	74.52875       	74.28502       	74.852486      	73.05429       	71.38389       	73.17964       	73.03271       	73.56938       	74.30742       	74.46512       	74.675125      	74.58229       	74.2986        	74.83002       	74.60358       	74.464386      	74.72379       	74.484886      	74.62937       	74.774155      	74.33827       	74.77125       	74.41271       	74.46997       	74.754395      	74.54355       	74.58295       	
74.55479       	74.94783       	74.62162       	74.3959        	74.54226       	74.69485       	74.33611       	74.73177       	74.51691       	74.501526      	74.44654       	74.77651       	74.8109        	74.25219       	74.89006       	74.08604       	74.32431       	74.49845       	74.509705      	74.71771       	74.3665        	74.67294       	74.55979       	74.712685      	74.39253       	74.4605        	74.81839       	74.46942       	74.368996      	74.75643       	74.640884      	74.43107       	74.38027       	74.79449       	74.17901       	74.81055       	74.59709       	74.45424       	74.51308       	74.951996      	74.4232        	74.421104      	74.58043       	74.75301       	74.03038       	74.58035       	74.666794      	74.62012       	74.84127       	74.42393       	74.37584       	74.87245       	74.84424       	74.48346       	74.82366       	74.12267       	74.682915      	74.99187       	74.164825      	74.50846       	74.561935      	74.60321       	74.12641       	74.570206      	75.44564       	74.031296      	74.74741       	74.25482       	74.70237       	74.386         	74.522934      	74.548935      	74.532166      	74.56779       	74.38014       	74.568405      	74.16465       	72.05839       	73.091644      	73.12461       	73.536606      	74.12697       	74.45005       	74.944275      	74.564735      	74.43663       	74.42397       	74.80541       	74.415726      	74.58469       	74.34074       	74.72057       	74.290184      	74.53481       	74.91009       	74.38699       	74.38888       	74.59942       	74.74578       	74.568436      	
74.62799       	74.69831       	74.64115       	74.87192       	74.5738        	74.7058        	74.40302       	74.97718       	74.28414       	74.51828       	74.74581       	74.48531       	74.63483       	74.31777       	75.29592       	73.74685       	74.41277       	74.54212       	74.52487       	74.6351        	74.36292       	74.483315      	74.770294      	74.74552       	74.212105      	74.72097       	74.498634      	74.68698       	74.58513       	74.62358       	74.704575      	74.14217       	74.95952       	74.5832        	74.19461       	74.50983       	74.24476       	74.67807       	75.17432       	74.13447       	74.39678       	74.694916      	74.2015        	74.819046      	74.924904      	74.37394       	74.040726      	74.75137       	74.96632       	74.16429       	74.77773       	74.50157       	74.71917       	74.608215      	74.595856      	74.45077       	74.41591       	74.960945      	74.5925        	74.05323       	75.07503       	74.429565      	74.52049       	74.30114       	74.323715      	74.59147       	75.20308       	73.91896       	74.49201       	74.90596       	74.70384       	74.37945       	74.43709       	74.62707       	74.476135      	74.518845      	75.057945      	71.65169       	72.769005      	73.18849       	73.40585       	74.25965       	74.28455       	74.49715       	74.857574      	74.180534      	74.465004      	75.01137       	74.449684      	74.45926       	74.544044      	74.77309       	74.621216      	74.44899       	74.25083       	74.64353       	74.46549       	74.567505      	74.744995      	74.31461       	
74.66973       	74.60379       	74.76818       	74.64682       	74.4446        	74.38452       	74.598015      	74.40454       	74.84934       	74.09108       	74.855125      	74.40128       	74.39258       	74.67635       	74.480354      	74.349976      	74.95078       	74.16941       	74.62438       	74.57947       	74.46084       	74.516014      	74.44899       	74.72672       	74.5752        	74.544785      	74.393654      	74.84084       	74.09709       	74.74735       	74.660484      	74.548874      	74.46258       	74.518555      	74.618744      	74.453156      	74.49986       	75.25452       	73.72418       	74.41827       	74.566795      	74.69176       	74.429436      	74.61631       	74.737404      	74.56263       	74.09895       	74.60578       	74.724106      	74.73975       	74.64133       	74.544235      	74.96466       	73.95875       	74.966805      	74.55025       	74.7024        	74.060036      	74.72328       	74.60098       	74.55338       	74.43899       	74.606384      	74.46755       	74.44254       	74.58588       	74.90258       	74.42761       	74.67898       	74.47629       	74.37452       	74.922104      	74.17064       	74.69093       	74.77576       	74.68451       	74.382225      	72.38224       	72.808174      	73.13529       	73.22034       	73.91617       	74.60742       	74.80568       	74.422554      	74.61537       	73.94017       	75.007126      	74.81162       	74.16382       	74.71063       	74.34299       	74.596275      	74.44605       	74.44102       	74.69724       	74.679726      	74.50963       	74.89423       	74.28224       	
74.45598       	74.82765       	75.15641       	74.511215      	74.47262       	74.524254      	74.77167       	74.33061       	74.52422       	74.475204      	74.824265      	74.478874      	74.39855       	74.703384      	74.41236       	74.58314       	74.40357       	74.337456      	74.58834       	74.45956       	74.40207       	74.52697       	74.68737       	74.68378       	74.46301       	74.56218       	74.65027       	74.51778       	74.39846       	74.52657       	74.83864       	74.4671        	74.69337       	74.28951       	74.442726      	74.59806       	74.52791       	74.599236      	74.65948       	74.65036       	74.52442       	74.38392       	74.31084       	74.79586       	75.10271       	74.33883       	74.3204        	74.47406       	74.31689       	74.907104      	75.26443       	73.56335       	75.0254        	74.59083       	74.2788        	74.49432       	74.67248       	74.384544      	74.81431       	74.556595      	73.99465       	74.920456      	74.42894       	74.421005      	74.95201       	74.27987       	74.43455       	74.82236       	74.323715      	75.08099       	74.38225       	74.56158       	74.24264       	74.59959       	74.58835       	75.03106       	74.186134      	73.17703       	72.183         	73.338196      	73.153885      	73.56804       	74.50476       	74.58161       	74.432434      	74.63839       	74.566986      	74.784424      	74.1554        	74.68443       	74.29573       	74.52249       	74.71276       	74.54642       	74.48888       	74.726456      	74.49063       	74.71675       	74.60884       	74.52314       	
74.49824       	74.93405       	75.30848       	74.89946       	74.437294      	74.51768       	74.64916       	74.39943       	74.62385       	74.80368       	74.4719        	74.299774      	74.713264      	74.36288       	74.72321       	74.35017       	74.38089       	74.21195       	74.854256      	74.30615       	74.72194       	74.37923       	74.542         	74.58648       	74.83635       	74.42099       	74.7624        	74.30228       	74.58868       	74.41804       	74.89981       	74.4559        	74.219284      	74.68274       	74.52158       	74.604126      	74.6426        	74.39174       	74.777374      	74.63885       	74.21562       	75.008415      	74.17753       	74.63195       	74.36481       	74.628395      	74.661156      	72.59456       	72.95825       	73.88052       	74.480354      	75.65537       	75.24108       	75.429886      	74.95379       	73.05195       	74.20457       	74.67553       	74.27963       	74.52062       	74.51984       	74.00047       	74.529755      	74.709694      	74.72793       	74.50927       	74.54288       	74.24353       	74.52737       	74.61098       	74.87117       	74.44432       	74.12647       	74.42501       	74.704926      	74.97097       	74.3259        	74.07485       	72.10774       	72.81533       	73.01809       	73.4112        	74.737045      	74.43611       	74.54276       	74.55975       	74.65579       	74.62286       	74.475624      	74.45225       	74.74088       	74.21568       	74.76668       	74.412865      	74.94083       	74.20601       	74.59951       	74.70875       	74.326004      	74.68165       	
74.39629       	74.82059       	75.57091       	74.76723       	73.144905      	74.96732       	74.968704      	74.461945      	74.13189       	74.61727       	74.44641       	74.55114       	74.401         	74.46903       	74.66849       	74.77828       	74.280594      	74.287155      	74.93071       	74.18479       	75.03307       	73.99919       	74.865166      	74.66326       	74.3192        	74.37034       	74.430405      	74.90953       	74.287895      	74.59458       	74.401         	74.607315      	74.514015      	74.51955       	75.55514       	73.44296       	74.335884      	74.64794       	74.46559       	74.44219       	74.86038       	74.34744       	74.46468       	73.80032       	72.305595      	73.360275      	73.72875       	73.703384      	73.7211        	74.15813       	74.59838       	75.10239       	76.15946       	76.21515       	78.78901       	74.89813       	73.92526       	74.78277       	74.20995       	74.1711        	74.738945      	74.43008       	74.30401       	74.54707       	74.528625      	74.72681       	74.27326       	74.762146      	74.20973       	74.36331       	74.583786      	74.61811       	74.528625      	74.188         	74.65407       	74.89368       	74.52032       	74.58547       	71.346375      	73.04571       	73.24904       	73.34597       	74.0829        	74.339806      	74.916565      	74.63015       	74.460846      	74.44593       	74.76583       	74.60104       	74.59335       	74.513115      	74.575905      	74.65037       	74.40512       	74.31064       	74.82367       	74.29285       	74.69886       	74.40671       	
74.4248        	75.10157       	74.937126      	73.76943       	74.38875       	74.511955      	74.594925      	74.72175       	74.358444      	74.54057       	74.71944       	74.7718        	74.24665       	74.33623       	74.96772       	74.201775      	74.57116       	74.452034      	74.311005      	74.50243       	74.52732       	74.83773       	74.438934      	74.64978       	74.500725      	74.646355      	74.12927       	74.9281        	74.76587       	74.280815      	74.30981       	74.38303       	74.68874       	74.325806      	74.50418       	74.58286       	74.76794       	74.429855      	74.31778       	72.83203       	71.782234      	73.27544       	74.117035      	73.89843       	73.80142       	74.57872       	74.161         	74.16639       	74.423996      	74.18125       	74.73861       	74.97679       	76.05263       	76.17545       	78.37683       	76.88909       	73.60739       	74.546326      	74.33526       	74.28349       	74.40145       	74.19407       	74.70978       	74.46635       	74.687416      	74.83532       	74.46521       	74.58082       	74.66141       	74.35557       	74.90308       	74.346825      	74.68969       	74.3431        	74.4601        	74.49067       	74.64722       	74.4431        	72.522385      	73.02275       	73.24749       	72.955635      	74.059074      	74.26867       	74.49898       	74.48288       	74.106224      	74.86351       	74.739944      	74.70875       	74.565125      	74.4825        	74.45898       	74.77979       	74.28962       	74.58767       	74.57288       	74.72287       	74.54519       	74.66321       	
74.49176       	74.32805       	75.088554      	75.23116       	74.50881       	74.41408       	74.68835       	74.38461       	74.51458       	74.28015       	74.99281       	74.39194       	74.42134       	74.71168       	74.57788       	74.20952       	74.490974      	74.698364      	74.60849       	74.49598       	75.18897       	73.833916      	74.49668       	74.59262       	74.52513       	74.74034       	73.99266       	74.497086      	74.68864       	74.780106      	74.23294       	74.696335      	74.482155      	74.9335        	71.57011       	72.04892       	72.990906      	73.23221       	73.17735       	73.8936        	73.91278       	74.42633       	74.40101       	74.42123       	74.27073       	74.4011        	74.608925      	75.02731       	73.85733       	74.59371       	74.21579       	74.979645      	75.54971       	76.28499       	77.29777       	75.47687       	72.79194       	74.22281       	74.303894      	74.22074       	74.16448       	75.09285       	74.37201       	74.38673       	74.574646      	74.75162       	75.017944      	74.05132       	74.464165      	75.08804       	73.97759       	74.73696       	74.529755      	74.27605       	74.680466      	74.70488       	74.2213        	74.58985       	73.85074       	71.836006      	73.21844       	73.19268       	73.30785       	74.9711        	74.229065      	74.83598       	74.38401       	74.51457       	74.53841       	74.784454      	74.19675       	74.60561       	74.615875      	74.28881       	74.53524       	74.679405      	74.5066        	74.73794       	74.32242       	74.61537       	
74.48919       	74.85371       	74.91179       	74.47103       	74.65926       	74.15139       	75.07571       	74.28199       	74.35259       	74.78806       	74.31238       	74.48824       	75.0512        	74.15981       	74.65373       	74.39926       	74.484505      	74.69052       	74.29295       	74.45842       	74.73679       	74.44455       	74.58187       	74.66752       	74.630585      	74.278915      	74.89881       	74.42343       	74.27428       	74.70883       	72.087204      	71.74256       	73.46863       	73.74406       	72.97033       	73.78403       	73.880005      	75.15379       	74.31096       	74.25165       	74.4683        	75.06656       	74.31675       	74.16844       	74.76904       	74.524284      	74.30788       	74.17583       	74.786995      	74.3602        	75.175934      	74.762726      	75.272934      	76.54763       	76.79152       	76.08139       	75.70517       	73.29686       	73.99292       	74.36978       	74.66787       	74.35812       	74.83128       	74.66254       	74.359375      	74.02425       	74.608894      	74.961586      	74.40174       	74.17325       	74.70443       	74.9264        	73.98791       	74.46874       	75.3432        	74.088875      	73.74368       	74.93741       	74.13287       	72.291336      	72.828804      	73.16108       	73.54371       	74.26713       	74.79755       	74.43388       	74.41854       	74.42544       	74.53071       	74.74491       	74.15441       	74.689         	74.82185       	74.49449       	74.54536       	74.3721        	74.50213       	74.51891       	74.81124       	74.64182       	
74.930885      	75.00062       	75.3417        	74.5802        	74.43082       	74.23724       	74.74018       	73.88037       	75.09629       	74.84635       	74.262         	74.20808       	75.03661       	74.31225       	75.11356       	74.2702        	74.448586      	74.30447       	74.6401        	74.11231       	74.465096      	74.74075       	74.401886      	74.542         	74.466         	74.4703        	73.64284       	72.70066       	72.608246      	73.34815       	73.60858       	74.06754       	74.17975       	74.76493       	73.68809       	74.69855       	74.253876      	74.77991       	74.46412       	75.10646       	74.59212       	74.265755      	74.649086      	74.56873       	74.892876      	74.43649       	74.02819       	74.818756      	74.68205       	74.379845      	74.595215      	74.84079       	74.91137       	76.48128       	76.0171        	77.427864      	76.22372       	73.8346        	74.34912       	74.406815      	74.38988       	74.41353       	74.29783       	74.93864       	74.37415       	74.40903       	74.42416       	74.554016      	74.48703       	74.731575      	74.08048       	74.471214      	74.64979       	74.43067       	74.71539       	74.337006      	74.02998       	75.17141       	74.44341       	71.961464      	73.219185      	72.8802        	72.867294      	73.95768       	75.09996       	74.66116       	74.15587       	74.503044      	75.45239       	74.09229       	74.10595       	74.91937       	74.269165      	74.37258       	74.52045       	74.64389       	74.84257       	74.240555      	74.91726       	74.578636      	
74.51943       	74.53411       	74.63595       	74.67237       	74.33441       	74.46141       	74.6387        	74.47007       	74.65267       	74.57403       	74.40425       	74.642426      	73.94221       	74.04855       	75.02976       	74.354904      	74.57485       	74.5378        	74.76513       	74.18421       	74.50014       	75.31588       	72.66177       	72.10071       	72.65519       	73.36327       	73.67101       	74.62173       	74.16698       	74.08518       	74.88981       	74.57742       	74.707375      	74.32075       	73.95737       	75.20668       	74.636246      	74.24834       	74.435524      	74.40673       	74.797066      	74.27865       	74.75361       	74.839516      	74.37372       	74.81173       	74.24159       	74.67906       	74.403755      	74.299706      	74.734886      	74.32717       	75.0848        	75.96564       	76.080574      	77.8961        	76.10251       	72.97627       	74.26262       	74.497696      	74.15154       	74.45883       	74.62827       	73.971275      	74.68114       	74.87957       	74.38088       	74.74324       	74.3933        	74.15802       	75.06944       	74.869576      	74.356674      	74.56819       	74.148125      	74.75724       	74.548546      	74.14568       	75.11922       	72.452866      	72.47917       	73.19332       	73.28429       	73.70099       	74.19324       	75.09593       	74.92722       	73.7595        	75.281334      	74.51457       	74.36679       	74.239975      	74.08068       	74.74088       	74.62477       	74.604805      	74.94772       	74.435745      	74.51636       	74.48933       	
74.41455       	74.51998       	74.6008        	74.78567       	73.90754       	74.77452       	74.80139       	74.60642       	74.393456      	74.51179       	74.58602       	74.59578       	74.82724       	74.01203       	74.79838       	74.40904       	74.52065       	74.63054       	69.899925      	71.98102       	73.0115        	74.13152       	73.60183       	73.92984       	73.87552       	74.570465      	74.44138       	75.08053       	74.64465       	74.47137       	74.60251       	74.48604       	74.550804      	73.99627       	74.76241       	74.68511       	74.441795      	74.93192       	74.11065       	74.46081       	75.187965      	74.116234      	74.563416      	74.51183       	74.30443       	74.823555      	74.38474       	74.629486      	74.953865      	74.25486       	74.55265       	74.59617       	74.82461       	75.69064       	75.5517        	77.81872       	74.689865      	72.7524        	74.22693       	75.333954      	74.14475       	74.1758        	74.412346      	74.77356       	74.157074      	74.41903       	74.504005      	74.30739       	74.826744      	74.29384       	74.98954       	74.90764       	73.26216       	74.37352       	74.143425      	74.59928       	74.67676       	74.40686       	74.99604       	73.72972       	71.84013       	73.07599       	73.21187       	74.122765      	74.45246       	74.41626       	75.16559       	75.903114      	73.00518       	74.47645       	74.48643       	74.41714       	74.442726      	74.47821       	74.87669       	74.2674        	74.477646      	74.78592       	74.51992       	74.52052       	
74.4703        	74.541565      	75.40755       	74.842155      	74.02978       	74.671036      	74.73402       	74.412735      	74.36241       	74.76681       	74.2807        	74.590614      	74.47642       	74.15798       	74.68822       	74.55568       	74.58521       	72.06175       	71.55854       	72.73414       	74.141426      	74.78516       	74.511665      	74.4797        	74.16893       	74.42654       	74.559715      	75.22428       	74.475716      	74.49098       	74.9117        	74.33153       	74.626434      	74.58134       	74.64212       	74.467766      	74.510765      	74.84841       	74.06398       	74.50995       	74.55182       	74.68357       	74.447014      	74.42562       	75.11986       	74.30706       	74.4664        	74.308815      	74.58407       	74.6226        	74.29284       	74.90725       	74.65205       	75.30558       	76.268715      	77.716415      	75.38143       	75.86212       	73.45143       	74.37007       	74.71371       	74.836525      	74.028404      	74.67924       	74.137215      	74.79463       	74.23515       	74.45642       	74.72056       	74.11617       	74.39386       	74.60306       	74.56518       	73.9799        	74.87235       	74.39929       	74.516464      	74.25424       	74.10327       	74.448654      	71.97147       	73.032326      	73.37604       	73.388306      	74.35343       	74.528404      	74.71256       	74.49771       	74.317116      	74.60056       	74.87535       	73.953         	74.87534       	74.52544       	74.65722       	74.355934      	74.53824       	74.96056       	74.06809       	74.679         	
74.431175      	74.569916      	74.90293       	74.63373       	74.64341       	74.57993       	74.46239       	74.51817       	74.60523       	74.28975       	74.617065      	74.53456       	74.45937       	74.81652       	74.61656       	74.32007       	72.93729       	71.41584       	72.59908       	73.576035      	73.889946      	75.3544        	75.211945      	73.1424        	75.35852       	74.27231       	74.39354       	74.63041       	74.493065      	74.46389       	74.66218       	75.303024      	74.06989       	74.74535       	74.412674      	74.68302       	74.847824      	73.99104       	74.632675      	75.17554       	73.94766       	74.654625      	74.81783       	74.45591       	74.2985        	74.770706      	74.59668       	74.358376      	74.30264       	75.095566      	74.38683       	74.16743       	74.86439       	74.91443       	76.22735       	76.98643       	77.00454       	75.65775       	73.48816       	73.873146      	75.24301       	74.11551       	74.0796        	74.57457       	74.7144        	74.3373        	74.953926      	74.25197       	74.32771       	74.71979       	74.57718       	74.41719       	74.33068       	73.94916       	74.835686      	74.18732       	74.44398       	74.42843       	74.679985      	74.00419       	72.91608       	72.92372       	73.20324       	73.59514       	73.92184       	74.61625       	74.28828       	74.58747       	74.45162       	74.51741       	74.62918       	74.64722       	74.537346      	74.637115      	74.37004       	74.56817       	74.74105       	74.40126       	74.436424      	74.663864      	
74.6855        	74.96908       	74.874405      	74.32609       	74.510506      	74.52345       	74.30549       	74.683914      	74.38808       	74.32943       	74.92228       	74.09871       	74.77869       	74.561104      	74.4849        	74.23812       	72.56961       	72.265274      	73.53742       	73.05082       	73.55037       	75.0131        	74.81176       	74.33737       	74.54076       	74.51408       	74.67132       	74.42873       	73.83807       	74.71112       	75.29818       	74.55302       	74.49696       	74.44172       	74.66837       	74.569664      	74.29493       	74.45579       	74.84671       	74.52365       	74.22049       	74.76244       	74.69582       	74.23176       	74.41945       	74.88612       	75.023315      	73.95914       	74.75459       	74.6433        	74.389336      	74.01795       	75.46891       	74.497536      	75.54575       	76.01966       	77.71566       	76.46365       	72.650955      	74.01191       	74.35657       	74.80441       	74.5281        	74.386925      	75.032005      	74.188354      	74.618706      	73.690285      	75.1444        	73.8823        	74.43092       	73.90029       	75.08865       	74.148605      	74.29674       	74.12334       	74.77783       	74.26288       	74.387886      	74.35567       	73.70712       	71.89998       	73.36314       	72.7818        	73.71477       	74.92017       	74.672935      	74.80466       	74.38425       	74.03014       	74.437065      	74.83659       	74.26618       	74.67734       	74.61377       	74.35513       	74.783806      	74.584076      	74.67054       	74.58919       	
74.4458        	74.853134      	74.93126       	74.544426      	74.41482       	73.97986       	74.78679       	74.34054       	74.63494       	74.567474      	74.59549       	74.00645       	74.31634       	74.529236      	74.65713       	74.8747        	73.149765      	71.763466      	73.20939       	73.03639       	73.56217       	74.294         	74.5362        	74.60743       	74.73951       	74.36208       	74.8049        	74.42674       	74.762184      	74.536644      	74.457054      	75.0013        	74.102715      	74.97923       	74.59765       	74.708275      	74.79117       	74.78667       	74.29575       	74.35122       	74.611916      	74.279724      	74.544426      	74.89631       	74.72883       	74.36565       	74.13983       	74.96937       	74.82842       	74.24829       	74.415405      	74.61883       	74.582756      	74.83338       	76.033966      	76.40454       	77.33796       	75.0946        	73.66568       	74.841194      	74.554245      	73.47731       	74.65126       	74.64232       	74.72335       	74.06882       	75.069534      	74.42531       	74.15026       	74.72405       	73.60837       	74.67736       	75.16351       	73.70812       	74.58035       	75.45872       	74.42418       	74.33014       	74.68957       	74.22072       	74.0652        	71.67064       	72.867455      	73.24767       	73.49708       	74.379715      	74.71819       	74.33505       	74.83587       	74.76819       	74.43119       	74.7435        	74.146255      	74.2104        	74.87809       	74.62001       	74.773384      	74.30431       	74.58359       	74.68909       	
74.521416      	74.39391       	74.32489       	74.58517       	74.72003       	74.38736       	74.740234      	74.861145      	74.64327       	73.78415       	74.38531       	74.56383       	74.86383       	74.37839       	74.361565      	74.585144      	74.473526      	71.197174      	72.95437       	73.03655       	73.360634      	74.03644       	74.85968       	74.64885       	74.73643       	74.32906       	75.24858       	74.348434      	74.61153       	74.265854      	74.711205      	74.54887       	74.45154       	74.702866      	74.795364      	74.18637       	74.93172       	74.040825      	74.61424       	74.854065      	74.10024       	74.57103       	74.66699       	74.48219       	74.413574      	74.69174       	74.16308       	74.98783       	74.58827       	74.349396      	74.106         	74.431046      	74.91172       	74.28894       	75.50443       	76.27602       	77.5369        	75.94298       	73.77863       	74.155075      	74.50737       	74.47555       	73.98981       	74.754         	74.673355      	74.075745      	74.72605       	74.61974       	74.62554       	74.707146      	73.924255      	74.44695       	74.83418       	74.542854      	74.329285      	74.59266       	74.67078       	74.74022       	74.26527       	73.975555      	74.72631       	71.58171       	72.88738       	73.19609       	73.41885       	74.574104      	74.07439       	74.723045      	74.985         	74.01442       	75.14152       	74.803314      	74.14351       	74.603294      	74.56256       	74.38977       	74.52878       	74.75595       	74.173416      	74.2539        	
74.611664      	74.643036      	74.91734       	74.95822       	75.50336       	73.79815       	74.526474      	74.57375       	74.14911       	74.6716        	74.3474        	74.34702       	74.70345       	74.73105       	74.56521       	74.47677       	74.97548       	71.89392       	72.43607       	73.16495       	73.06464       	73.70045       	74.32099       	74.43835       	74.80139       	74.30508       	74.53111       	74.60312       	74.422554      	74.84545       	74.706856      	73.96182       	74.72435       	74.618095      	75.11358       	74.25791       	74.90313       	74.73473       	74.07404       	74.34347       	75.034904      	74.06091       	75.09935       	74.10711       	75.0392        	74.36999       	74.49909       	74.750175      	74.42779       	74.633606      	74.45007       	74.96384       	74.16381       	74.57863       	75.60026       	75.79829       	76.02717       	78.036285      	73.15304       	73.43362       	74.2569        	74.472305      	74.69015       	74.853325      	74.46771       	74.58581       	74.69349       	74.08001       	75.07715       	74.140945      	74.889786      	74.39568       	74.67661       	74.01084       	75.06641       	74.74233       	74.30034       	74.45594       	74.416016      	74.594925      	74.3104        	72.05257       	73.01397       	73.31121       	73.15719       	73.61851       	74.43077       	74.5852        	74.91091       	74.64479       	74.62389       	74.55824       	74.51288       	74.68389       	74.64703       	74.17947       	74.95211       	74.20835       	74.326454      	74.546036      	
74.48783       	74.698265      	74.41604       	75.04122       	74.34333       	74.53334       	74.57361       	74.5355        	74.579445      	74.56831       	74.575226      	74.532234      	74.54855       	74.47797       	74.006996      	74.94917       	74.63466       	73.65832       	71.52263       	73.057976      	73.15316       	73.4716        	74.86795       	74.90804       	74.498215      	74.581924      	74.70486       	74.51998       	74.84319       	74.443924      	74.396545      	74.69679       	74.37096       	74.466446      	74.80077       	74.47921       	74.548584      	74.825264      	74.83644       	73.97665       	74.90052       	74.116295      	75.03128       	74.47887       	74.52486       	74.54652       	74.32765       	74.821724      	74.77786       	74.29688       	74.35335       	74.79032       	74.15089       	74.583275      	75.09166       	76.11727       	76.23801       	77.03695       	76.50784       	73.21547       	73.84837       	74.773346      	74.170334      	73.93195       	74.072105      	74.38902       	75.362595      	74.33287       	74.881546      	74.55953       	74.10095       	74.29871       	74.88068       	74.15918       	74.71122       	74.652954      	74.28099       	74.74154       	74.18174       	74.7171        	74.30107       	72.461334      	72.496124      	73.062546      	73.033325      	74.55825       	74.331825      	74.68465       	75.08016       	74.50007       	74.03134       	74.84974       	74.237755      	74.777954      	74.541016      	74.53987       	74.47752       	74.719345      	74.31387       	74.4041        	
73.86698       	74.71606       	74.70967       	74.63566       	74.43375       	74.20679       	74.64848       	75.00854       	74.70996       	74.04311       	75.04436       	74.817665      	74.161934      	74.16272       	75.068245      	74.540115      	74.24439       	74.21368       	71.70929       	72.88844       	73.3406        	73.23805       	74.18585       	74.27373       	75.310974      	74.05188       	74.84347       	74.17299       	74.65113       	74.59724       	75.12613       	74.1883        	75.108536      	74.24271       	74.29183       	74.571236      	74.890625      	74.44325       	74.600655      	74.507904      	74.57242       	74.624886      	74.55334       	74.48437       	74.41406       	74.3943        	74.65251       	74.53228       	74.40922       	74.784294      	74.42869       	74.644775      	74.6095        	74.635704      	74.255104      	75.81626       	76.06488       	78.376465      	77.524956      	72.72531       	74.04183       	74.62968       	74.56513       	74.44957       	74.98787       	74.431694      	74.42955       	74.61705       	74.39236       	74.56628       	74.76357       	74.25463       	74.423325      	74.49341       	74.72375       	74.12529       	74.60775       	74.91808       	74.24576       	74.631355      	73.94753       	73.756096      	72.154106      	73.13722       	72.98112       	73.96113       	74.54244       	74.58961       	74.85439       	74.05724       	74.83142       	74.569916      	74.36405       	74.46611       	74.65638       	75.0691        	74.291245      	74.412415      	74.71004       	74.39265       	
74.56941       	74.738335      	74.65335       	74.60954       	74.18408       	74.67137       	74.71911       	74.31832       	75.10174       	74.21913       	74.38372       	74.79066       	74.35568       	74.435844      	74.5235        	74.54908       	74.52169       	74.59472       	71.83455       	72.39199       	72.9595        	73.23505       	74.09005       	74.64666       	74.90552       	74.67115       	74.50601       	74.37414       	74.67088       	74.85219       	75.31373       	74.15776       	74.25659       	75.073456      	74.65966       	74.35083       	74.504585      	74.70481       	74.65139       	74.16371       	74.84199       	74.43546       	74.47906       	74.86708       	74.19507       	74.598335      	74.15982       	74.972404      	74.721436      	74.41528       	74.66714       	74.475         	74.664024      	74.557846      	74.13864       	75.6575        	75.46881       	76.97853       	77.465126      	73.149864      	73.916565      	74.191376      	74.48011       	74.8967        	73.96479       	75.24574       	74.16014       	74.33545       	74.45409       	74.9942        	74.586876      	73.78501       	74.54776       	74.40585       	74.1343        	73.81046       	74.95382       	74.49765       	74.47135       	74.68042       	74.63171       	73.65996       	71.80555       	73.07727       	73.23121       	73.35085       	74.70996       	74.97134       	74.00101       	74.22131       	74.67009       	74.73359       	74.488815      	74.20688       	74.66057       	74.84927       	74.27435       	74.57308       	74.84459       	74.456276      	
74.50132       	75.18261       	74.92577       	74.07379       	74.2027        	74.32532       	74.66962       	74.4779        	74.5436        	74.766045      	74.48816       	74.60021       	74.64105       	74.53588       	74.48164       	74.86007       	74.13783       	74.427055      	72.16475       	72.59498       	73.26004       	73.52154       	73.84862       	74.60326       	74.96628       	74.47461       	74.58517       	74.38381       	74.96168       	74.27858       	74.45501       	74.62645       	74.62302       	74.73019       	74.49557       	74.30367       	74.91409       	74.24563       	74.43053       	74.79661       	74.89286       	74.09102       	74.74422       	74.59493       	74.333626      	74.72589       	74.400055      	74.46255       	74.0156        	75.523705      	74.38235       	74.46616       	74.5767        	74.702156      	74.17759       	75.18921       	76.38697       	76.79          	76.19722       	75.46725       	73.26368       	74.48028       	74.28402       	74.407906      	73.869965      	74.95012       	74.39216       	74.32058       	74.82712       	74.30942       	74.663246      	74.384895      	74.29348       	74.66657       	74.56482       	74.05115       	74.94969       	74.445946      	74.67889       	74.12853       	74.055855      	74.71045       	71.66525       	72.885124      	73.31743       	73.03503       	74.27752       	75.10248       	74.4224        	73.99948       	74.78212       	75.67612       	73.21514       	74.85644       	74.674194      	74.4769        	74.17275       	74.357895      	74.46631       	74.87391       	
74.52906       	74.90812       	75.20769       	74.52884       	74.5504        	74.63408       	74.5602        	74.275276      	74.92427       	74.294586      	74.58537       	74.333405      	74.73643       	74.57285       	74.35003       	74.4471        	74.567116      	74.51603       	73.63027       	72.108345      	72.97365       	73.23718       	73.58779       	74.37671       	74.616745      	74.303665      	74.15402       	75.548836      	74.828384      	74.29443       	74.456436      	74.0369        	75.20988       	74.123955      	74.90322       	74.24217       	74.92177       	74.42928       	74.50751       	74.73008       	74.43837       	74.55199       	74.91253       	74.21835       	74.76696       	74.52796       	74.66809       	74.76575       	74.205414      	74.645424      	74.44599       	74.33067       	75.00576       	74.19148       	74.28412       	75.22772       	76.09308       	76.3878        	76.07221       	76.1402        	73.707855      	74.208145      	73.56509       	74.720406      	74.99106       	74.06187       	74.947464      	74.56912       	74.64373       	74.42927       	74.65794       	74.17508       	74.77822       	74.35957       	74.60019       	74.53327       	74.26165       	74.34279       	75.141106      	74.378746      	74.4689        	74.47933       	72.30888       	72.38465       	72.91577       	73.21834       	74.13247       	74.774475      	74.69939       	74.77123       	74.33389       	74.48556       	74.83051       	74.78464       	73.59096       	75.246445      	74.83652       	74.30328       	74.54274       	74.35317       	
74.429         	74.59884       	75.19808       	74.58405       	74.65709       	74.44806       	74.5796        	74.42793       	74.63772       	74.62861       	74.39178       	74.51283       	74.38929       	74.76499       	74.45784       	74.57224       	74.41809       	74.258354      	74.2591        	71.92896       	72.94189       	73.214554      	73.24192       	74.84665       	74.14644       	74.77389       	75.77211       	73.41405       	75.002716      	74.34596       	74.5911        	74.53284       	74.04534       	74.45202       	74.67905       	74.8499        	74.899635      	74.10749       	74.67688       	74.73794       	74.42634       	74.48669       	74.669624      	74.63443       	74.589195      	74.59491       	74.63931       	74.31063       	74.48495       	74.96526       	74.106804      	74.06778       	74.72865       	74.65072       	74.56912       	74.363594      	75.29401       	76.331184      	77.2425        	78.183365      	73.84679       	73.66054       	73.77994       	74.784775      	74.85174       	74.83809       	74.294         	74.33105       	74.50063       	74.87325       	74.1604        	74.35588       	74.80107       	74.535645      	74.53109       	74.259766      	73.94865       	74.77152       	74.755295      	74.571236      	74.70862       	74.51379       	72.433304      	72.25766       	73.138435      	73.069595      	73.64496       	74.73437       	74.837746      	74.265465      	74.90332       	74.030785      	74.914894      	74.11572       	74.89298       	74.643524      	74.19618       	74.34853       	74.53159       	74.62957       	
74.12167       	74.754326      	74.79519       	75.08377       	74.85816       	74.50348       	74.62069       	74.44594       	74.79177       	74.37407       	74.75008       	74.49678       	74.58319       	74.51223       	74.287674      	74.24414       	74.88761       	74.54667       	74.30447       	71.75511       	73.05004       	73.35245       	73.035         	74.52108       	74.143745      	74.53793       	74.77961       	74.49095       	74.77759       	74.5154        	74.77052       	74.54725       	74.54582       	74.47903       	74.77124       	74.23309       	74.61562       	74.9305        	74.52987       	74.31906       	74.33794       	74.6527        	74.80478       	74.63542       	74.64396       	74.06256       	74.638435      	74.742035      	74.65115       	74.45154       	74.470535      	74.98778       	74.7276        	74.08824       	74.670845      	74.32902       	75.67251       	76.16921       	76.77781       	77.16717       	75.538795      	74.05858       	74.27734       	74.1554        	74.3124        	74.756096      	74.22793       	74.91104       	74.52434       	74.60518       	74.382935      	74.15706       	75.18723       	74.33726       	74.43349       	74.11744       	74.687386      	74.873566      	74.35422       	74.46738       	74.44161       	74.79172       	73.20817       	71.756294      	73.26338       	73.37122       	73.56199       	74.338165      	74.380875      	74.96143       	74.42526       	74.2176        	74.967514      	74.39895       	74.36415       	74.65996       	74.70481       	75.606316      	74.26659       	75.215164      	
74.628815      	74.91538       	74.705574      	74.59015       	74.678734      	74.407906      	74.45827       	74.326935      	74.756714      	74.693665      	74.36435       	74.51446       	74.5459        	74.91427       	74.136375      	74.28829       	74.51785       	74.6109        	74.6176        	72.99931       	71.96717       	72.995544      	73.137535      	73.926994      	75.03946       	75.01958       	74.307274      	74.68309       	74.20099       	74.60662       	74.70721       	74.45335       	74.43419       	74.578865      	74.735435      	74.3603        	74.29808       	74.82435       	74.733765      	74.35234       	74.692         	74.64634       	74.57894       	74.0914        	74.90978       	74.76812       	73.9652        	74.36792       	74.8915        	74.6209        	74.18581       	75.280975      	73.889854      	74.73156       	74.47332       	74.39465       	75.045044      	75.782         	76.887955      	76.483765      	77.033455      	73.61454       	74.40419       	74.42518       	74.241234      	74.35245       	75.05545       	74.18121       	74.210594      	74.82617       	74.41648       	74.31574       	74.685165      	74.68145       	74.33951       	74.63101       	74.41954       	74.627914      	74.53955       	74.44201       	74.4572        	74.44492       	74.22516       	71.833595      	72.7519        	73.18583       	73.112595      	74.111534      	74.65821       	74.45024       	74.67976       	74.53531       	75.09865       	73.809906      	74.60143       	75.271454      	73.62768       	74.43025       	75.736206      	74.36891       	
74.62186       	74.600845      	74.5061        	74.75917       	74.23829       	74.69415       	74.81462       	74.36132       	74.49417       	74.48735       	74.64733       	74.18112       	74.18454       	75.43633       	73.75845       	74.17441       	74.79233       	74.84127       	74.20565       	73.80041       	71.57667       	73.21404       	73.24352       	73.86237       	74.8094        	74.58937       	74.56818       	74.89888       	74.073845      	74.42492       	74.57616       	74.7115        	74.093956      	74.95862       	74.46302       	74.31          	74.81438       	74.70196       	74.36007       	74.57138       	74.64036       	74.626526      	74.68558       	73.741005      	74.24141       	74.75917       	74.18674       	75.04423       	74.49719       	74.45434       	74.57508       	74.769196      	74.554         	74.54554       	74.57182       	74.357895      	74.995834      	76.01096       	76.39343       	77.64547       	77.149414      	72.97678       	74.07104       	74.808304      	74.31089       	74.58831       	74.582794      	74.129456      	74.72846       	74.42341       	74.56165       	74.3608        	74.50728       	74.825134      	74.47056       	74.45202       	74.63918       	75.07258       	73.821785      	74.5631        	74.560425      	74.5185        	74.437546      	72.07028       	72.56946       	73.202545      	73.399086      	73.825165      	74.4665        	75.058365      	75.30448       	74.970856      	73.6919        	75.8277        	74.61106       	74.84812       	74.020775      	75.0403        	75.07036       	75.593544      	
74.56981       	74.77044       	74.52138       	74.34344       	74.68919       	74.46416       	74.46326       	74.60981       	74.59398       	75.024155      	74.20809       	74.93688       	73.73942       	74.93754       	74.13937       	74.489815      	74.814224      	74.07294       	74.845116      	73.358536      	71.586784      	73.22801       	73.30256       	73.263084      	74.18814       	74.58191       	75.80385       	73.816574      	74.5272        	75.09001       	74.49417       	74.17816       	74.3969        	74.73473       	74.500824      	74.39563       	74.66971       	74.75492       	74.27313       	74.46735       	74.51767       	74.47244       	74.55343       	74.59937       	74.47398       	74.772415      	74.28284       	74.8895        	74.29933       	74.50756       	74.38005       	74.55873       	74.808914      	74.470894      	74.53694       	74.339836      	74.793434      	75.83675       	76.56604       	77.547646      	74.32899       	73.985695      	73.850586      	74.50182       	74.41882       	74.47445       	74.623764      	74.2311        	74.55645       	74.67325       	74.87852       	73.98768       	74.501045      	74.63514       	74.325584      	74.58887       	75.01275       	74.14882       	74.78934       	74.14532       	74.77348       	74.42901       	74.51915       	73.47912       	72.039986      	73.71659       	74.025856      	73.90534       	73.95745       	74.57037       	74.61646       	74.82228       	74.6883        	75.46622       	74.7581        	74.89225       	73.942505      	75.122574      	75.212296      	75.02889       	
74.30471       	74.610466      	75.324524      	74.6982        	74.31535       	74.687965      	74.39161       	74.6468        	74.61379       	74.599884      	74.568535      	74.33494       	74.50661       	75.1044        	74.307655      	73.9404        	74.951355      	74.57183       	74.172485      	74.35247       	72.160194      	72.6358        	73.3676        	73.12887       	73.95041       	75.32611       	74.76208       	74.375244      	74.023964      	74.40346       	74.95295       	74.35628       	74.33013       	74.64676       	74.864876      	74.193344      	74.784935      	74.55746       	74.53546       	74.67132       	74.38507       	74.46784       	74.31323       	74.7523        	74.70295       	74.46743       	74.555565      	74.81477       	74.35627       	74.526886      	74.678055      	74.485275      	74.65624       	74.38573       	74.68009       	74.57686       	74.470474      	75.57084       	76.43889       	76.86195       	76.8207        	74.25353       	74.128975      	74.28441       	74.577286      	74.26632       	74.43291       	74.92222       	74.282455      	74.63987       	74.42689       	74.33001       	74.58548       	74.53799       	74.64129       	74.49006       	74.46938       	74.80057       	74.23708       	74.54514       	74.704575      	74.57892       	74.37575       	74.62363       	74.08604       	73.93383       	73.18915       	73.95968       	74.636925      	72.77118       	74.27205       	74.646614      	74.8572        	74.61248       	75.25096       	74.70475       	73.90156       	74.617935      	74.43127       	76.2272        	
74.569664      	74.899055      	74.92905       	74.35792       	74.46836       	74.64826       	74.77953       	74.36695       	74.54842       	74.58417       	74.65185       	74.48365       	74.46623       	74.38069       	74.70175       	74.66416       	74.587906      	74.37444       	74.29161       	74.83264       	73.34756       	71.879135      	73.56951       	73.22741       	73.83583       	74.49489       	74.51891       	74.55214       	74.72724       	74.394806      	74.75137       	74.52787       	74.179276      	74.70475       	74.79071       	74.58713       	74.50605       	74.45606       	74.64522       	74.50438       	74.55595       	74.5979        	74.308846      	74.43283       	74.651955      	74.81213       	74.28698       	74.58126       	74.61978       	74.61639       	74.38857       	74.61853       	74.90592       	74.03374       	74.62227       	74.81769       	74.1198        	75.21193       	76.09283       	76.55387       	77.27965       	74.8034        	73.31407       	74.124176      	74.104706      	75.00169       	74.20784       	74.43009       	74.656136      	74.35239       	74.15049       	74.635666      	74.86293       	74.76561       	74.028404      	74.8073        	74.55166       	74.677284      	74.465416      	74.44776       	74.635155      	74.7558        	74.01109       	75.1568        	73.76228       	75.05342       	73.08177       	73.81082       	74.75504       	73.354965      	74.08132       	75.57543       	75.83794       	75.24871       	74.16627       	74.74221       	75.181274      	74.703         	73.637924      	74.47904       	
74.7021        	74.85001       	75.569916      	74.46141       	73.87589       	74.279236      	74.88431       	74.2199        	74.91264       	74.35177       	74.61287       	74.34998       	74.44799       	74.56577       	74.622574      	74.918236      	74.202354      	74.56965       	74.56884       	74.24971       	74.48998       	71.98104       	72.59529       	73.10398       	73.49014       	74.71422       	74.48975       	74.846344      	74.55101       	74.15664       	74.85614       	74.45748       	74.75396       	74.68789       	74.05607       	74.86652       	74.355545      	74.79472       	74.77844       	74.19293       	74.47204       	74.665955      	74.90376       	74.01419       	74.35878       	74.885315      	74.50186       	74.670525      	74.31675       	74.633606      	74.68047       	74.77523       	74.12757       	74.69202       	74.77987       	74.18387       	74.518875      	75.13672       	75.58531       	76.444145      	77.0298        	75.6239        	73.501884      	74.32318       	74.124626      	74.16005       	75.16194       	73.8133        	74.54009       	74.48079       	74.662674      	74.45075       	74.33032       	74.88744       	74.46634       	74.46117       	74.57912       	74.39877       	74.61193       	74.43363       	74.452385      	74.94807       	74.12853       	74.453735      	74.799835      	74.32057       	74.52077       	74.91648       	74.658585      	73.60618       	74.60759       	74.46752       	75.34029       	74.571396      	72.9757        	74.62733       	74.50149       	74.05899       	75.25693       	74.385704      	
74.601616      	74.75168       	74.67473       	74.59121       	74.26072       	74.37267       	74.90378       	74.3393        	74.57777       	74.43283       	74.83877       	74.370705      	74.52504       	74.61625       	74.45495       	74.75851       	74.69515       	74.382         	74.73262       	74.250725      	74.500084      	71.19091       	73.18406       	73.1659        	73.01401       	74.36437       	75.173355      	74.66112       	74.19652       	74.51614       	74.11655       	75.07687       	73.99515       	74.526886      	74.49505       	74.5979        	74.568756      	74.70033       	74.41479       	74.63591       	74.72449       	74.24378       	74.51956       	74.765976      	74.63784       	74.77306       	74.16894       	74.44569       	74.63457       	74.49052       	74.64066       	74.616104      	74.30255       	74.60328       	74.43045       	74.89054       	74.41406       	74.68431       	75.95072       	76.21462       	77.58342       	76.39204       	73.62486       	74.312614      	73.97632       	74.26061       	74.36693       	74.60346       	74.52656       	74.93393       	74.64137       	74.19284       	74.677         	74.68877       	74.52451       	74.40712       	74.43384       	74.9927        	74.22517       	74.78203       	74.183876      	74.85902       	74.20301       	74.660645      	74.51611       	74.55265       	74.30328       	74.62667       	74.239555      	74.944         	74.463875      	74.46515       	74.22315       	74.40512       	74.88372       	74.609085      	74.4303        	74.56056       	74.13867       	74.51572       	
74.47386       	74.541046      	74.44365       	74.54587       	74.74989       	74.74868       	74.44016       	74.74448       	74.23367       	74.59297       	74.468414      	74.90653       	74.473595      	74.550606      	74.3568        	74.72551       	74.69452       	74.320274      	74.28789       	74.57793       	74.54353       	71.69291       	72.85027       	73.14103       	72.83231       	74.08962       	75.093376      	74.558174      	74.74611       	74.43869       	74.55993       	74.75374       	74.38935       	74.81773       	74.62472       	74.42767       	74.74158       	74.365105      	74.86201       	74.42696       	74.52742       	74.30714       	74.60625       	74.768845      	74.345184      	74.64156       	74.866844      	74.14783       	74.87215       	74.576546      	74.3037        	74.744514      	75.00671       	73.993904      	74.62328       	74.53819       	74.431175      	74.42494       	75.06534       	76.47728       	76.55667       	76.85721       	75.96297       	73.56082       	73.91807       	74.321266      	74.962364      	74.372894      	74.69438       	74.858406      	73.788086      	74.11377       	74.72294       	74.394264      	74.7993        	74.27288       	74.447334      	74.52997       	74.63563       	74.590164      	74.63411       	74.879456      	74.10283       	74.54281       	74.715836      	73.964554      	74.62454       	74.88715       	73.68736       	74.01764       	75.08266       	74.27937       	74.57214       	74.47634       	74.776825      	74.41232       	74.71164       	74.742775      	74.1545        	74.966255      	
74.394135      	74.60003       	75.74583       	74.56303       	74.53583       	74.621376      	74.56536       	74.13202       	74.70365       	74.55617       	74.52827       	74.58717       	74.66856       	74.44844       	74.74235       	74.32476       	74.76104       	74.75336       	74.235634      	74.26472       	74.744095      	72.062126      	72.767914      	73.28704       	73.78098       	73.730194      	74.77269       	74.470116      	74.65529       	74.39003       	74.53181       	74.74107       	74.40254       	74.89055       	74.68549       	74.07916       	74.29826       	74.79381       	74.677826      	74.27607       	74.562065      	74.49751       	74.83074       	74.39992       	74.328896      	74.93328       	74.73042       	74.18656       	74.653114      	74.73939       	74.061035      	74.892944      	74.35683       	74.23434       	74.86413       	74.83795       	74.17453       	74.45918       	75.11609       	76.06201       	76.059525      	78.25868       	76.52677       	73.371796      	74.18141       	74.353035      	74.4034        	74.65613       	74.883194      	74.09375       	74.50756       	74.41772       	74.27909       	74.783714      	74.81178       	74.0375        	74.74812       	74.65607       	74.42789       	74.01128       	74.91157       	74.08589       	74.39071       	74.72649       	74.623535      	74.51662       	74.30673       	74.56306       	74.27281       	74.34357       	74.75121       	74.858025      	74.34013       	73.76023       	75.065735      	74.50301       	73.942635      	74.42404       	74.49845       	74.64344       	
74.41573       	74.63285       	74.93782       	74.68012       	74.422646      	74.77284       	74.37281       	74.2447        	74.7405        	74.80044       	74.410095      	74.6273        	74.75025       	74.48242       	74.55769       	74.56736       	74.672005      	74.650154      	74.2357        	74.62557       	75.018394      	73.10569       	71.84376       	73.08371       	73.009766      	73.66119       	74.21291       	75.21525       	74.57756       	74.31066       	74.74014       	74.405914      	74.54222       	74.793076      	74.43651       	74.48601       	74.425804      	74.61175       	74.47611       	74.66673       	74.44864       	74.59054       	74.755005      	74.31713       	75.072556      	74.27311       	74.57268       	74.673874      	74.61399       	74.72704       	74.50469       	74.63845       	74.45957       	74.41257       	74.44166       	74.95577       	74.282135      	75.82224       	74.3105        	75.540405      	76.115364      	76.87384       	76.44386       	73.94117       	74.055435      	74.34692       	74.803276      	74.60433       	74.56621       	74.250946      	74.73632       	74.24503       	74.41897       	74.65477       	74.64091       	74.168846      	74.692406      	75.23048       	73.637115      	74.832306      	74.34645       	74.724976      	74.80953       	74.287476      	74.524254      	74.60626       	74.36611       	74.512535      	74.50242       	74.426094      	74.471085      	74.85151       	74.28793       	74.618805      	74.72117       	74.17656       	74.541176      	74.56916       	74.408066      	74.82121       	
74.53206       	74.83091       	74.77292       	74.291336      	74.82518       	74.31978       	74.97034       	74.05105       	74.91397       	74.69062       	74.28479       	74.803474      	74.38915       	74.37719       	74.5305        	74.605354      	74.39807       	74.70607       	74.62283       	74.43022       	74.433075      	74.6731        	71.548775      	72.761215      	73.41024       	73.25295       	74.18088       	75.126434      	74.51154       	74.918495      	74.07718       	74.13589       	74.58573       	74.44155       	74.68426       	74.30674       	74.73986       	74.881226      	74.47349       	74.519264      	74.27402       	74.40987       	74.865395      	74.38374       	74.507195      	74.4797        	74.51918       	74.51446       	74.373245      	75.10687       	74.18646       	74.95494       	74.29811       	75.26712       	74.49426       	74.692986      	74.65328       	75.015594      	75.261734      	74.73319       	75.05397       	75.60806       	76.43108       	74.7898        	74.63129       	73.60293       	74.36408       	74.61615       	74.660484      	74.107765      	74.74187       	74.24038       	74.343216      	74.879036      	74.218216      	74.65743       	74.62405       	74.47267       	74.67088       	74.44411       	74.58499       	74.42978       	74.723854      	74.38728       	74.687225      	74.441315      	74.61063       	74.49794       	74.195015      	74.54595       	74.32419       	74.770905      	73.99301       	74.773926      	74.631744      	74.74183       	74.339645      	74.80618       	73.92961       	75.02849       	
74.54517       	74.68517       	74.39383       	74.55932       	74.5329        	74.31411       	74.61186       	74.62624       	74.297226      	74.73998       	74.42117       	74.63741       	74.22419       	74.73398       	74.5837        	74.56628       	75.0504        	74.08128       	74.55034       	74.54623       	74.38636       	74.66823       	72.23833       	72.63302       	73.49016       	73.05024       	73.91726       	74.916115      	75.17454       	73.62977       	74.60571       	75.49125       	73.83248       	74.49081       	74.79306       	74.29465       	74.92777       	74.30004       	74.47084       	74.636696      	74.20988       	74.617485      	74.646835      	74.63239       	74.53346       	74.54234       	74.72055       	75.024734      	74.81592       	74.92272       	74.89175       	74.081795      	74.84885       	74.9301        	74.0644        	75.393036      	73.55743       	74.786125      	74.98921       	75.04549       	75.19595       	74.072876      	77.25901       	73.85866       	74.09792       	74.16651       	74.19543       	74.83766       	74.438835      	74.486374      	74.85754       	74.025734      	74.69911       	74.316666      	74.86755       	74.69663       	74.10346       	74.72873       	74.59852       	74.47714       	74.248695      	74.39063       	74.932686      	74.20996       	74.667435      	74.54235       	74.407104      	74.57677       	74.71318       	74.19766       	74.5938        	74.47386       	74.57005       	74.48743       	74.4778        	74.61463       	74.27763       	75.32523       	73.90472       	74.50816       	
74.510376      	74.63075       	74.45579       	74.51765       	74.83852       	73.97982       	74.62619       	74.65581       	74.14475       	75.200905      	74.11262       	74.605835      	74.42593       	74.429245      	74.67879       	74.38198       	74.63849       	74.72519       	74.39847       	74.30823       	74.65026       	74.47058       	72.89347       	72.023705      	73.52384       	73.108345      	73.392006      	74.724174      	74.809685      	74.41733       	74.486626      	74.98859       	74.53144       	74.19026       	74.902565      	74.365814      	74.63331       	74.19724       	74.64602       	74.743675      	74.43839       	74.93094       	74.66766       	74.713806      	74.52694       	74.64438       	75.29838       	73.90681       	75.367096      	74.64638       	74.530525      	74.13623       	74.804184      	75.29142       	75.288155      	73.64565       	74.99619       	74.20965       	75.90495       	74.46582       	76.107834      	74.943184      	75.68193       	73.51723       	74.38548       	74.09968       	74.59157       	74.25502       	74.89137       	74.06008       	74.53168       	74.847824      	74.75538       	74.22803       	74.62398       	74.80772       	74.108025      	74.6931        	74.60957       	74.46056       	74.917656      	74.3994        	74.51588       	74.29222       	75.205         	74.17179       	74.15632       	74.51947       	74.78526       	74.082245      	74.709595      	74.3344        	74.88263       	74.43594       	73.97909       	75.00247       	74.25032       	74.33533       	74.66928       	74.90998       	
74.58409       	74.537155      	74.756744      	74.8393        	74.5177        	74.72532       	74.696724      	74.17559       	74.37602       	75.29096       	73.97176       	74.61982       	74.333206      	74.42504       	75.13267       	74.046135      	74.57863       	74.820015      	74.50715       	74.53271       	74.52949       	74.29412       	73.95033       	71.80091       	73.34405       	73.06105       	73.469536      	74.478226      	74.85902       	74.1754        	74.478584      	74.61294       	74.62802       	74.41396       	74.64502       	74.38744       	74.53393       	74.27107       	74.80811       	74.83152       	74.80335       	75.75975       	74.04823       	75.03447       	74.47335       	74.3078        	74.57006       	74.96565       	74.63143       	74.83215       	74.09802       	74.804375      	74.39081       	75.06289       	75.06984       	74.88799       	74.46458       	75.38932       	74.97742       	74.58179       	76.14127       	73.50409       	74.110085      	74.53338       	74.178925      	74.50551       	74.70261       	74.45197       	74.187805      	74.8963        	74.38541       	74.5438        	74.798645      	74.51767       	74.17743       	74.569016      	74.297935      	74.61505       	74.43291       	74.71603       	74.28308       	74.734314      	74.50785       	74.38932       	74.82623       	74.282814      	74.577675      	74.39581       	74.4709        	74.51146       	74.700905      	74.310616      	74.55558       	74.252426      	74.59189       	74.67191       	74.54455       	74.52556       	74.712166      	74.65222       	
74.46644       	74.7699        	74.68604       	74.43333       	74.64126       	74.49478       	74.34818       	74.60893       	74.61258       	74.35862       	74.81539       	74.66805       	74.467636      	74.32676       	74.49491       	74.67841       	74.76005       	74.2854        	74.422424      	74.81064       	74.57343       	74.07334       	74.2579        	71.71004       	73.00344       	72.88064       	73.17469       	74.9761        	74.83306       	74.20063       	74.93223       	74.03962       	74.483376      	74.64845       	75.02142       	75.07804       	74.43858       	74.76669       	74.59983       	74.02246       	74.91308       	74.79078       	75.46379       	74.70554       	73.86393       	73.60149       	74.61996       	74.21478       	74.57217       	75.85553       	74.6748        	74.12675       	74.965805      	75.20471       	74.478806      	75.909325      	73.39534       	74.532166      	74.68282       	73.61444       	74.81786       	74.760284      	74.34605       	74.40537       	74.43938       	74.64921       	74.137985      	74.30987       	74.630035      	74.82748       	74.87915       	74.24828       	74.45252       	74.41022       	74.52864       	74.720634      	74.32342       	74.65844       	74.49767       	74.683846      	74.34005       	74.48421       	74.90967       	74.19198       	74.26804       	74.77821       	74.46992       	74.69349       	73.939064      	75.251396      	74.05268       	74.641685      	74.32738       	74.79021       	74.56894       	74.40497       	74.46338       	74.177765      	75.07367       	74.52327       	
74.38752       	74.638016      	74.754776      	74.48504       	74.777565      	74.38876       	74.42591       	74.55049       	74.59783       	74.32314       	74.45507       	74.63709       	74.521126      	74.74163       	74.642784      	74.374565      	74.71489       	74.66853       	74.32924       	74.60027       	74.43462       	74.41267       	74.41713       	72.18012       	72.89179       	73.466995      	73.154         	73.61923       	74.86128       	74.64779       	74.9226        	74.91223       	74.61289       	74.7097        	74.709496      	75.49678       	74.355896      	74.58375       	74.7592        	74.31605       	74.33285       	74.64289       	75.08466       	75.48874       	74.4363        	74.435135      	75.178276      	75.456245      	74.40065       	74.06164       	75.27356       	74.69413       	74.54353       	73.4849        	74.3778        	74.172165      	74.802086      	74.38645       	74.371086      	74.3115        	74.59849       	74.48956       	74.78741       	74.84468       	74.39994       	74.56551       	74.53457       	74.56428       	74.64104       	74.2679        	74.82379       	74.62743       	74.07978       	74.46293       	74.34103       	74.541565      	74.39873       	74.84714       	74.4788        	74.3388        	74.38229       	75.36212       	74.32215       	74.09566       	74.53306       	74.19415       	74.503395      	74.752045      	74.40577       	74.44446       	74.07398       	75.199646      	74.400505      	74.47844       	74.46037       	74.890045      	74.82169       	73.69346       	74.87483       	74.23674       	
74.51253       	74.60359       	74.704544      	74.85788       	74.725136      	74.55293       	74.32051       	74.64564       	74.45091       	74.68923       	74.51867       	74.800064      	74.5038        	74.3933        	74.51073       	74.513405      	74.4962        	74.8539        	74.33439       	74.41874       	74.746704      	74.51998       	74.23798       	73.70589       	71.93734       	73.6669        	73.759026      	74.01096       	74.44756       	74.355         	75.24593       	75.34995       	74.445404      	75.45423       	73.63483       	75.276436      	74.15218       	73.975334      	75.37542       	73.62184       	74.70942       	75.69853       	75.46836       	74.539406      	75.89575       	74.97211       	73.81462       	73.94059       	74.02939       	74.665535      	74.71431       	74.62098       	74.27927       	74.7486        	74.45995       	74.52043       	74.64251       	74.23645       	74.667404      	74.35159       	74.78107       	74.47751       	74.58231       	74.664055      	74.75944       	74.3353        	74.6414        	74.75681       	74.54908       	74.46389       	74.31099       	74.7478        	74.624985      	74.438774      	74.215546      	74.7641        	74.18876       	74.74323       	74.37454       	74.78666       	74.47397       	74.17934       	74.597534      	74.46574       	74.80172       	74.21153       	74.640915      	74.78539       	74.16526       	74.89861       	74.250305      	74.684296      	74.40039       	74.414375      	74.750946      	74.40301       	74.58734       	74.828545      	74.35235       	74.59766       	
74.57836       	74.757324      	74.85307       	74.60768       	74.66643       	74.54139       	74.54596       	74.38596       	74.229004      	74.56364       	74.61075       	74.45274       	74.59995       	74.9902        	74.591484      	74.1768        	74.474236      	74.9216        	74.32705       	74.416756      	74.201546      	74.63429       	74.49004       	74.441475      	73.36408       	73.84651       	73.30429       	74.11011       	73.522194      	74.22427       	74.72212       	75.16082       	75.3036        	75.261116      	74.78387       	75.21414       	74.251724      	75.34817       	74.80643       	74.939705      	75.003075      	75.629555      	74.30158       	74.15739       	74.25707       	74.36645       	74.39454       	74.47064       	74.584015      	74.52818       	74.65183       	74.5197        	74.4706        	74.8842        	74.42769       	74.528496      	74.58808       	74.51326       	74.10217       	75.03623       	74.56276       	74.308784      	75.39943       	74.00975       	75.030815      	74.26753       	74.24898       	74.694084      	74.45009       	74.7798        	74.55153       	74.17754       	74.6271        	74.745895      	74.56435       	74.39795       	74.836334      	74.20523       	74.33305       	74.9978        	74.09929       	74.65822       	74.599495      	74.63536       	74.44896       	74.33361       	74.82502       	74.86602       	74.22694       	74.5945        	74.33008       	74.288666      	75.09162       	73.86735       	74.72201       	74.46642       	73.92445       	75.37398       	74.00806       	74.84974       	
74.48518       	74.67757       	75.14128       	74.59356       	74.39025       	75.39426       	73.93669       	74.353096      	74.63496       	74.38082       	74.93189       	74.347755      	74.44794       	74.763176      	74.49795       	74.62447       	74.29125       	74.80579       	74.516396      	74.53905       	74.44526       	74.78207       	74.34139       	75.06338       	74.21683       	74.27635       	72.880424      	73.86248       	74.60649       	74.189514      	74.44156       	74.8134        	74.964615      	75.04041       	74.724915      	75.234665      	74.92837       	75.24587       	73.768         	74.04872       	74.73238       	74.46011       	74.265816      	74.37372       	74.92173       	74.20182       	74.63266       	74.610954      	74.591675      	74.23059       	74.90606       	74.53007       	74.26433       	74.701416      	74.5775        	74.355194      	74.442375      	74.500946      	74.07652       	75.26855       	74.20143       	74.5032        	74.871254      	74.512474      	74.703026      	74.56673       	74.503746      	74.65226       	74.62214       	74.484665      	74.284134      	75.2311        	74.53929       	74.04892       	74.49168       	74.78069       	74.720474      	74.11062       	74.57494       	74.91833       	74.27506       	74.299805      	74.7156        	74.468254      	74.99487       	74.07502       	74.42639       	74.50693       	74.713356      	74.66581       	74.50352       	74.6815        	74.197945      	74.42541       	74.69449       	74.29263       	74.68747       	74.27854       	74.935715      	74.608765      	
74.47168       	76.72818       	76.151794      	73.41786       	74.60334       	74.14939       	74.79539       	74.45596       	74.53666       	74.237526      	74.759834      	74.38789       	74.08777       	74.785255      	74.71863       	74.78081       	74.40229       	74.51011       	74.32328       	74.73258       	74.723526      	74.48788       	74.66007       	74.58898       	74.415         	74.261116      	74.53783       	73.90401       	74.36219       	74.078255      	74.67122       	74.9331        	75.82857       	74.38483       	74.60734       	73.61904       	74.38723       	74.374886      	74.417206      	74.42346       	74.7937        	74.25293       	74.50704       	74.87244       	74.445946      	74.292206      	74.18272       	74.748665      	74.63801       	74.70603       	74.59236       	74.616165      	74.08389       	74.68827       	74.67149       	74.62957       	74.698006      	74.185         	74.4205        	74.78578       	74.45011       	74.46848       	74.70849       	74.86523       	74.41067       	74.343414      	74.30729       	74.79324       	74.63753       	73.94568       	74.65614       	74.35921       	74.88352       	75.30751       	73.97187       	74.41324       	74.59734       	74.43677       	74.62464       	74.603645      	74.51252       	75.02202       	74.132454      	74.549324      	74.90498       	73.74644       	74.80859       	74.72498       	74.37299       	74.666756      	74.603516      	74.03343       	74.14327       	74.34732       	74.36727       	74.487656      	75.13191       	74.52979       	74.21047       	74.79649       	
74.63648       	76.70709       	76.759026      	73.73037       	73.85389       	74.40005       	74.748695      	74.47479       	74.55232       	74.24922       	74.65932       	74.44683       	74.664505      	74.72751       	74.39615       	74.27355       	74.51337       	74.69322       	74.67384       	74.37774       	74.50403       	74.53783       	74.47239       	74.66707       	74.79676       	74.39341       	74.5461        	74.673645      	74.35994       	74.287895      	74.49592       	74.688736      	74.57928       	74.22878       	74.83591       	74.43336       	74.33271       	74.74139       	74.577705      	74.492775      	74.728546      	74.802155      	74.02906       	74.46149       	74.71508       	74.2242        	75.13753       	74.09811       	74.56779       	74.62689       	74.671104      	74.75544       	74.41809       	74.17519       	74.57525       	75.0657        	74.203674      	74.41992       	74.729904      	74.47406       	74.47586       	74.68402       	74.78746       	74.34105       	74.23805       	75.19959       	74.52613       	74.33329       	74.99482       	74.34262       	74.47651       	74.65032       	74.65166       	74.39584       	74.921646      	74.10201       	74.64585       	74.78825       	74.2592        	74.66779       	74.36528       	74.56885       	74.42363       	74.62934       	74.918915      	74.31442       	74.48367       	74.410515      	74.81562       	74.18454       	74.63813       	74.51686       	74.841255      	74.06774       	74.4287        	74.62483       	74.76162       	74.612076      	74.40073       	74.455086      	
74.290825      	76.35428       	78.088875      	74.24974       	73.88496       	73.922714      	75.08927       	73.806755      	74.93431       	74.591805      	74.14087       	75.24927       	74.11373       	74.332146      	74.26783       	74.93631       	74.17143       	75.28892       	75.526344      	72.3868        	74.73721       	74.94317       	74.30563       	74.36936       	74.47647       	74.68766       	74.9798        	73.94348       	74.80125       	75.20451       	73.54764       	74.70197       	75.219055      	73.88415       	74.740814      	75.17938       	73.93265       	74.65765       	74.61301       	74.32772       	74.67559       	74.327576      	74.62735       	74.44614       	74.2582        	74.757286      	74.627365      	74.490746      	74.641205      	74.77433       	74.38319       	74.30546       	74.70778       	74.5016        	74.4889        	74.56366       	74.4856        	74.7568        	74.188446      	74.70878       	74.89299       	74.49994       	74.51928       	74.64171       	74.53381       	74.37102       	74.798294      	74.50879       	74.62085       	74.38341       	74.60413       	74.43152       	74.825226      	74.39586       	74.41028       	74.758705      	74.69264       	74.315025      	74.63219       	74.36725       	74.57451       	74.62826       	74.119484      	75.07609       	74.32069       	74.46934       	74.58381       	74.836105      	74.40911       	74.32841       	74.59446       	74.577614      	74.21477       	74.56209       	74.6126        	74.29286       	74.97485       	74.37623       	74.30621       	75.279175      	
74.59059       	75.80505       	78.835434      	75.01296       	73.38405       	74.86355       	73.936554      	74.449295      	74.836044      	74.21903       	74.59113       	74.26082       	74.99836       	74.323654      	74.305275      	74.51619       	74.720146      	74.65993       	74.38865       	74.42365       	74.74442       	74.43658       	74.52924       	74.49061       	74.35658       	74.56118       	74.461975      	74.10134       	74.7627        	74.8051        	74.03449       	74.80787       	75.10888       	74.39187       	74.16211       	74.574844      	74.8956        	74.10407       	74.60518       	74.5174        	74.30838       	74.65533       	74.68293       	74.351524      	74.921936      	74.28786       	74.49146       	74.709946      	74.51478       	74.291176      	74.59145       	74.618546      	74.464386      	74.24608       	75.01276       	74.506454      	74.8195        	73.978935      	74.513885      	75.22405       	74.34627       	74.65165       	74.691574      	73.7752        	74.870605      	74.43973       	74.7507        	74.14468       	74.80906       	74.64734       	74.30048       	74.982765      	74.16097       	74.443756      	74.812614      	74.585724      	73.74878       	74.84848       	74.28916       	75.04628       	74.34925       	74.70803       	74.61404       	74.65942       	74.23745       	74.68224       	75.32615       	73.70002       	74.85826       	74.53333       	74.3652        	74.69576       	74.59986       	74.188614      	74.578964      	74.686226      	74.5428        	74.52628       	74.59371       	74.42481       	
74.47556       	75.49917       	78.65761       	76.217155      	72.96571       	74.072716      	74.757675      	74.334076      	74.33385       	74.70445       	74.269226      	74.389565      	74.54471       	74.45251       	74.31479       	74.58478       	74.429695      	74.57216       	74.96111       	74.370346      	74.42934       	74.38956       	74.7112        	74.6419        	74.453766      	73.89026       	74.35017       	74.948         	74.39125       	74.44695       	74.41041       	74.79905       	74.95149       	75.59086       	74.050415      	73.560905      	74.87504       	73.99756       	74.84107       	74.44033       	74.56981       	74.558136      	74.32576       	74.662445      	74.575485      	74.27879       	74.367325      	74.9959        	74.34979       	74.84074       	74.39961       	74.59472       	74.76368       	74.16001       	74.695114      	74.42738       	74.17466       	74.27721       	74.68571       	74.51551       	74.68851       	74.55402       	74.4857        	74.972855      	74.529045      	74.36875       	74.68161       	74.43918       	74.886925      	74.26454       	74.93319       	74.35111       	74.66729       	74.41982       	74.26647       	74.81777       	74.5233        	74.55158       	74.33865       	75.05075       	74.19954       	74.859474      	73.980484      	74.415634      	75.11722       	74.227005      	74.58765       	74.874596      	74.275116      	73.64884       	74.793144      	74.96201       	74.40511       	74.47289       	74.46422       	74.73682       	74.19805       	74.34419       	75.57891       	73.79811       	
74.57193       	75.36239       	78.80825       	77.25692       	73.15929       	74.41973       	74.26876       	74.534134      	74.77205       	74.265076      	74.64025       	73.55241       	75.205025      	74.302345      	74.37463       	74.78873       	74.59655       	74.46229       	74.46978       	75.06307       	74.9667        	73.68098       	74.3163        	74.43349       	74.50558       	74.15296       	75.14646       	73.986176      	74.127975      	74.73175       	74.693756      	74.29792       	74.566734      	74.57934       	74.62488       	74.87131       	74.54174       	74.17477       	74.779465      	74.68502       	74.02725       	74.48973       	74.86866       	74.104256      	74.81796       	75.12912       	73.87771       	74.6785        	74.758194      	74.46499       	74.480965      	74.75636       	74.53267       	74.30382       	74.63559       	74.23666       	74.726456      	74.55998       	74.66024       	74.493774      	74.6179        	74.067566      	74.280464      	75.390076      	74.84212       	74.47045       	74.53432       	74.313675      	74.51144       	74.766106      	74.63635       	74.55907       	74.34361       	74.72641       	74.48197       	73.81637       	74.95349       	74.961586      	74.57566       	74.17119       	74.44698       	74.85783       	74.267         	74.33214       	74.93856       	74.41771       	74.34591       	74.64711       	74.70795       	74.65178       	73.88779       	74.755516      	74.65754       	74.18668       	74.82984       	74.48338       	74.18102       	74.63081       	74.604485      	74.60539       	
74.56457       	75.43614       	78.55618       	76.46291       	73.21605       	74.12397       	74.80374       	74.149925      	74.52631       	74.449844      	74.9779        	74.25227       	74.92631       	74.200615      	74.38493       	74.4033        	74.47476       	74.874626      	74.36737       	74.36302       	74.97574       	74.373146      	74.31643       	75.12896       	74.07108       	74.52058       	74.41449       	74.36728       	74.448906      	74.41885       	74.412186      	74.5799        	74.48519       	74.58028       	74.37682       	74.6744        	74.50261       	74.57102       	74.63131       	74.554016      	74.320694      	74.69556       	74.726585      	74.35231       	74.77849       	74.47058       	74.32467       	74.608376      	74.878586      	74.83349       	73.97268       	74.52692       	74.89691       	74.10082       	74.90171       	74.26301       	74.40164       	74.80887       	74.28628       	74.429855      	74.36904       	74.80003       	74.57793       	74.83501       	74.84376       	75.09725       	73.96489       	74.28781       	74.29235       	74.72687       	74.52376       	74.485794      	74.33262       	74.577545      	74.80475       	74.13161       	74.916435      	74.56396       	74.484566      	74.50436       	74.54919       	74.32354       	74.889404      	74.4362        	74.317604      	74.500946      	74.695946      	73.9766        	75.1136        	73.75752       	75.34853       	74.70184       	73.963844      	74.71927       	74.697556      	74.380264      	74.57434       	74.5009        	74.70562       	74.534294      	
74.983055      	76.074715      	76.67582       	74.05254       	73.75813       	74.355644      	74.59513       	74.49972       	74.447784      	74.03378       	75.22951       	74.313675      	73.78944       	75.273254      	74.651054      	74.37228       	74.45993       	74.382286      	74.67715       	74.64934       	74.40247       	74.65166       	74.48524       	74.58749       	74.32958       	74.36874       	74.73988       	74.19019       	75.008865      	74.042984      	74.51706       	74.77276       	74.36105       	74.95945       	74.3519        	74.45876       	74.72289       	74.50755       	74.062416      	74.654015      	74.918         	74.22843       	73.936874      	74.78611       	74.92691       	74.252754      	75.07357       	74.69009       	73.94314       	74.63746       	75.03053       	74.00367       	74.450806      	74.42765       	75.091484      	74.5566        	74.13242       	74.91323       	74.31055       	73.955246      	74.782715      	74.53041       	73.87663       	74.805855      	74.34325       	74.95984       	74.2481        	74.63463       	74.79174       	74.37486       	74.489716      	74.81355       	74.47359       	74.259575      	74.78289       	74.44626       	74.17706       	74.52689       	74.836815      	74.45281       	74.5228        	74.487915      	74.82472       	74.40866       	74.25761       	74.72355       	74.941124      	74.08668       	74.63556       	74.746826      	74.318146      	74.606255      	74.14033       	74.565125      	74.55781       	74.5435        	74.48744       	74.41239       	74.817635      	74.45244       	
74.45954       	74.706825      	74.92689       	74.73977       	74.86171       	74.69045       	73.998985      	74.51964       	74.44592       	74.61239       	74.59407       	74.34603       	74.60493       	74.55055       	74.80155       	74.27506       	74.6472        	74.59207       	74.43512       	74.30585       	74.87618       	74.173546      	74.79807       	74.70141       	73.9025        	74.71554       	74.57737       	74.42429       	74.64495       	74.35603       	74.58901       	74.30337       	74.6503        	74.83952       	74.23482       	74.77592       	74.41103       	74.56544       	74.671936      	74.76623       	74.36026       	74.51499       	74.72007       	74.45448       	74.42935       	74.9737        	74.425545      	74.169876      	75.069534      	74.522644      	74.423485      	74.627365      	74.47024       	74.29213       	74.791115      	73.98189       	75.08965       	74.50652       	74.40486       	74.69738       	74.48857       	74.57964       	74.528275      	74.77616       	74.6172        	74.07233       	74.71054       	74.09094       	74.566376      	74.504364      	74.694496      	74.700935      	74.319         	74.542946      	75.2996        	73.61617       	74.415215      	74.95032       	74.57257       	74.10529       	74.70364       	74.2792        	74.35002       	74.26832       	74.80206       	74.7982        	74.162994      	74.26331       	75.32546       	73.703514      	74.606316      	75.18164       	73.57524       	75.25529       	74.52684       	74.453514      	74.51485       	74.57038       	74.298         	74.30201       	
74.35782       	74.78874       	74.91445       	75.446724      	74.34848       	74.57661       	74.4539        	74.448         	74.79675       	74.18722       	74.72359       	74.89873       	74.10302       	74.83537       	74.660324      	74.00392       	74.77862       	74.77663       	74.1009        	74.802536      	74.603966      	74.72226       	74.9618        	73.94163       	74.45557       	74.59645       	74.61842       	74.77111       	74.20687       	74.13824       	74.515396      	74.6186        	74.624886      	74.53071       	74.61301       	74.706215      	74.53592       	74.34158       	74.47716       	74.80776       	74.48459       	74.65483       	74.49409       	74.74753       	74.39248       	74.56066       	74.66443       	74.69425       	74.446236      	74.66581       	74.465004      	74.46846       	74.941895      	74.26197       	74.19495       	75.08096       	74.204895      	74.318985      	74.6275        	74.24817       	74.92595       	74.77133       	74.203156      	74.73083       	74.56006       	74.37453       	74.831505      	74.41749       	74.399         	74.57407       	74.81087       	74.37985       	74.64137       	74.70802       	74.14209       	74.814804      	74.399284      	74.43493       	74.78953       	74.45263       	74.62626       	74.63696       	74.5713        	74.84079       	74.06887       	74.38366       	74.46037       	74.47706       	74.48326       	74.67837       	74.5205        	74.433         	75.217705      	73.84423       	74.19361       	74.60541       	75.517235      	73.7496        	74.441444      	74.70589       	
74.38086       	74.84399       	74.84159       	74.99764       	74.935844      	74.236404      	74.55503       	74.67325       	74.73814       	74.32281       	74.851585      	74.23265       	74.984505      	74.267075      	75.479576      	73.91873       	74.461266      	74.407524      	74.52445       	74.34941       	74.618805      	74.77657       	74.37013       	74.91199       	74.27135       	74.901665      	74.53706       	74.04887       	74.61165       	74.68488       	74.27237       	74.311         	75.0151        	74.07582       	75.023674      	74.56103       	74.21764       	74.816475      	74.84554       	74.24929       	74.91366       	74.31963       	74.45395       	74.74449       	74.44032       	74.47089       	74.54182       	74.602715      	74.253555      	74.625465      	74.408905      	75.07021       	74.03318       	74.455826      	74.8846        	74.83752       	74.56689       	74.39012       	74.36266       	74.28125       	74.44458       	75.0597        	74.18965       	74.82573       	74.85471       	74.38662       	74.50558       	74.44809       	74.59569       	74.38166       	74.75686       	74.515884      	74.623474      	74.47513       	74.4622        	74.39331       	74.995575      	74.35333       	74.36931       	74.87648       	74.2393        	74.58548       	74.79746       	74.87338       	74.026665      	74.37687       	74.67735       	74.38624       	74.599464      	74.33921       	74.59862       	74.768486      	74.02318       	74.15426       	73.72864       	74.691765      	72.499565      	73.123825      	73.450806      	74.03832       	
74.47225       	75.09397       	75.54574       	75.79136       	73.30773       	74.58413       	74.24425       	74.929634      	74.55293       	74.325294      	74.36075       	75.36831       	73.720795      	74.42437       	74.761116      	74.73164       	74.21852       	74.64789       	74.35547       	74.30166       	74.86925       	74.20404       	74.595024      	74.82511       	74.379425      	74.41573       	74.51667       	74.36988       	74.60595       	74.181564      	75.458496      	74.29505       	74.01689       	74.58361       	74.49541       	75.18117       	74.137085      	74.43489       	75.02939       	74.19678       	74.92084       	74.176445      	74.55773       	74.496         	74.73806       	74.83632       	74.15726       	74.57046       	74.914055      	74.3687        	74.813934      	74.0454        	74.72926       	74.441895      	74.235176      	74.84816       	74.14059       	74.82204       	74.52759       	74.358444      	74.63239       	74.71663       	74.4716        	74.32411       	74.60955       	75.002304      	74.67379       	74.28674       	74.651474      	74.38856       	74.53295       	74.886734      	74.49373       	74.33634       	74.4457        	74.680595      	74.168076      	74.764         	74.204575      	74.840576      	74.513916      	74.27992       	74.94913       	74.18996       	74.3736        	74.7859        	74.15278       	74.80768       	74.52622       	74.166626      	74.27634       	74.33225       	74.72684       	72.37426       	71.68428       	72.97183       	74.139336      	74.29253       	74.00341       	74.314         	
