# www.neaspec.com
# Scan:	 	AFM
# Project:	 	20251007_PS
# Description:	 	
# Date:	 	10/07/2025 14:36:28
# Scanner Center Position (X, Y):	[µm]	49.66	48.17	 
# Rotation:	[°]	0	 	 
# Scan Area (X, Y, Z):	[µm]	5.000	5.000	0.000
# Pixel Area (X, Y, Z):	[px]	100	100	1
# Averaging:	 	1	 	 
# Integration time:	[ms]	5	 	 
# Laser Source:	 	4.5-15 µm nano-FTIR laser
# Detector:	 	R
# Target Wavelength:	[µm]	10.000	 	 
# Demodulation Mode:	 	Fourier
# Tip Frequency:	[Hz]	241,340.500	 	 
# Tip Amplitude:	[mV]	45.700	 	 
# Tapping Amplitude:	[nm]	74.418	 	 
# Modulation Frequency:	[Hz]	0.000	 	 
# Modulation Amplitude:	[mV]	0.000	 	 
# Modulation Offset:	[mV]	0.000	 	 
# Setpoint:	[%]	79.75	 	 
# Regulator (P, I, D):	 	4.206850	8.625812	1.000000
# Tip Potential:	[mV]	0.000	 	 
# M1A Scaling:	[nm/V]	0.426	 	 
# M1A Cantilever Factor:	 	1,000	 	 
# Q-Factor:	 	487.4	 	 
# Version:	 	2.1.11536.0
93.4497        	93.37208       	93.523445      	93.3007        	92.74435       	92.632675      	92.02267       	92.4827        	92.794174      	92.63423       	92.564575      	92.691734      	93.04333       	92.950645      	92.93422       	93.075195      	93.694405      	93.238754      	92.83393       	93.71596       	93.59544       	93.51819       	93.29267       	93.62887       	93.64701       	93.354256      	93.42226       	93.59676       	93.2352        	92.78537       	93.06027       	93.27994       	93.34008       	93.48853       	93.313896      	93.00903       	92.99498       	92.90636       	92.59949       	93.068375      	93.65087       	93.99426       	93.91094       	94.21973       	94.05457       	94.46644       	94.0042        	94.08451       	94.283066      	94.31591       	94.231865      	94.64083       	94.13055       	94.124565      	94.01805       	94.038216      	94.46297       	94.121254      	93.99813       	94.049675      	93.968796      	93.8734        	93.61311       	94.05456       	94.25485       	94.016716      	93.86784       	93.68282       	93.403244      	93.118744      	93.52006       	93.269485      	93.174164      	93.50414       	93.45805       	93.483795      	93.52359       	93.21559       	93.31661       	93.29506       	93.617874      	94.00265       	93.833855      	93.694374      	93.90172       	93.59743       	93.74731       	93.51207       	93.48457       	93.13004       	93.43437       	93.52137       	93.30187       	93.09823       	93.58126       	93.0855        	93.5937        	93.82427       	93.878654      	93.910934      	
94.146576      	93.81529       	93.535034      	93.31722       	93.121185      	93.519585      	93.32992       	93.24068       	93.32189       	93.13283       	93.69958       	93.2992        	93.34987       	93.46811       	93.64242       	93.46277       	93.58735       	93.59276       	93.66125       	93.7795        	93.704506      	93.2666        	93.49671       	93.31331       	93.31688       	93.44788       	93.56116       	93.37349       	93.083244      	93.50777       	93.64868       	93.55411       	93.07826       	93.09383       	93.41875       	93.48666       	93.37884       	93.25053       	93.19229       	93.00973       	92.845566      	93.55507       	94.177086      	94.51025       	94.57079       	94.9113        	94.43331       	94.52254       	94.49768       	94.15536       	94.359604      	94.0359        	94.387566      	94.04802       	94.3329        	94.223114      	94.09643       	94.528534      	93.852104      	93.738716      	93.712         	93.296906      	93.30495       	93.45844       	94.05232       	94.08139       	94.29786       	93.85803       	93.71034       	93.47901       	93.30465       	93.373825      	93.70641       	93.548065      	93.87975       	94.34321       	93.511734      	93.38561       	93.83233       	93.535194      	93.73356       	93.405075      	93.482666      	93.38046       	93.61297       	93.716995      	94.18736       	93.62587       	93.62138       	93.452835      	93.77388       	93.492424      	93.69765       	93.88208       	93.26949       	93.5754        	93.968994      	93.99039       	93.69005       	93.777084      	
93.43339       	93.36089       	93.26383       	92.79404       	92.41861       	92.15109       	92.26803       	92.1613        	92.46983       	92.911995      	93.12833       	92.976074      	92.85806       	92.58605       	92.69949       	92.99922       	92.972534      	93.05976       	92.94015       	93.03435       	93.14555       	93.06824       	93.330795      	93.24555       	93.34394       	93.08968       	93.486275      	93.26085       	92.95527       	93.188354      	92.87371       	92.95241       	92.74815       	92.81263       	93.073074      	93.13154       	93.276726      	93.05061       	93.12635       	93.23107       	93.26834       	93.471756      	93.70232       	93.51444       	93.51913       	93.670525      	93.97761       	93.46235       	93.30926       	94.11696       	93.89746       	93.888145      	93.86976       	93.93967       	93.57814       	93.840576      	93.893974      	94.00619       	93.68775       	93.84897       	94.44999       	93.796005      	93.66586       	93.61108       	93.81949       	93.42603       	93.49218       	93.35357       	93.41586       	93.006134      	93.00293       	92.808716      	92.62807       	92.89069       	92.73537       	93.1147        	93.2282        	93.40496       	93.71856       	93.684395      	93.24576       	93.498245      	93.53881       	93.34439       	93.39938       	93.546196      	93.44873       	93.53783       	94.04936       	93.48007       	93.47306       	93.82563       	93.72911       	93.92749       	93.55273       	93.478386      	94.0142        	93.78907       	93.847694      	94.1183        	
94.308235      	94.15536       	94.15886       	94.03906       	93.983025      	93.51291       	92.89226       	93.41072       	93.19678       	93.27176       	93.492935      	93.37159       	93.72998       	93.89799       	93.29423       	93.21712       	93.44056       	93.18348       	93.437485      	93.17426       	92.96567       	93.25148       	93.41163       	93.31201       	93.36479       	93.41185       	93.976974      	93.568886      	93.59032       	93.13123       	93.50308       	93.406876      	93.49703       	93.79846       	93.37898       	93.2524        	93.36547       	93.03586       	93.146866      	92.942024      	93.08424       	92.95601       	92.88558       	93.391426      	93.96517       	93.70572       	94.0164        	93.79412       	94.26034       	94.29406       	94.285736      	93.97832       	94.03224       	93.69397       	93.91603       	93.6389        	94.12997       	94.04854       	94.12202       	94.11473       	93.79948       	93.86183       	93.708786      	93.83834       	93.29322       	93.26815       	93.72289       	93.43682       	93.58793       	93.265816      	93.590195      	93.88255       	93.76309       	92.95234       	93.2282        	93.060844      	93.374954      	92.956184      	93.214935      	93.13561       	93.097084      	93.18525       	93.043304      	93.13305       	93.02678       	93.17441       	93.10884       	93.0147        	92.839775      	92.76657       	93.14389       	92.71352       	93.1118        	93.629684      	93.26672       	93.28279       	92.87733       	93.131         	93.04225       	93.15934       	
94.885414      	94.49803       	94.30738       	93.91618       	93.5466        	93.58729       	93.37778       	92.93281       	93.04012       	92.79943       	93.00947       	93.14518       	93.09052       	92.921265      	92.96302       	92.92794       	93.3031        	93.378746      	93.35906       	92.961426      	93.75655       	93.69817       	93.39489       	93.9471        	94.13795       	94.19597       	94.2738        	93.95976       	94.25948       	94.09875       	93.88703       	93.64876       	93.949165      	93.72962       	93.58266       	93.96068       	93.66776       	93.63346       	93.2681        	93.12679       	93.092804      	93.672745      	93.36256       	93.930084      	94.109055      	93.90599       	93.86852       	93.6562        	93.71684       	93.94026       	93.67958       	93.25197       	93.81468       	93.93004       	93.42651       	93.76517       	93.781906      	93.42315       	93.874466      	93.86606       	93.921425      	93.78801       	94.00323       	94.019005      	94.0413        	93.749916      	93.700775      	93.33023       	93.2211        	93.293076      	93.58345       	93.30512       	93.46744       	93.42436       	93.574554      	93.418594      	93.191696      	93.06909       	93.334175      	92.9666        	93.09855       	93.661415      	93.56624       	93.52602       	93.55513       	93.42374       	93.869576      	94.036095      	93.838455      	94.03648       	94.35838       	94.03659       	93.76323       	94.00888       	93.886215      	93.45014       	93.66967       	93.2854        	93.41395       	92.9653        	
93.76399       	93.29854       	93.3265        	93.15135       	93.01257       	92.765434      	91.89583       	92.34576       	92.74986       	92.75744       	92.82038       	93.06752       	92.75075       	92.48848       	92.73457       	92.70936       	92.76796       	92.880585      	92.91591       	93.062225      	93.12814       	92.76364       	92.60965       	92.84237       	92.65063       	92.718         	92.77221       	92.62061       	92.74414       	93.22635       	93.02995       	93.44711       	93.37765       	93.319786      	93.25984       	93.75317       	93.19873       	93.33686       	93.21363       	92.925644      	93.01083       	93.487724      	93.54565       	94.29439       	94.89741       	94.73717       	94.55127       	93.657425      	93.8543        	94.08902       	93.62509       	93.755035      	93.669525      	93.85111       	93.69922       	93.88576       	93.760086      	93.97075       	93.672066      	93.603874      	93.727425      	93.538376      	93.73631       	94.09465       	93.93293       	94.25924       	94.212456      	94.20048       	93.50682       	93.419014      	92.77325       	93.079765      	92.95816       	92.77534       	92.71659       	93.25074       	93.38239       	93.05037       	93.505646      	93.68921       	93.32616       	93.88733       	93.737724      	93.772         	93.87066       	93.59526       	93.78752       	93.92839       	93.697464      	93.47548       	93.6694        	93.39889       	93.42287       	93.81453       	93.48348       	93.11677       	93.36427       	93.59012       	93.66304       	93.596054      	
93.549355      	93.679565      	94.045685      	94.04002       	93.7933        	93.99589       	93.651695      	93.47205       	93.64315       	93.22728       	93.39168       	93.36443       	93.53584       	93.53959       	93.490875      	93.70935       	93.39952       	93.14298       	93.429405      	93.363106      	93.295166      	93.66069       	93.44019       	93.7762        	93.6147        	93.748         	93.94987       	93.93736       	93.75758       	93.86734       	94.04732       	93.927475      	94.386734      	94.21278       	93.65498       	93.665         	93.91788       	93.73363       	93.45142       	93.33671       	93.1289        	93.2119        	93.821976      	94.5349        	94.73637       	94.816925      	94.64515       	93.73597       	94.0641        	93.83996       	93.85229       	94.21187       	94.28264       	94.08585       	93.83861       	93.85355       	93.48537       	94.475464      	94.35723       	93.74948       	93.85538       	93.99266       	93.90933       	94.54618       	94.32386       	94.385         	94.57856       	94.694496      	94.31527       	94.09046       	93.72595       	93.189575      	93.17309       	92.580246      	92.53593       	93.388954      	93.26038       	93.40624       	93.68189       	93.76551       	93.362175      	93.545         	93.40694       	93.37296       	93.365036      	93.55603       	93.08029       	93.59586       	93.706635      	93.38014       	93.66698       	93.8726        	93.74883       	93.567154      	93.76104       	93.55659       	93.659805      	93.904465      	93.742325      	93.5848        	
93.6868        	94.05151       	94.128944      	94.19922       	94.01778       	93.59101       	92.80051       	92.43104       	92.18787       	93.427864      	93.3258        	93.142914      	93.120445      	92.930374      	93.44615       	93.54143       	93.13063       	93.29263       	93.13192       	93.28753       	93.68243       	93.63505       	93.641884      	93.678825      	94.23637       	93.427315      	94.322914      	93.6279        	93.11342       	93.87237       	93.53756       	93.57437       	93.67493       	93.75014       	93.29003       	93.50375       	94.2015        	93.66789       	93.72346       	93.28101       	93.30545       	93.35014       	93.72366       	93.37657       	93.86597       	94.106094      	93.940414      	94.15137       	94.013466      	93.51065       	92.99018       	93.88548       	93.73258       	94.141884      	93.81603       	93.70158       	93.87643       	93.37451       	93.28651       	94.0131        	94.25818       	94.23759       	93.911224      	94.25923       	94.20025       	94.213264      	94.57905       	94.395805      	94.19203       	93.38643       	93.06612       	93.0597        	93.18543       	93.02949       	93.346725      	93.03828       	92.809975      	93.50963       	93.77254       	93.59961       	93.594696      	93.45828       	93.35322       	93.165146      	92.93197       	92.91654       	93.23706       	92.67887       	92.390625      	93.04149       	93.12651       	93.50553       	93.52042       	93.536415      	93.76053       	93.95109       	93.93424       	93.57795       	93.60045       	93.915825      	
93.82048       	94.013054      	93.82113       	93.946625      	94.16346       	93.61621       	93.61684       	93.4414        	93.55665       	92.932785      	93.677284      	93.7426        	93.41963       	93.80638       	93.485825      	93.358734      	93.18929       	93.528114      	93.37886       	93.40445       	93.54552       	93.280815      	93.62667       	93.41987       	93.429855      	93.49056       	94.03772       	93.75156       	93.528076      	93.873116      	93.775764      	93.72637       	94.09168       	94.01313       	93.62988       	93.76148       	94.07716       	94.4731        	93.87886       	94.09315       	93.75703       	92.976654      	93.21811       	93.927246      	94.49076       	94.59545       	94.092125      	93.80465       	94.088875      	93.81524       	94.05146       	94.11585       	94.18686       	94.11905       	94.06465       	94.05717       	93.911095      	93.51615       	93.773964      	93.711044      	93.62222       	93.25888       	93.3584        	93.210945      	93.76868       	93.55341       	93.405045      	93.98502       	93.19402       	92.903275      	93.357086      	92.927246      	93.27485       	93.19311       	93.507866      	93.36564       	93.097824      	93.41483       	93.22533       	92.82988       	92.841156      	93.16243       	92.4991        	92.78987       	93.33824       	93.18885       	93.176926      	93.69264       	93.86655       	93.57232       	93.47478       	93.40742       	93.39074       	93.54016       	93.29163       	93.32553       	93.33128       	93.39223       	93.22982       	93.29208       	
93.91663       	94.07673       	94.2316        	94.30404       	93.61384       	93.33007       	93.480095      	92.93303       	92.446655      	92.8767        	92.84078       	93.16598       	93.52675       	92.65864       	92.768265      	93.24545       	92.88988       	92.649765      	93.08761       	93.18886       	93.529305      	93.65052       	93.67102       	93.62697       	93.892334      	93.6661        	93.95378       	94.10716       	93.7232        	93.41419       	93.454605      	93.74715       	93.72759       	93.48192       	93.00937       	93.388756      	93.50961       	93.55307       	93.544876      	93.55138       	93.30327       	93.07292       	93.189926      	93.4104        	93.75471       	93.54134       	93.42724       	92.99352       	93.26013       	93.36209       	93.73139       	93.99475       	94.21713       	93.91992       	93.937775      	94.3944        	94.060905      	93.58485       	93.11872       	93.32593       	93.43271       	93.48568       	93.59771       	94.09734       	93.6481        	93.74517       	93.8897        	93.859535      	93.59005       	93.600845      	93.3767        	93.3164        	93.07563       	93.15864       	93.181755      	93.25525       	93.30214       	93.75371       	93.22104       	93.00343       	93.37737       	93.514114      	93.517494      	93.61805       	93.25532       	93.58          	93.633316      	93.45928       	93.87348       	93.994         	93.50993       	93.481674      	93.43945       	93.61292       	93.135185      	93.01631       	92.86898       	92.70688       	93.24239       	93.000824      	
93.90563       	93.96115       	94.04204       	94.275986      	94.33758       	94.10998       	93.57532       	93.45656       	93.880745      	93.59754       	93.877945      	93.57903       	93.45013       	93.316925      	93.289474      	93.51102       	93.4353        	93.16047       	93.383         	92.95474       	92.75597       	93.033966      	93.47192       	93.3707        	93.82574       	93.31804       	93.61351       	93.27874       	93.3557        	93.52017       	93.62532       	93.56088       	93.70167       	93.38691       	93.56294       	93.36011       	93.284996      	93.12328       	93.027275      	92.916336      	93.08509       	92.80298       	92.69532       	93.2293        	93.32308       	93.58882       	93.73705       	93.817024      	93.66252       	93.20977       	93.364975      	93.55265       	93.15178       	93.27172       	93.50585       	93.15416       	93.46998       	93.70301       	93.587715      	94.02503       	93.72276       	94.10857       	94.29213       	94.03734       	93.79418       	94.035736      	93.64914       	93.49149       	93.535225      	92.89584       	92.68846       	93.26538       	92.54484       	93.05298       	92.70256       	92.69246       	92.7726        	93.460236      	92.990425      	92.81406       	93.301926      	92.98668       	92.97599       	93.48763       	93.31276       	93.50307       	93.819595      	93.522285      	93.62621       	93.09028       	93.06264       	93.12577       	92.91786       	92.858116      	93.60947       	93.42011       	93.33145       	93.19533       	93.677536      	93.986786      	
94.37117       	94.272835      	94.23889       	94.10806       	93.96167       	93.77042       	93.42531       	93.500374      	93.136406      	93.122185      	93.41884       	93.56109       	93.671005      	93.70771       	93.0606        	93.03768       	93.350945      	93.34958       	93.67496       	93.69622       	93.573975      	93.70257       	93.48676       	93.4181        	93.165855      	93.57282       	93.35292       	93.67651       	94.18563       	93.49621       	93.55586       	93.67215       	94.00093       	93.68548       	93.40435       	93.52018       	93.74328       	93.413315      	93.37064       	93.44215       	93.92541       	93.24352       	93.23338       	93.560425      	93.77421       	94.020424      	94.82463       	94.2364        	94.39954       	94.424286      	94.38255       	94.07765       	94.14037       	94.51442       	94.20177       	94.15101       	94.39727       	93.785576      	94.02896       	93.54853       	93.92525       	94.22221       	93.97633       	93.83172       	94.17485       	93.975494      	93.624596      	94.19455       	94.14973       	93.44664       	93.728096      	93.82437       	93.89029       	93.69111       	93.527916      	94.16731       	93.70306       	92.98538       	93.046715      	93.131874      	93.18996       	93.42598       	94.09846       	93.90256       	93.83217       	94.35512       	94.13932       	94.475044      	94.30355       	94.14473       	93.87432       	93.89841       	93.79212       	94.07589       	94.05043       	93.885704      	94.137535      	94.037445      	93.67655       	94.03769       	
94.17586       	94.373405      	94.277176      	93.98662       	93.86206       	94.12929       	93.65446       	93.05999       	92.962         	92.856255      	92.54525       	92.81868       	92.834         	92.969         	93.77722       	93.519684      	93.64131       	93.81245       	93.53175       	93.75784       	94.012535      	93.728386      	93.72415       	93.851166      	93.71074       	93.25638       	93.54923       	93.23852       	92.853676      	93.225586      	93.04398       	93.24379       	93.574425      	93.62392       	93.55782       	93.63322       	93.423225      	93.09889       	93.10182       	93.301994      	93.65409       	93.48418       	93.73493       	94.25013       	94.072014      	94.30336       	94.70182       	94.20979       	94.14928       	94.04416       	93.97536       	94.07736       	94.11244       	94.04375       	94.252846      	94.08463       	94.15581       	94.504036      	94.1882        	94.34283       	94.63428       	94.3016        	93.88649       	94.43202       	94.234695      	94.053635      	94.17734       	93.9873        	94.14399       	93.78944       	93.36516       	92.7138        	92.53816       	92.88177       	93.178024      	93.10717       	93.56689       	92.96069       	93.58715       	93.96099       	93.76664       	94.181465      	93.94083       	93.52746       	93.687256      	93.90105       	93.64925       	93.95398       	93.70361       	93.79133       	94.03641       	93.771416      	93.87641       	93.98166       	93.76456       	93.655106      	93.46033       	93.61054       	93.3851        	93.34115       	
93.934616      	93.67006       	93.62223       	93.894165      	93.955986      	93.79503       	93.13637       	93.02889       	92.29571       	92.40483       	92.498085      	92.582596      	92.95365       	93.11681       	92.98546       	92.70738       	92.710464      	93.03139       	93.123184      	93.24877       	93.363365      	93.56379       	93.229195      	93.30202       	93.402794      	93.53185       	93.6617        	93.80329       	93.48079       	93.1314        	93.149704      	93.411995      	93.3929        	93.27483       	93.61488       	93.89343       	93.323235      	93.12488       	92.99748       	93.2334        	92.70735       	92.897354      	92.92836       	92.87333       	93.295044      	94.053276      	94.60486       	94.12254       	94.14145       	93.79135       	94.23036       	93.75708       	93.65669       	94.11547       	93.56573       	93.89196       	93.92102       	93.70827       	93.57394       	93.499825      	93.98371       	94.04674       	93.47214       	93.35432       	93.5327        	93.913536      	93.784805      	93.402084      	93.667755      	93.76396       	93.26198       	94.00156       	94.087616      	93.63803       	93.3245        	93.514885      	93.972946      	93.50489       	93.53048       	93.627045      	93.68267       	93.90918       	94.14151       	94.11606       	94.272285      	94.38654       	94.43376       	94.38734       	94.158295      	93.53511       	94.08027       	94.19203       	93.62253       	93.79646       	93.85779       	93.91147       	93.79516       	93.58522       	93.917465      	93.69001       	
94.40531       	94.49025       	94.34528       	93.91629       	93.76799       	93.72214       	93.19787       	93.46186       	93.69081       	93.25956       	93.04552       	93.22128       	93.25838       	93.42561       	93.24935       	93.52596       	93.34737       	93.80498       	93.64765       	94.2847        	93.9041        	94.21764       	93.82401       	94.30401       	93.69186       	93.95794       	94.01819       	93.83967       	93.51053       	93.21646       	93.175934      	93.05404       	93.08527       	93.14853       	93.43232       	93.52445       	93.4971        	93.58072       	93.402504      	93.66342       	93.91333       	93.599625      	93.1788        	93.24118       	93.25822       	93.61295       	94.19706       	94.31613       	94.36283       	94.33599       	93.76619       	93.62324       	94.06569       	93.950554      	93.366905      	93.70324       	93.72871       	93.1722        	93.10277       	92.97336       	93.17282       	93.58418       	93.37381       	93.682175      	93.51363       	93.57686       	93.60258       	93.75659       	93.54119       	93.82701       	94.480484      	94.20084       	93.868095      	93.86723       	93.83521       	93.47092       	93.51779       	93.8859        	93.523026      	93.85335       	93.67228       	93.742         	94.27707       	94.51739       	94.231575      	94.19315       	93.70549       	93.76871       	94.31889       	94.0597        	93.49431       	94.32765       	93.662636      	94.10543       	94.158295      	93.937904      	93.83317       	93.86089       	93.68551       	93.74895       	
94.18693       	94.23287       	93.98251       	93.893196      	94.09728       	94.136055      	93.305504      	93.13453       	93.08255       	92.70555       	92.70365       	92.87332       	92.8186        	93.60068       	93.52662       	93.50334       	93.18968       	93.38719       	93.436615      	93.54911       	93.52431       	92.89039       	92.62492       	92.42924       	92.673065      	92.71312       	92.72334       	92.87812       	93.46144       	92.848946      	92.986435      	93.62358       	93.63588       	93.44926       	93.3283        	92.99415       	93.32761       	93.82242       	93.546844      	93.2706        	93.229904      	93.21481       	93.22226       	93.024605      	93.466255      	93.46378       	94.03908       	94.45506       	94.5305        	94.34704       	94.67746       	94.164566      	93.83333       	94.05966       	94.0153        	94.10118       	93.8976        	93.9406        	93.99011       	93.975815      	93.98436       	94.11803       	94.50659       	94.20649       	93.79231       	93.7888        	94.044426      	93.73799       	93.70199       	93.30981       	93.167595      	93.867035      	93.824844      	93.453804      	93.54882       	93.66849       	93.53246       	93.20328       	93.482895      	93.12111       	93.58068       	93.95341       	93.77457       	93.871704      	94.23987       	94.37212       	93.761925      	93.30543       	93.47729       	93.644035      	93.432976      	93.41983       	93.436516      	93.28341       	93.32313       	93.875725      	93.78677       	93.15689       	93.402504      	94.15555       	
93.59044       	93.34096       	93.48388       	93.788574      	94.02037       	94.56633       	93.888306      	93.18351       	93.07042       	93.09178       	93.56466       	93.54267       	93.51367       	93.12776       	93.04492       	93.36806       	93.13681       	93.12617       	93.27211       	93.31681       	93.28655       	92.927414      	93.251114      	93.305176      	92.700195      	93.05934       	93.18096       	93.42335       	93.28822       	93.549065      	93.8665        	93.46365       	93.52634       	93.7146        	93.43246       	93.05411       	93.355484      	93.653336      	93.20159       	92.90475       	93.57884       	93.25204       	93.4856        	93.21026       	93.15919       	93.60583       	93.933846      	94.535225      	95.02323       	94.43331       	94.39083       	94.5982        	94.5746        	93.73382       	93.79659       	94.380005      	94.22102       	93.54385       	93.62475       	94.02747       	93.75816       	94.19205       	93.95595       	94.12962       	93.73795       	93.64192       	93.79422       	94.27214       	94.054436      	94.138374      	94.21717       	93.78798       	93.996704      	94.531334      	94.40117       	94.45003       	93.95117       	93.92606       	94.13533       	93.916756      	93.61211       	94.14578       	94.1639        	94.04251       	94.51209       	94.77239       	94.329094      	94.20741       	93.68001       	93.779594      	93.669014      	93.9429        	94.00879       	93.81986       	93.75253       	93.88133       	93.79306       	93.77799       	93.8787        	93.97426       	
93.34938       	93.30038       	93.57263       	93.81076       	93.79337       	93.78334       	93.211754      	93.30551       	93.026         	93.04717       	93.13294       	93.26924       	92.72126       	92.76024       	93.45926       	93.52564       	93.13163       	93.24486       	93.09683       	93.26961       	93.7218        	93.29301       	93.7216        	93.65457       	93.28388       	93.50785       	93.45174       	93.34748       	93.058105      	93.37027       	93.07795       	92.60245       	92.736206      	93.13231       	93.13461       	93.233         	93.322136      	93.26895       	93.411934      	93.28138       	93.001274      	93.29985       	92.52817       	92.68361       	93.34322       	93.21778       	93.75276       	94.21724       	94.01409       	94.09291       	93.54997       	93.69884       	94.191154      	94.353226      	94.53333       	94.53158       	94.41761       	94.12334       	94.14094       	94.05633       	93.79199       	93.63949       	94.025055      	93.891266      	93.65067       	93.92796       	94.01568       	93.92341       	94.0477        	94.41424       	94.55698       	93.585785      	93.7402        	93.76631       	93.20804       	92.932236      	93.24901       	93.28194       	93.8153        	93.98522       	93.64733       	93.592285      	93.33393       	93.22972       	93.37316       	93.874054      	93.59558       	93.62218       	93.763374      	93.92752       	93.463326      	93.51754       	93.56339       	93.58217       	93.859505      	93.93163       	93.37341       	93.49494       	93.20885       	93.1864        	
94.22233       	94.41523       	94.654495      	94.51452       	94.38553       	94.34863       	94.49863       	94.04011       	93.23339       	93.24721       	93.04077       	93.280464      	93.74199       	93.71103       	93.41208       	93.145226      	92.69184       	93.021225      	93.157364      	92.91129       	93.08652       	93.3316        	93.439156      	93.530106      	93.36763       	93.538414      	93.8248        	93.64526       	93.58751       	93.44845       	93.24492       	93.71027       	93.30061       	93.233475      	93.54704       	93.44774       	93.47796       	93.330986      	92.76497       	92.71395       	93.0088        	92.50012       	92.83336       	92.94066       	92.75683       	93.25521       	93.7753        	94.65449       	94.61605       	94.56812       	94.28622       	93.731255      	94.0249        	94.082855      	93.95297       	93.96343       	93.654434      	93.84224       	93.98681       	93.57775       	93.44723       	93.96965       	93.61485       	93.454636      	93.50662       	93.443535      	93.70865       	93.61605       	93.649         	93.851234      	94.18692       	94.072754      	93.972534      	94.095955      	94.320526      	93.68385       	93.73176       	93.41405       	93.846756      	94.36548       	94.30969       	93.94894       	94.03438       	93.99069       	94.07056       	93.86972       	93.66739       	93.930534      	93.90579       	93.626015      	94.04921       	93.839035      	93.699135      	94.46642       	93.994095      	93.528656      	93.617386      	93.693985      	93.72359       	93.727974      	
93.70932       	93.62467       	93.89444       	94.3722        	94.74124       	94.37976       	94.37273       	93.97629       	93.76938       	93.546265      	93.4653        	92.83504       	93.463715      	93.56285       	93.27553       	93.713486      	93.71704       	93.82665       	93.929985      	94.11281       	93.3907        	93.997894      	93.95271       	93.776726      	94.018745      	93.64497       	93.85446       	94.14514       	94.09313       	93.87098       	93.99321       	93.900444      	94.008514      	94.02776       	94.29276       	93.69245       	93.09302       	93.103836      	93.34362       	93.16163       	93.16247       	93.548676      	93.75959       	93.133545      	93.67278       	93.74155       	94.011955      	94.362114      	94.5313        	94.38748       	94.51417       	94.16911       	94.620026      	94.37459       	94.347466      	94.332344      	94.22877       	94.26987       	94.219986      	93.4587        	93.95998       	93.90866       	94.13327       	94.2104        	93.32966       	93.417595      	94.32358       	93.92968       	93.80722       	94.19327       	93.94904       	93.98381       	93.98193       	93.94064       	94.021484      	93.56194       	93.92395       	93.87614       	93.68384       	93.2561        	93.5915        	93.291595      	93.58913       	93.620804      	93.315994      	93.447876      	93.48896       	93.80743       	93.714096      	93.59252       	93.768196      	93.78354       	93.79332       	93.9589        	93.67658       	93.34645       	93.10301       	93.59474       	93.85941       	94.16548       	
93.46334       	93.3806        	93.77624       	93.514786      	93.39296       	93.88454       	94.05026       	92.86647       	92.739334      	93.000694      	92.62345       	92.908646      	93.17712       	93.26359       	93.15283       	93.31792       	93.38069       	93.28035       	93.38383       	93.33019       	93.58656       	93.354164      	92.97302       	93.2373        	93.267586      	93.32963       	93.26974       	93.77015       	93.820244      	93.53035       	93.935905      	93.86325       	93.61803       	93.305504      	93.593094      	93.577095      	93.20116       	93.258896      	93.94547       	93.84102       	93.33702       	93.401855      	93.55326       	93.54274       	93.294785      	93.82574       	93.84311       	93.96566       	94.29708       	94.77943       	94.534454      	94.55053       	94.80004       	94.65535       	94.27068       	94.57238       	94.77425       	94.50978       	94.56029       	94.51761       	94.22461       	94.42184       	94.3881        	94.0763        	94.11504       	94.446304      	94.18914       	94.13545       	93.65134       	93.67713       	93.46382       	94.34518       	93.81462       	93.59892       	93.635345      	93.420494      	93.39224       	93.58293       	93.3997        	93.11186       	93.349335      	93.26179       	92.97396       	93.034256      	93.16551       	93.40788       	93.32468       	93.420906      	93.33603       	93.25721       	93.479324      	93.36653       	93.131905      	93.51628       	93.65499       	93.746994      	93.557915      	93.07327       	93.182686      	93.74479       	
94.27571       	94.48935       	94.463326      	94.233444      	94.337204      	94.87683       	95.148605      	94.58589       	93.813896      	93.96594       	93.377235      	93.59505       	93.34888       	93.156494      	93.58589       	92.74283       	92.8715        	93.783066      	93.454575      	93.3838        	93.30807       	93.60282       	93.252495      	93.01501       	92.869675      	92.930695      	93.24048       	93.48455       	93.4178        	93.53906       	93.73446       	93.36699       	93.119         	93.58446       	93.38292       	92.99085       	93.61385       	93.84692       	93.67415       	93.63579       	93.03637       	93.10182       	93.264046      	93.484146      	93.86158       	93.600914      	93.71888       	94.316765      	95.147736      	94.950226      	94.77145       	94.55321       	94.475266      	94.585815      	94.55745       	94.61272       	94.25826       	94.443794      	94.101074      	93.715034      	94.03467       	94.34806       	94.513725      	94.50781       	93.86133       	93.66835       	93.69725       	94.28431       	94.274284      	94.344406      	94.300156      	94.32697       	94.436615      	94.21618       	94.64844       	94.3699        	94.23877       	94.32874       	93.98044       	94.123344      	94.47902       	94.47538       	94.28292       	94.365974      	94.34973       	93.727554      	94.06578       	93.66316       	93.837036      	94.02223       	94.05258       	94.06406       	94.007866      	93.83803       	93.23624       	93.29549       	93.04534       	93.53409       	93.39407       	93.853485      	
93.62798       	93.62549       	93.67475       	93.98438       	94.117134      	93.80687       	93.906746      	93.63935       	93.63134       	92.85527       	93.33436       	93.06094       	93.41115       	93.60103       	93.03467       	93.53434       	93.71626       	92.92599       	93.29103       	93.696175      	93.47628       	93.540146      	93.7623        	93.43953       	93.22592       	93.11636       	93.126465      	93.47658       	93.321815      	92.87798       	93.03582       	93.223305      	93.36162       	93.1566        	93.76461       	93.48235       	93.27336       	93.660194      	93.382416      	93.70997       	93.45859       	93.351105      	93.435616      	93.33156       	93.03584       	93.30307       	93.63643       	93.82983       	94.02397       	94.324165      	94.12802       	93.98681       	94.05678       	94.09863       	94.20362       	93.8181        	93.72975       	94.16021       	94.377594      	93.9043        	93.71898       	93.82923       	93.74692       	93.66332       	93.487144      	93.42006       	93.848564      	93.4884        	93.166626      	93.07792       	93.21188       	93.32671       	93.23968       	93.44691       	93.05509       	93.527306      	93.40761       	93.42924       	93.386765      	93.54857       	93.58655       	93.484604      	93.23974       	93.43653       	93.45082       	93.34561       	93.586754      	93.75163       	94.03409       	94.51158       	93.806435      	93.4568        	93.93527       	93.59142       	93.71357       	93.43478       	93.85772       	93.520546      	93.74543       	94.078926      	
93.94205       	93.61468       	93.33192       	93.608         	93.76781       	94.26085       	94.60936       	93.881836      	93.377396      	93.330696      	93.6808        	93.242935      	93.50468       	93.45867       	93.15315       	93.375374      	93.42045       	93.46284       	93.331055      	93.19262       	93.5938        	93.24011       	93.36447       	93.713974      	93.346176      	93.527176      	93.7626        	93.082726      	93.30549       	93.49749       	93.69726       	93.8716        	93.62684       	93.78608       	93.71066       	93.97557       	93.616005      	93.97066       	94.14279       	93.78698       	93.38439       	93.76511       	93.82176       	93.90889       	94.18245       	94.130844      	94.76017       	94.49545       	94.27481       	94.14548       	94.35689       	94.21016       	94.41054       	94.37425       	94.31938       	93.73764       	94.02938       	94.028915      	94.45126       	93.817184      	93.964935      	93.753624      	93.91126       	92.979355      	93.50595       	93.12995       	92.740555      	93.79481       	93.44892       	93.09921       	93.23542       	93.20875       	93.05254       	93.3825        	93.53502       	93.34521       	93.86767       	93.71928       	93.80526       	94.28621       	93.900444      	93.34631       	93.6079        	93.25921       	93.32304       	93.34361       	93.11225       	93.751335      	93.418         	93.22363       	93.44774       	93.88195       	94.07382       	93.86217       	94.31249       	94.57154       	94.0349        	94.970955      	94.18926       	94.00769       	
94.29509       	93.62784       	93.72282       	93.994316      	93.83488       	93.86805       	93.985634      	93.868355      	93.21818       	93.695244      	93.449745      	93.047035      	93.44829       	93.84157       	93.10805       	93.15385       	93.32586       	93.61994       	93.84603       	94.03406       	93.86899       	93.26854       	93.43321       	93.79747       	93.82915       	93.91796       	93.550064      	93.74055       	93.871864      	93.52696       	93.39254       	93.383316      	93.349976      	93.55618       	93.26745       	93.29675       	93.87347       	94.024086      	94.84103       	95.01236       	94.66629       	94.761734      	94.32051       	94.34366       	94.232895      	94.10884       	94.53548       	94.14027       	93.666145      	93.91032       	93.744576      	93.59431       	93.63371       	93.33678       	93.020386      	92.83156       	92.750084      	93.319374      	93.216675      	93.42815       	93.735634      	94.0754        	93.89303       	94.23213       	94.492035      	94.35169       	94.30037       	94.414154      	94.18377       	94.00661       	93.92072       	93.76814       	93.61518       	93.426926      	93.3723        	93.48115       	93.970184      	93.49533       	93.924446      	93.88716       	93.42724       	93.48478       	93.83215       	93.40545       	93.72423       	93.9967        	93.81493       	93.689835      	93.946205      	94.38953       	94.10619       	94.32708       	94.133865      	93.95899       	93.82479       	93.652374      	93.70389       	94.12169       	93.695885      	93.76911       	
94.21016       	93.70517       	94.11335       	94.31513       	94.30583       	94.58269       	94.42504       	94.239296      	93.43603       	94.047325      	93.54729       	93.29701       	93.12975       	93.565704      	93.27819       	93.737015      	93.81795       	93.4583        	93.79007       	94.06412       	93.56109       	93.70031       	93.432335      	93.31402       	93.621895      	93.735565      	93.93684       	93.52748       	93.51041       	93.21236       	94.1248        	94.23783       	94.52897       	94.47829       	94.17144       	93.92506       	94.36727       	94.05805       	94.110176      	93.72587       	94.09411       	94.436966      	93.93278       	93.46845       	93.64539       	93.28858       	93.241264      	93.548386      	93.37684       	93.944244      	94.06523       	94.16554       	94.113235      	93.99999       	94.17319       	94.328285      	94.18389       	94.33107       	93.98247       	94.19414       	93.75316       	93.4807        	93.5644        	93.465164      	93.32254       	93.52263       	93.734634      	93.773285      	93.30285       	93.592415      	93.95363       	93.63929       	93.486855      	93.8335        	93.266396      	92.97286       	93.50471       	93.85257       	93.19917       	93.77657       	93.67119       	93.3492        	93.625336      	94.00481       	93.189         	93.40947       	93.65553       	93.88713       	93.7788        	93.5068        	93.248245      	93.541275      	93.2721        	93.15923       	93.34738       	93.51099       	92.96506       	93.33581       	93.69719       	93.60107       	
93.894966      	93.72065       	93.818726      	93.95728       	93.661095      	93.63872       	94.24097       	93.42595       	93.400444      	93.09356       	93.43269       	93.009674      	92.96762       	92.5596        	92.732475      	92.70029       	93.0147        	93.19092       	93.505745      	93.13793       	92.96646       	93.74589       	93.84531       	93.81555       	93.93877       	94.17742       	94.09638       	93.98483       	94.01557       	94.67989       	94.83472       	94.65679       	94.5512        	94.605385      	94.72844       	95.02196       	94.163925      	94.135086      	94.34155       	94.288994      	93.40939       	93.42176       	93.7076        	93.56816       	93.64307       	93.30382       	93.67948       	93.70077       	93.81161       	93.425995      	93.9408        	93.91134       	93.59022       	93.80649       	93.84779       	93.20767       	93.49568       	93.6197        	93.27277       	93.57341       	93.83748       	93.69565       	93.66676       	93.45328       	93.62361       	93.28395       	93.72332       	93.43045       	93.7397        	94.023056      	93.98783       	94.17529       	93.84663       	93.568924      	93.820404      	93.90551       	93.61069       	93.19125       	93.528366      	93.68412       	93.62764       	93.36202       	93.48199       	93.35083       	92.74337       	93.28559       	93.73718       	93.60707       	93.72382       	93.37785       	93.383835      	93.073135      	92.56039       	93.21363       	94.02823       	93.34917       	93.68782       	94.26476       	94.06255       	93.74159       	
93.85873       	93.786         	93.97591       	94.47332       	94.21073       	93.82762       	94.06474       	94.69144       	94.30992       	94.15141       	93.93039       	93.31281       	93.13106       	93.61239       	93.41652       	93.88257       	94.06348       	93.79813       	93.9048        	94.33359       	94.114655      	94.426765      	94.51537       	94.10843       	94.11117       	94.08747       	94.18599       	94.01412       	94.20389       	94.195244      	94.576096      	93.81798       	93.8134        	93.61539       	93.7682        	93.82919       	93.37965       	93.3671        	92.81201       	92.85624       	93.27674       	92.9729        	93.47501       	93.68312       	93.41863       	93.5633        	93.554535      	93.42775       	93.61176       	93.436264      	93.15386       	93.48364       	93.62656       	93.40124       	93.08754       	93.80523       	93.4362        	93.62264       	94.15974       	93.73588       	93.61935       	93.756744      	93.76514       	93.887344      	94.08648       	93.55253       	93.570694      	93.78682       	93.648         	93.53443       	94.38358       	93.87177       	93.79223       	93.79384       	93.42532       	93.41014       	93.45342       	93.36187       	93.23933       	93.794586      	93.74757       	94.04872       	94.15358       	94.14357       	94.06612       	93.69482       	93.406624      	93.92419       	93.85749       	93.89087       	93.83521       	93.56845       	93.70506       	93.7076        	93.92912       	93.729805      	93.92887       	93.42182       	93.585396      	93.15031       	
94.18213       	94.07848       	93.87407       	94.044395      	94.16053       	94.29477       	94.23598       	94.198135      	94.28464       	94.24332       	94.16241       	93.86091       	93.5574        	93.73227       	93.969444      	93.81556       	94.108185      	93.70969       	93.55952       	93.76246       	93.64464       	93.62321       	93.6296        	93.80748       	93.79863       	94.0087        	93.72449       	93.229126      	93.461716      	93.575195      	93.34253       	93.4852        	93.20192       	93.399445      	92.88961       	92.82494       	93.27804       	93.615974      	93.22635       	93.20178       	93.294464      	92.92029       	93.305534      	93.25142       	93.205124      	93.40983       	93.43672       	93.47852       	93.515396      	93.42315       	93.35129       	93.58686       	93.099724      	93.182465      	93.2312        	93.26359       	93.215866      	92.90043       	93.77213       	93.50343       	92.908615      	93.53991       	93.82828       	93.03596       	93.24555       	92.940216      	93.24582       	93.027725      	93.66287       	93.78999       	93.96944       	94.20834       	93.88639       	94.24971       	94.05761       	93.97035       	93.500275      	93.298225      	93.295456      	93.356636      	93.22063       	93.197136      	93.91443       	93.56078       	93.66924       	93.99659       	93.530396      	93.43653       	93.40043       	93.25296       	93.805336      	93.56434       	93.16638       	93.72708       	93.73368       	93.97144       	93.645546      	94.3047        	93.74235       	93.88244       	
93.18442       	93.50191       	93.84159       	94.06275       	93.95657       	94.01241       	94.302765      	93.94552       	94.029144      	93.938934      	93.90068       	94.17468       	94.04199       	94.100655      	93.99677       	94.27303       	94.0443        	93.904594      	94.61705       	94.127335      	94.39853       	94.51891       	94.44386       	94.34392       	94.06911       	93.54147       	94.01208       	94.231094      	93.79549       	93.52558       	93.865234      	93.38162       	93.80999       	93.48109       	93.33693       	93.65009       	93.443794      	93.263374      	93.3785        	93.677376      	93.23891       	93.40605       	93.66369       	93.48314       	93.72045       	93.387436      	93.41706       	93.486115      	93.44922       	93.607956      	93.62288       	93.08435       	93.11301       	93.52223       	93.25776       	93.244514      	93.34286       	93.270905      	93.71716       	93.70521       	93.184135      	93.520874      	93.872475      	93.9239        	93.47997       	93.88961       	93.62033       	93.4178        	93.90522       	93.337875      	93.46933       	93.77934       	93.779         	93.43112       	93.21534       	93.53942       	92.89026       	92.98536       	93.00216       	92.98795       	93.62841       	93.871284      	93.74517       	93.619064      	93.30356       	93.19585       	93.5301        	93.55367       	93.8264        	93.9524        	93.82218       	93.30051       	93.2873        	93.263885      	93.36281       	93.58663       	93.11888       	93.673355      	93.79419       	93.21828       	
93.33823       	93.46013       	93.64535       	93.98737       	93.95873       	93.75293       	93.75323       	94.098625      	93.93187       	93.70346       	94.00575       	93.651085      	93.62206       	93.48462       	93.54131       	93.37821       	93.8156        	94.18297       	94.20406       	94.14183       	94.07567       	93.392746      	93.363686      	93.081856      	93.54493       	93.50798       	93.16634       	93.07048       	93.46891       	93.70142       	93.36093       	93.77094       	93.52588       	93.22277       	93.38684       	93.2478        	93.117355      	93.30127       	93.624756      	93.86229       	93.80863       	93.171455      	93.543526      	93.28533       	92.862305      	93.137436      	93.242805      	93.43572       	93.392975      	93.69638       	93.184456      	93.27609       	93.51989       	93.33007       	93.43212       	93.32486       	93.677055      	94.1407        	93.927414      	93.62008       	93.61438       	93.42943       	93.75485       	94.20362       	93.93075       	93.561356      	93.46174       	93.74775       	93.85962       	93.52645       	94.134026      	94.23512       	93.9561        	93.71835       	94.191216      	93.81044       	94.3082        	94.62013       	93.888916      	93.71264       	93.68098       	93.77132       	94.01399       	93.86337       	93.980354      	94.254135      	94.11088       	94.281525      	93.80171       	93.38154       	93.83348       	94.40426       	94.13665       	93.26319       	93.395706      	93.5946        	93.73298       	93.71786       	93.45561       	93.33046       	
94.05791       	93.85684       	94.14387       	93.88102       	93.448456      	93.90557       	93.78526       	93.95553       	93.781525      	93.56768       	93.62622       	93.79146       	93.841446      	93.63354       	93.39827       	93.5925        	94.11174       	94.40039       	93.72855       	93.86185       	94.282684      	94.2576        	94.21446       	94.03223       	94.066086      	94.29101       	94.34992       	94.285126      	94.54585       	94.157364      	94.186005      	94.31421       	93.98323       	93.335686      	93.91983       	93.91952       	93.58674       	93.81627       	93.984955      	93.92461       	93.99458       	93.60811       	93.68739       	94.082634      	93.878044      	93.68635       	93.70263       	93.35115       	93.51561       	94.138016      	93.90667       	93.80104       	93.76999       	93.30712       	93.90126       	94.13039       	93.782394      	93.78897       	93.56114       	93.22106       	93.30501       	93.58043       	93.28749       	93.636024      	93.51054       	93.089195      	93.17785       	93.549484      	94.00012       	93.77935       	93.76739       	93.72998       	93.870224      	93.392685      	93.44013       	93.09977       	93.303116      	93.444016      	92.85589       	93.01606       	93.41131       	93.60422       	93.71171       	93.97126       	93.83121       	93.46769       	93.90329       	93.88285       	94.20573       	93.95626       	94.20938       	94.270645      	94.24217       	94.1208        	93.84875       	94.234406      	93.896675      	93.81389       	94.02271       	93.90675       	
93.74528       	93.68537       	93.664925      	93.63131       	93.94289       	94.03608       	94.124565      	93.764404      	93.07426       	93.731         	93.699135      	93.965416      	94.46045       	94.435875      	94.34623       	94.397896      	94.43605       	94.481606      	94.39308       	94.36952       	93.91261       	93.36917       	93.71968       	93.67121       	93.64674       	94.09936       	93.85845       	93.414925      	93.31241       	93.28247       	93.366646      	93.74427       	93.613976      	93.44168       	93.429306      	93.61368       	93.89476       	94.16378       	93.7369        	93.9388        	93.701866      	93.64102       	93.79754       	93.70308       	93.80225       	93.92477       	93.893845      	93.28643       	93.321945      	93.44979       	93.51335       	93.42659       	93.55382       	93.735344      	93.73722       	93.91731       	93.95588       	94.05          	93.61012       	93.62532       	93.54096       	93.54447       	93.68419       	93.62071       	93.69844       	93.44244       	93.668465      	93.83016       	93.86069       	94.08703       	94.22382       	93.564384      	93.65964       	93.875656      	93.73112       	94.193115      	94.25688       	94.11363       	94.04808       	94.092255      	93.88201       	94.11545       	94.065186      	94.15782       	94.03837       	93.66708       	93.88935       	93.43876       	93.37157       	93.691216      	93.48808       	93.22876       	93.10857       	93.18823       	93.30644       	93.65262       	93.514244      	93.52544       	93.22987       	93.336655      	
93.97156       	93.6256        	93.52392       	93.82146       	94.016235      	94.36218       	94.40154       	94.21422       	94.08001       	94.406494      	94.27603       	94.82677       	94.64794       	94.07452       	94.44542       	94.0573        	93.59107       	94.54765       	94.03943       	94.12188       	94.06652       	94.26994       	93.86907       	93.90489       	93.75998       	93.946815      	94.347206      	94.127304      	93.63901       	94.16207       	93.68222       	93.70661       	94.30604       	93.906624      	93.86555       	94.09222       	93.7024        	93.396645      	93.61032       	93.41844       	93.59077       	93.952896      	93.516495      	93.51929       	93.657585      	93.534546      	93.19066       	93.71346       	93.41054       	93.6205        	93.939606      	94.180374      	94.0579        	94.51159       	94.740036      	94.24763       	94.13644       	94.04029       	94.238144      	94.833015      	94.631454      	94.005905      	93.87987       	93.374146      	93.48786       	94.07724       	93.61829       	93.82956       	94.30749       	93.453125      	94.066414      	94.21899       	93.82602       	94.00317       	94.485405      	93.89548       	93.88927       	94.39371       	93.912155      	93.729706      	94.27738       	94.28357       	93.752335      	94.05866       	93.64369       	93.60711       	93.61718       	93.444855      	93.7067        	93.74922       	93.37684       	93.44991       	93.827225      	93.53049       	93.55647       	93.97176       	93.22896       	93.20436       	93.71907       	93.50507       	
93.972176      	93.7461        	93.53442       	93.53838       	93.83383       	93.964226      	93.75691       	94.334595      	94.38264       	94.3302        	94.107315      	94.371         	94.47338       	94.47108       	94.45033       	93.73815       	93.68781       	93.68578       	93.7774        	93.68095       	93.80771       	93.361465      	93.64489       	94.04483       	93.98835       	93.50496       	93.67857       	93.724045      	93.818726      	93.49281       	93.7846        	93.98103       	93.946365      	93.82324       	93.95202       	93.821686      	93.86856       	94.22046       	93.90744       	94.09708       	94.0085        	93.97505       	94.05883       	94.048584      	94.14835       	93.844604      	94.14863       	93.62115       	93.79016       	93.94711       	93.524605      	93.85402       	94.17197       	93.66101       	94.013336      	94.20214       	93.81534       	93.962395      	94.20946       	94.347084      	94.351654      	94.52898       	93.86866       	94.402145      	94.09029       	93.67379       	93.64936       	93.373085      	92.954506      	93.15547       	94.042274      	93.64539       	93.862595      	94.12477       	93.78158       	93.61777       	93.329056      	93.80931       	93.82284       	94.17187       	93.90427       	93.79952       	93.63049       	92.90266       	93.84152       	93.68869       	93.70703       	94.81136       	94.39255       	94.11088       	93.98659       	94.20508       	94.14277       	94.38041       	93.82016       	93.463066      	93.45191       	93.2256        	93.49089       	93.80868       	
93.54111       	93.88876       	93.898605      	93.80785       	93.734184      	93.43208       	93.53024       	93.79871       	93.65205       	93.79606       	94.27044       	93.977974      	94.02515       	94.02879       	94.274376      	93.97701       	94.03955       	94.06787       	93.98075       	93.82884       	93.5963        	93.647995      	93.7398        	93.69777       	93.519196      	93.91943       	93.72074       	93.09078       	93.40874       	93.55779       	93.53238       	93.328445      	92.90055       	93.4102        	93.2255        	93.68977       	93.805435      	93.20622       	93.626396      	93.77154       	93.66231       	93.42001       	93.49262       	93.59542       	93.625046      	93.51222       	93.256996      	93.258224      	93.76741       	93.28926       	93.31566       	93.694565      	93.62513       	93.32773       	93.159996      	93.33306       	93.47566       	93.66057       	93.594284      	93.64408       	93.59818       	92.98222       	93.04784       	93.02303       	92.77996       	93.213875      	93.07117       	93.06688       	93.12885       	93.17461       	92.74618       	93.08479       	93.41829       	93.338005      	93.50758       	94.01934       	93.91365       	93.53087       	93.58412       	94.051506      	94.04129       	94.34279       	93.812935      	94.06674       	94.11264       	93.87805       	93.82678       	93.97042       	93.64082       	93.71517       	93.72994       	93.73532       	93.45337       	93.47796       	93.63907       	93.53877       	93.674835      	93.544685      	93.18275       	93.163155      	
93.33618       	93.075066      	92.86486       	92.80335       	92.7628        	92.77543       	92.694695      	92.76417       	93.195625      	92.87746       	93.06026       	93.68903       	93.46471       	93.78311       	93.57793       	93.78267       	93.27487       	92.898674      	93.31588       	93.22196       	92.98811       	92.986115      	93.222916      	93.27503       	93.33398       	93.20362       	93.066124      	93.26519       	93.44682       	93.28568       	93.43567       	93.37784       	93.42799       	93.45981       	93.64416       	93.765175      	94.02802       	93.64867       	93.7764        	94.13604       	93.44308       	93.40698       	93.800125      	93.857376      	93.82492       	93.994385      	93.65063       	93.40296       	93.55679       	93.316765      	93.21203       	93.004974      	92.57978       	92.84725       	93.19271       	92.97829       	93.430504      	93.098335      	92.79118       	93.26136       	93.545395      	93.08449       	93.01639       	93.47309       	93.582954      	93.47193       	93.628174      	93.49198       	93.43729       	93.19184       	93.08339       	93.393         	93.42736       	93.156166      	93.25504       	93.913765      	93.66657       	93.45952       	93.42505       	93.55493       	93.558014      	93.226715      	93.29283       	93.77547       	93.416435      	93.54219       	93.58405       	93.915924      	93.76134       	93.74985       	93.944084      	93.712494      	94.108574      	94.03356       	94.11708       	94.249405      	94.62499       	93.95612       	93.90201       	93.581085      	
93.603516      	93.72644       	93.564644      	93.2489        	93.03707       	93.19585       	92.96223       	93.378784      	93.57596       	93.31928       	93.40398       	93.67347       	93.997894      	93.63404       	93.81239       	93.41532       	93.400925      	93.89196       	93.848785      	94.36095       	94.25305       	94.27752       	94.26613       	94.11921       	93.77719       	94.113525      	93.80412       	93.9182        	93.522964      	93.29387       	93.30818       	93.5979        	93.40559       	93.62854       	93.79932       	93.38241       	93.34893       	94.03202       	93.6831        	93.98445       	94.18554       	94.502075      	93.85763       	93.569626      	93.54325       	93.53446       	93.88258       	93.76539       	93.97751       	94.0688        	93.4412        	93.549614      	93.19853       	93.706795      	93.89497       	93.7657        	93.9332        	93.26034       	93.64661       	93.41078       	93.46827       	93.45899       	93.307236      	93.37729       	93.51859       	93.49748       	93.335236      	93.66896       	93.48494       	93.265656      	93.078094      	93.1822        	93.36858       	93.10302       	92.849205      	92.77979       	92.53588       	92.80144       	92.7874        	93.83228       	93.58683       	93.36403       	93.54593       	93.55336       	93.52105       	93.28494       	93.62431       	92.92841       	93.15716       	93.35099       	93.354645      	93.77916       	93.61787       	93.770256      	93.50053       	93.70647       	93.301704      	93.52543       	93.50663       	92.827866      	
93.84168       	94.178116      	94.01722       	93.731895      	93.58609       	93.59045       	93.8347        	93.66463       	93.95951       	94.03493       	93.7052        	94.00506       	94.136635      	93.59403       	93.55223       	94.01416       	94.494865      	94.08159       	94.197914      	93.80213       	94.17827       	93.902145      	93.998276      	94.07619       	93.727776      	93.48619       	93.44585       	93.73315       	93.27785       	93.180466      	93.29484       	92.90468       	92.825066      	92.75342       	92.6538        	92.86677       	93.31276       	92.74742       	93.300255      	93.14527       	93.01781       	93.282906      	93.42205       	93.02137       	93.48051       	94.04806       	93.36345       	93.665054      	93.4359        	93.15425       	93.609695      	93.45262       	93.5555        	93.66192       	93.27455       	93.11886       	93.43872       	93.22368       	93.00391       	93.17071       	92.87807       	92.927986      	93.32434       	92.66576       	93.02754       	93.1749        	92.96807       	92.962685      	92.72923       	93.10291       	93.045425      	93.180244      	93.62944       	93.29133       	93.641594      	93.338425      	93.24498       	93.71962       	93.85106       	93.570724      	93.43124       	93.785126      	93.472336      	93.14438       	93.11372       	93.26416       	93.44994       	93.34459       	93.194305      	93.16016       	93.129776      	93.12138       	93.31689       	93.13436       	92.66176       	92.78989       	92.93769       	92.939606      	92.86336       	92.81094       	
93.27943       	93.111694      	93.21017       	93.34468       	93.084366      	92.607834      	92.710335      	92.92506       	92.84252       	92.335075      	92.78674       	92.35009       	92.67115       	92.9831        	92.885895      	92.95965       	93.39026       	93.30611       	93.22653       	93.42778       	92.89042       	92.51395       	92.87662       	93.3837        	93.20114       	92.9132        	92.73088       	92.713005      	92.714615      	92.88244       	92.848495      	93.28565       	93.87472       	93.6801        	93.77937       	93.852425      	93.988785      	94.23874       	93.77171       	93.67423       	94.10823       	93.69937       	93.807945      	94.285065      	94.03881       	93.38199       	92.70092       	92.9774        	93.34319       	93.246185      	93.26421       	93.56267       	93.18206       	93.28601       	94.176926      	93.61048       	93.02226       	93.65172       	93.68358       	93.430145      	93.34277       	93.46867       	93.377884      	93.71424       	93.427895      	93.288055      	93.81896       	93.67          	93.97083       	94.02155       	93.5232        	93.45744       	93.8509        	94.14869       	93.35904       	93.28034       	93.43921       	93.34279       	93.36621       	93.37647       	93.59054       	93.325325      	93.3376        	93.19161       	93.585976      	93.57415       	92.972694      	92.526886      	92.43936       	92.64747       	93.078766      	92.90528       	92.66353       	92.737045      	92.53508       	92.99634       	92.46793       	92.259186      	92.69627       	93.011475      	
93.30152       	93.11219       	93.31837       	93.695526      	93.35998       	93.164635      	93.43979       	93.43647       	93.696625      	93.73474       	93.69103       	93.45213       	93.36333       	93.490814      	93.45912       	93.56776       	94.11674       	94.27152       	93.291275      	93.56852       	93.45279       	93.38224       	93.56034       	93.43967       	93.336044      	93.54137       	94.16116       	93.82368       	93.86937       	93.897095      	94.31737       	93.8706        	93.84581       	94.0998        	94.1405        	93.77876       	93.55338       	94.27258       	93.482056      	93.86901       	93.60562       	92.95854       	93.44083       	93.13391       	93.64873       	93.69488       	93.89369       	93.52965       	93.84436       	93.5231        	93.503365      	93.68819       	93.48296       	93.62496       	94.04351       	94.12117       	93.33714       	94.083         	93.80557       	93.83045       	93.70617       	93.18637       	93.54939       	93.96687       	93.62638       	93.46136       	93.719864      	93.489655      	93.24002       	93.5312        	93.475716      	93.589325      	93.71153       	93.3448        	93.29879       	93.52592       	93.31273       	94.00301       	93.84288       	93.52254       	94.31632       	94.15116       	93.75308       	93.37796       	93.50593       	93.36274       	93.24739       	93.11687       	92.81141       	92.74655       	93.18961       	92.93416       	93.34134       	93.192         	93.20242       	93.958984      	93.78276       	93.4184        	93.5649        	93.57882       	
93.742         	93.738335      	93.94018       	94.04398       	93.96424       	93.9842        	93.69838       	93.45971       	93.186935      	93.37039       	93.52035       	93.61374       	93.50727       	93.86386       	94.154976      	93.645355      	93.97197       	93.52989       	93.91383       	94.221146      	93.96801       	93.561646      	93.62088       	93.396576      	93.4014        	93.511154      	93.56185       	93.74328       	93.874374      	93.78999       	93.52137       	93.65559       	93.64856       	93.12682       	92.862015      	93.15443       	93.23263       	93.00555       	93.2003        	93.17213       	93.5734        	93.55446       	93.85338       	94.0455        	93.422554      	93.55199       	93.86459       	94.2206        	93.48835       	93.50711       	93.304146      	93.89795       	93.85558       	93.99647       	93.88593       	94.082184      	93.79123       	93.88687       	93.97569       	94.08846       	93.82114       	94.39778       	93.86816       	93.78673       	93.77852       	93.872505      	93.78618       	93.658775      	93.31142       	93.54312       	93.41904       	93.522964      	93.67817       	93.81365       	93.85423       	93.38192       	92.982185      	93.637856      	93.41015       	93.081436      	92.87088       	93.03503       	92.85873       	93.26659       	93.542046      	93.03911       	93.233116      	93.36282       	92.9319        	93.12989       	93.060455      	93.46109       	93.148926      	93.33301       	93.9303        	93.37914       	93.46996       	93.24663       	93.64986       	93.49389       	
94.05437       	93.81503       	93.78104       	93.817154      	93.65933       	93.58351       	93.62181       	93.64726       	93.42516       	93.75084       	93.9147        	93.76523       	93.685005      	93.51412       	93.600395      	93.35926       	93.7233        	93.96078       	93.96225       	93.337776      	93.91654       	93.880875      	93.42521       	93.58948       	93.1999        	93.24244       	93.39265       	92.93407       	93.01335       	93.12244       	93.42261       	93.40642       	92.73934       	92.917465      	93.01269       	93.40221       	93.29261       	92.81661       	93.52695       	93.5881        	93.76972       	93.86238       	93.82973       	93.790855      	93.92763       	94.065796      	93.698784      	93.55253       	93.513596      	93.22501       	93.13344       	93.31107       	93.223236      	93.21015       	93.0993        	92.97627       	93.25159       	93.678024      	93.364494      	93.338135      	93.36328       	93.06023       	93.05249       	93.10387       	93.46319       	93.24477       	93.494514      	93.50909       	93.3026        	93.3132        	93.48234       	93.539566      	93.02586       	92.71986       	93.55306       	93.577065      	93.61639       	93.16257       	92.81601       	92.559814      	92.53006       	92.28868       	92.16991       	92.141975      	92.202324      	92.17692       	92.56311       	92.529625      	92.32548       	92.93889       	92.47001       	92.42797       	93.12198       	93.2034        	92.75599       	92.83314       	92.124054      	92.39633       	92.77355       	92.94662       	
93.45527       	93.44056       	93.50748       	93.51611       	93.64715       	93.05176       	93.4025        	93.58794       	93.32255       	93.10067       	93.13425       	93.0481        	93.465294      	93.323456      	93.30702       	93.72755       	93.5083        	93.290215      	93.482124      	93.10816       	93.13809       	93.043915      	93.35666       	93.48059       	93.63342       	93.5505        	93.38207       	93.03296       	93.66368       	93.36435       	93.57018       	93.473755      	93.41884       	94.33922       	93.941925      	93.59619       	93.5799        	94.0684        	93.69186       	93.58806       	94.167274      	94.18905       	93.960205      	93.68259       	93.58322       	93.813385      	93.89843       	93.45778       	93.88393       	93.74383       	93.538124      	93.186485      	93.88112       	93.92199       	93.73157       	93.4919        	93.297676      	93.528984      	93.5317        	93.51          	93.55607       	93.48815       	93.54133       	93.48649       	93.1194        	93.070526      	93.32802       	93.44422       	93.467354      	93.75552       	93.72183       	93.374504      	93.43835       	93.32417       	93.45936       	93.4089        	93.04549       	93.04781       	93.26493       	93.34714       	93.25798       	93.29373       	92.895874      	93.038216      	93.14177       	93.24454       	93.071335      	92.653076      	92.538925      	93.41069       	93.754486      	93.367584      	93.84628       	93.91646       	93.78231       	93.88917       	94.297035      	93.41345       	93.58553       	93.748245      	
93.3011        	93.74189       	94.02756       	93.997314      	93.79389       	93.720345      	93.465385      	93.32451       	93.56198       	93.72449       	93.52542       	93.78232       	93.79697       	93.73217       	93.51624       	94.04887       	93.90227       	93.43935       	93.63451       	93.77274       	93.622574      	93.69697       	93.29857       	93.404434      	93.13927       	93.0373        	93.44227       	93.46789       	93.28154       	93.05584       	93.02107       	92.960625      	93.048004      	93.08484       	93.03124       	93.35836       	93.60562       	93.73166       	93.76232       	93.86925       	93.747475      	93.80943       	93.92317       	94.340324      	93.98144       	94.10013       	94.05          	93.868         	93.7745        	94.2449        	94.334526      	94.38238       	94.25408       	93.86114       	93.97686       	94.02178       	93.687004      	93.62037       	93.89836       	93.95622       	93.51362       	94.056564      	94.2888        	93.769936      	94.153305      	94.02359       	93.53677       	93.74083       	93.63747       	93.64285       	93.60775       	93.99067       	93.85401       	93.53285       	93.25689       	93.48487       	93.44614       	93.28875       	93.22873       	93.09551       	92.69048       	92.93967       	93.063385      	93.16374       	93.066376      	93.03963       	93.243324      	93.60627       	93.360245      	93.412834      	93.636856      	92.91585       	93.030464      	93.48592       	93.260704      	93.72053       	93.701164      	93.965004      	93.60163       	93.191376      	
93.91487       	94.1563        	94.19015       	93.839836      	93.89176       	94.130196      	93.781364      	93.64754       	94.10975       	93.94467       	93.38358       	93.98995       	93.631485      	94.23436       	93.6609        	93.611336      	93.72411       	93.5955        	93.64669       	93.3328        	93.32915       	92.992226      	93.43108       	93.716034      	93.128716      	93.17262       	94.041176      	93.5195        	93.68354       	93.70536       	93.84732       	94.07305       	94.12724       	93.971016      	94.59844       	94.54029       	94.62276       	94.4606        	94.38127       	94.54862       	94.32962       	94.26619       	94.46729       	94.3434        	94.088554      	93.9722        	93.89989       	93.58703       	93.86897       	94.27487       	94.15864       	93.90922       	94.17703       	94.26004       	94.00469       	93.986206      	93.95409       	94.07739       	93.8302        	93.917435      	94.15747       	93.977615      	93.52837       	94.05069       	93.9277        	93.5161        	93.241714      	93.948616      	93.41699       	93.45813       	93.79971       	93.511284      	93.305595      	93.59322       	93.75365       	93.811264      	94.004875      	93.86454       	93.20468       	93.00464       	92.582565      	93.09349       	93.57175       	93.45649       	93.45744       	93.36301       	93.05513       	93.41337       	93.912766      	93.66823       	93.50858       	93.271935      	93.059456      	93.10285       	93.50323       	93.42716       	92.97621       	93.345894      	93.18189       	93.12537       	
93.487625      	93.83205       	93.89788       	93.77983       	93.55936       	93.475945      	93.18967       	93.37751       	93.53788       	93.36638       	92.79354       	93.242035      	93.34448       	93.66993       	93.71318       	93.28564       	93.79668       	93.808075      	93.601105      	93.47269       	93.63132       	93.203415      	93.14676       	93.06883       	93.22392       	93.33634       	93.12997       	93.21854       	93.54419       	93.78747       	93.416084      	93.38529       	93.43453       	92.9721        	93.42616       	93.622894      	93.61011       	93.74124       	93.67778       	93.70019       	93.872185      	93.70793       	93.3133        	93.76415       	93.875244      	93.788246      	93.43822       	93.84484       	93.707794      	93.4248        	93.811806      	93.86993       	93.69197       	93.81789       	93.96898       	94.09834       	93.856865      	93.800186      	93.14819       	93.318         	93.31018       	93.381         	93.65316       	93.301765      	93.35544       	94.0302        	93.98195       	93.61424       	93.55389       	93.8482        	93.28015       	93.44278       	93.46029       	94.08573       	93.80474       	93.61324       	93.632416      	93.95426       	93.23493       	92.47713       	92.953415      	93.39318       	92.871506      	93.41387       	93.63786       	92.98973       	93.24074       	93.64921       	93.12915       	92.976616      	92.7092        	92.83858       	93.190445      	92.60888       	92.70365       	92.68222       	92.60962       	92.4763        	92.73253       	93.14421       	
93.26229       	93.446724      	93.66048       	93.6077        	93.501144      	93.40311       	93.648384      	92.912796      	93.320595      	93.221306      	93.51151       	93.3824        	93.642944      	93.623276      	93.477486      	93.703926      	93.78527       	93.25806       	93.32094       	93.34826       	93.30945       	93.17509       	93.13497       	93.40852       	93.197136      	92.782425      	93.14225       	93.21444       	92.90994       	93.47537       	93.75833       	93.610275      	93.575485      	93.682724      	94.17048       	94.031654      	93.74748       	93.11955       	93.349365      	93.93224       	93.37088       	93.82439       	93.7142        	93.206345      	93.46976       	93.9133        	93.62987       	93.83544       	93.49064       	93.19153       	93.62328       	93.28688       	93.64863       	94.211685      	93.92189       	93.648125      	94.08088       	93.76201       	93.61909       	93.58224       	93.83514       	93.88423       	93.79565       	93.96339       	93.90514       	94.415886      	94.428314      	94.39888       	93.55162       	93.69323       	93.90646       	93.819084      	93.67969       	93.670525      	93.41139       	93.176674      	93.049835      	93.89423       	93.220024      	92.69237       	92.32156       	92.248856      	92.341705      	92.121666      	92.51346       	92.55305       	92.38428       	92.52335       	92.67635       	93.013336      	92.48011       	92.72354       	92.50276       	92.47145       	93.042885      	93.15255       	92.92675       	92.539116      	92.81406       	93.41965       	
93.96652       	94.16844       	94.15081       	94.05663       	93.68367       	93.65477       	93.57924       	93.521675      	93.13766       	93.78016       	93.70508       	93.46027       	93.36793       	93.02733       	93.13488       	92.7859        	92.59494       	92.95969       	93.09157       	93.26163       	93.2248        	93.32284       	93.16328       	93.26329       	93.08334       	93.08491       	92.96652       	93.41496       	93.09911       	93.27935       	93.27117       	93.34289       	93.262115      	93.732864      	93.63536       	93.83333       	93.8745        	93.5601        	93.74468       	93.84306       	93.71249       	93.11694       	93.514694      	93.73158       	93.19933       	93.685905      	93.63103       	93.50318       	93.35554       	92.57736       	92.67172       	93.03418       	92.79398       	93.64372       	94.089325      	93.729546      	94.01189       	94.45761       	94.13623       	94.110634      	94.28437       	93.973724      	93.55256       	93.60954       	93.97914       	93.61653       	93.798004      	93.770584      	93.77827       	93.70589       	93.55762       	93.705284      	93.8366        	93.669106      	93.36837       	93.70924       	93.75479       	93.92383       	93.76927       	93.658905      	93.15119       	93.055695      	93.0022        	93.268875      	93.03832       	92.94006       	92.74608       	93.10772       	92.71064       	92.872345      	93.31965       	93.14751       	93.17581       	93.90701       	93.52219       	93.10267       	93.53939       	93.82028       	93.38516       	93.731285      	
93.585724      	93.36632       	93.329414      	93.32324       	93.61988       	93.25554       	93.412636      	93.135056      	93.32678       	93.62113       	93.84132       	93.35223       	93.18891       	93.72107       	93.71967       	93.79391       	94.104904      	93.88209       	94.30423       	94.09441       	93.79998       	93.9486        	93.703865      	93.57836       	94.23125       	93.81246       	93.994514      	94.38135       	94.3772        	94.42604       	94.428375      	94.75871       	94.1976        	93.97777       	93.6014        	93.98622       	94.19877       	93.699165      	93.60509       	94.11301       	94.45739       	94.256195      	94.26134       	94.05204       	93.629875      	93.634636      	93.402794      	92.91485       	93.01865       	93.28356       	93.16857       	92.983345      	93.631584      	93.56554       	93.40555       	93.85202       	93.81495       	94.100746      	93.79756       	93.547615      	93.708984      	93.515945      	93.299286      	93.75996       	93.98503       	94.052826      	93.70729       	93.47724       	93.69376       	93.349594      	93.06426       	93.385826      	93.837395      	93.320595      	93.29414       	93.26634       	93.22576       	93.49433       	93.699234      	92.822784      	93.10865       	93.38801       	92.80371       	92.94502       	93.09282       	93.20428       	93.317795      	93.84693       	94.223526      	94.21245       	93.91956       	93.34855       	93.78315       	93.83094       	93.58774       	94.06227       	93.861404      	93.50615       	93.46611       	93.1928        	
93.73987       	93.898186      	94.02568       	94.03278       	94.05669       	93.93633       	93.994675      	94.04152       	93.982925      	94.08109       	93.81388       	93.590256      	93.51757       	93.47179       	93.701256      	94.0745        	93.94752       	93.87923       	93.17901       	94.05131       	94.03581       	93.663895      	93.41553       	93.5139        	93.522255      	93.54684       	93.608635      	93.80457       	93.84701       	93.76834       	93.69188       	93.52347       	94.099815      	93.928986      	94.2317        	93.99601       	93.47086       	93.38315       	93.325966      	93.36624       	93.10591       	93.08683       	92.54802       	92.41468       	92.876656      	92.639435      	92.18379       	91.980995      	92.6941        	93.009445      	92.57067       	93.09091       	93.21015       	93.50739       	93.83293       	94.00044       	93.75209       	93.530846      	93.58642       	93.62126       	94.36806       	93.937706      	93.997444      	94.31273       	94.111824      	94.05452       	94.07613       	93.78146       	93.93735       	94.08355       	93.89745       	94.47314       	94.129074      	93.75558       	94.48961       	94.20116       	94.30322       	94.3536        	93.89119       	93.31042       	93.61396       	93.353         	92.997665      	93.417114      	92.73459       	92.70068       	93.02615       	92.97899       	93.0858        	93.28543       	93.16348       	93.271286      	93.0159        	93.30822       	93.4409        	93.44744       	93.782135      	93.50894       	93.79719       	93.38307       	
93.67369       	93.4592        	93.771904      	93.97426       	93.71513       	93.72164       	93.96349       	93.852585      	93.37983       	93.61169       	93.70577       	93.575645      	94.14286       	94.46188       	93.64098       	94.04056       	93.836174      	94.087944      	94.18007       	94.0381        	94.16942       	93.96118       	93.903244      	93.643036      	93.73729       	93.557014      	93.77229       	94.28484       	94.191475      	94.172516      	94.12926       	94.14178       	93.35008       	93.61536       	93.67357       	93.43998       	93.31161       	93.448524      	92.91419       	92.974396      	92.91951       	92.90214       	93.02703       	92.57559       	92.54436       	92.72501       	92.69058       	93.057816      	93.34978       	93.35246       	93.19372       	93.22902       	93.269966      	93.415146      	93.59506       	93.95357       	94.33537       	94.26818       	93.95422       	93.756256      	94.10173       	93.69477       	94.15751       	93.7266        	93.48421       	93.49385       	94.01784       	94.29986       	93.60421       	93.32948       	93.54309       	93.281876      	93.2113        	93.51798       	94.18832       	93.98978       	94.13244       	94.06108       	94.113655      	93.5199        	92.796265      	93.19742       	93.03902       	92.57247       	93.10872       	92.83881       	93.41202       	92.988144      	93.33565       	93.509315      	93.43892       	93.6039        	93.38676       	93.46087       	93.08343       	92.80978       	93.044624      	92.70463       	92.82698       	93.150475      	
93.23909       	93.161674      	93.066216      	92.93758       	93.247086      	93.40088       	93.27267       	92.971405      	93.72571       	93.82083       	93.351204      	93.14957       	93.75137       	94.08998       	93.76274       	93.58122       	93.362175      	93.47692       	93.421295      	93.36848       	93.65335       	93.70397       	94.03264       	93.775314      	93.91768       	93.81141       	93.74883       	93.25749       	93.28947       	93.51957       	93.75017       	93.19455       	93.03914       	93.296005      	93.15421       	92.859344      	92.78523       	92.8873        	93.33553       	93.19012       	93.09159       	93.587326      	93.47845       	93.89273       	93.53552       	93.255974      	93.37504       	93.09282       	93.25928       	93.18902       	93.29012       	93.196075      	93.6327        	93.703285      	94.09558       	94.58466       	95.13634       	94.52779       	94.78841       	95.0263        	94.639946      	94.21807       	94.56971       	94.17655       	94.372574      	94.27325       	94.18382       	94.16155       	94.216644      	93.697395      	93.86156       	94.16765       	94.18047       	94.57681       	94.31288       	94.93035       	94.8957        	94.52133       	94.7507        	94.42278       	93.91988       	93.79321       	93.70955       	93.198845      	93.71094       	93.47189       	92.98678       	93.0815        	93.26726       	92.86109       	93.5504        	93.565315      	93.41934       	93.4102        	93.662155      	93.51566       	93.60133       	93.933525      	94.13677       	93.86593       	
93.936874      	93.62114       	93.888954      	94.27072       	94.100266      	93.64959       	94.09714       	94.13486       	93.84783       	94.218475      	94.22435       	94.02238       	93.80815       	94.10678       	93.83248       	93.44671       	93.977615      	92.996864      	93.46394       	93.67639       	93.41105       	93.21064       	93.377365      	93.35548       	93.24149       	93.48478       	93.45667       	93.60379       	92.83913       	92.90883       	93.30754       	92.919365      	92.77035       	93.028206      	92.58961       	92.82602       	93.18356       	92.908165      	92.64423       	92.9832        	92.64635       	92.849396      	92.884636      	92.858284      	92.60392       	93.081894      	93.04683       	93.04493       	93.08772       	92.775894      	93.33107       	93.462166      	92.951004      	93.54126       	94.16329       	93.89794       	94.61454       	94.80473       	93.9773        	93.87804       	93.86876       	94.39477       	94.314705      	94.19669       	93.91333       	94.41533       	94.30889       	94.10031       	94.00783       	94.170425      	93.818924      	93.97072       	94.1167        	93.96907       	93.99761       	94.178116      	94.246666      	94.49806       	94.41743       	93.76169       	93.40235       	93.47743       	93.02867       	92.53685       	92.54986       	93.45166       	93.38138       	92.76417       	92.59139       	93.366714      	93.23129       	92.860855      	93.419815      	93.15815       	93.16793       	93.733925      	93.58089       	93.884834      	92.88097       	93.21305       	
93.91515       	93.853226      	93.85839       	93.88939       	93.94837       	93.95088       	93.89217       	93.701866      	93.72377       	93.66418       	93.665634      	93.50075       	93.94213       	94.212944      	93.90638       	93.67114       	94.6043        	94.015656      	93.84537       	93.85658       	93.57251       	93.62007       	94.03453       	93.57394       	93.158745      	93.22738       	92.74975       	93.324936      	93.10682       	92.35175       	92.2013        	92.815865      	92.76462       	92.87594       	93.183395      	93.4353        	92.90665       	93.139         	93.187164      	92.96838       	93.43886       	93.10863       	93.500435      	93.97526       	93.5448        	93.77755       	93.78731       	93.41136       	93.23216       	93.35945       	93.37572       	93.28575       	93.59196       	93.33666       	93.59465       	94.27653       	94.799774      	95.14453       	94.693794      	94.869194      	95.00387       	94.37996       	94.19781       	94.78254       	94.631645      	94.447075      	94.132126      	94.078995      	93.870865      	93.77066       	94.38794       	94.441055      	94.07864       	94.072426      	93.93409       	93.93677       	93.857414      	93.92072       	94.42826       	94.34938       	93.572624      	93.80943       	93.94964       	93.350586      	93.12765       	93.38205       	93.16302       	93.11718       	92.86827       	93.14023       	92.94604       	93.16026       	93.47659       	93.33155       	92.93844       	92.927315      	92.76218       	92.83016       	92.64774       	93.00394       	
93.76598       	93.38526       	93.435555      	94.00436       	94.155846      	93.697174      	93.562         	93.73516       	94.0821        	93.57586       	94.030876      	93.84804       	94.006874      	94.18205       	93.93458       	94.49429       	94.093506      	93.84926       	94.06496       	93.708565      	92.976685      	93.02227       	93.354546      	92.368164      	92.485504      	93.006874      	92.74553       	93.26242       	93.9721        	93.56569       	93.138214      	93.58754       	93.49983       	93.38189       	93.69617       	93.39038       	94.01027       	94.31319       	93.562225      	93.675995      	93.97106       	93.313835      	92.98303       	93.48007       	93.06066       	93.61686       	93.85156       	93.253456      	93.50219       	93.488945      	93.14409       	93.32291       	93.61382       	93.75357       	93.85744       	93.740814      	94.370865      	94.66513       	94.491615      	94.30311       	94.08012       	93.926445      	93.78254       	94.16197       	94.014145      	93.91894       	94.14302       	93.54463       	93.68452       	93.68554       	93.61413       	93.476494      	93.22792       	93.53462       	93.25319       	93.58574       	93.841354      	93.78869       	93.42825       	93.96798       	93.75178       	94.01215       	93.53866       	93.40213       	93.663956      	93.50064       	93.61403       	93.891426      	93.87582       	93.47262       	93.466866      	93.52664       	93.883545      	93.482704      	93.31824       	93.760056      	94.07848       	93.68653       	93.6147        	93.88339       	
93.32421       	93.95634       	93.78609       	93.169365      	93.14403       	93.43686       	93.21679       	93.520226      	93.61268       	93.74271       	93.589355      	93.91717       	93.77638       	93.545654      	93.687004      	93.73356       	93.41146       	93.5076        	93.07974       	92.95097       	93.37395       	93.03187       	93.0735        	93.232506      	93.35556       	93.47814       	94.34945       	93.53014       	93.98848       	94.212875      	93.884155      	93.73522       	93.52129       	93.541016      	93.515594      	93.066414      	93.26278       	93.71994       	93.4003        	93.320274      	93.47411       	93.42442       	92.87562       	93.28455       	93.48763       	93.46363       	94.00424       	93.62525       	93.929405      	93.88014       	93.67266       	93.67016       	93.77056       	93.43591       	93.55333       	93.782036      	94.12109       	94.36919       	94.77259       	94.446175      	94.335434      	94.33283       	94.155014      	94.568794      	94.10684       	94.2021        	94.53819       	94.41843       	94.166016      	93.9451        	94.06959       	94.13649       	94.58829       	94.67103       	94.190155      	94.531746      	94.537094      	94.44072       	94.313484      	94.13855       	94.073784      	93.05294       	93.27211       	93.39999       	93.28948       	93.11418       	93.37289       	93.29591       	93.487625      	93.23083       	93.12016       	93.62113       	93.7673        	93.412186      	93.768974      	93.33156       	93.099846      	93.52086       	93.887505      	93.40762       	
93.73621       	93.783325      	93.878265      	93.91762       	94.06335       	93.71777       	93.5191        	93.657715      	93.593376      	93.47505       	93.41513       	93.589096      	94.07779       	93.89486       	93.674576      	93.79719       	94.0035        	93.31999       	92.921295      	92.825554      	92.42306       	92.525826      	92.746284      	92.893105      	92.73906       	92.864746      	92.981705      	93.38573       	93.35135       	93.73567       	93.319626      	93.6296        	93.396065      	93.54152       	93.903206      	94.11707       	93.61793       	93.84484       	93.5748        	92.81804       	93.1995        	93.823944      	94.14746       	93.94088       	94.262314      	94.487564      	93.7954        	93.74984       	94.217094      	93.99076       	93.16622       	93.211754      	93.2768        	93.3401        	93.06575       	93.762215      	94.32479       	94.45969       	94.86076       	94.70167       	94.01127       	94.306854      	94.40252       	94.61884       	94.61095       	94.33853       	94.416214      	94.78422       	94.27889       	93.68641       	93.783035      	93.65223       	93.34755       	94.12284       	94.031845      	93.55685       	93.55054       	93.828995      	93.69205       	93.19656       	93.6182        	93.35534       	93.55175       	93.143265      	93.22075       	93.28089       	93.41724       	93.57343       	93.58903       	93.656136      	93.7471        	93.599075      	93.173096      	93.08043       	93.1895        	93.14498       	93.256         	92.8396        	93.1832        	93.09051       	
93.72039       	93.795135      	93.979866      	94.036385      	93.79908       	93.57832       	93.51015       	93.86917       	93.928055      	93.72138       	93.87377       	94.184395      	94.113556      	93.963005      	94.0424        	93.89366       	93.8516        	93.718216      	93.33619       	92.746544      	93.240776      	93.31706       	93.38221       	93.678276      	93.52265       	93.63192       	93.64059       	93.49629       	93.389725      	93.27565       	93.53527       	93.6012        	93.60536       	93.8872        	93.35527       	93.72506       	93.55173       	93.12159       	93.699066      	94.13228       	93.5255        	93.632065      	93.38585       	93.88042       	93.94072       	93.561775      	93.86636       	93.597855      	93.56548       	93.65042       	94.154434      	93.782394      	93.32092       	93.63506       	93.95609       	93.96331       	94.34648       	94.9091        	94.74425       	94.32918       	94.08366       	94.230606      	94.43061       	94.37614       	93.96221       	93.72518       	93.89331       	93.64116       	93.636856      	93.29511       	93.84326       	93.76612       	93.6237        	94.446655      	94.48902       	93.8429        	94.01903       	94.15286       	93.99329       	93.96253       	94.01586       	93.27296       	93.43155       	92.913605      	92.64554       	92.972015      	93.08766       	93.33477       	93.45763       	93.77751       	93.733         	94.07997       	93.948814      	93.50138       	93.95617       	93.50956       	93.17496       	93.4355        	93.36669       	93.80927       	
94.54158       	94.45179       	94.35222       	94.191605      	94.07158       	94.0374        	93.69799       	94.01153       	93.68879       	93.63044       	93.59851       	93.485466      	93.1239        	93.506256      	93.88203       	93.83652       	93.80233       	93.30488       	93.364944      	93.08348       	92.70879       	92.80652       	92.73848       	92.18967       	92.09813       	92.30931       	93.03795       	93.024605      	93.03003       	93.47475       	93.457954      	93.47327       	93.758514      	94.0356        	94.00383       	94.02292       	93.92733       	93.68441       	93.748764      	94.30462       	94.108025      	94.38879       	93.93195       	94.10474       	94.337975      	94.33306       	93.86895       	93.685394      	93.9681        	93.60733       	93.201996      	93.52702       	93.30513       	93.21753       	93.53832       	93.82146       	93.204414      	93.73186       	93.969345      	93.96997       	93.97633       	94.09342       	93.89051       	93.90841       	93.89183       	94.420296      	94.40837       	94.019394      	94.18559       	93.90869       	94.33089       	94.104164      	94.10751       	93.77892       	93.81128       	94.068985      	93.783485      	93.43029       	93.44279       	93.34875       	93.77473       	93.649765      	93.12244       	93.00046       	92.812874      	92.35461       	92.88254       	93.092705      	92.99201       	93.345955      	93.18924       	92.869644      	93.44627       	93.0757        	93.39584       	93.4384        	93.06881       	92.90152       	93.02314       	93.10857       	
93.47053       	93.83575       	93.63875       	93.583374      	94.0016        	94.167145      	94.3784        	93.800064      	94.13386       	94.28463       	93.72485       	94.18851       	93.95596       	94.25213       	94.19987       	94.26498       	94.04199       	93.804245      	93.63687       	93.34002       	93.56729       	93.42182       	92.9453        	92.8434        	92.96252       	93.40376       	93.39843       	93.579765      	93.499916      	93.20429       	93.700516      	93.34626       	92.899155      	93.22374       	93.2224        	93.20899       	93.64281       	93.239784      	93.59498       	93.50371       	93.70543       	93.71851       	93.714966      	93.449066      	92.997894      	93.31802       	92.69833       	92.696495      	93.20146       	92.72094       	93.29871       	93.399574      	93.352875      	93.719574      	94.10149       	93.974434      	94.20452       	94.669395      	94.45816       	94.47716       	94.21391       	94.27686       	94.503494      	94.68701       	94.40097       	94.10958       	93.95044       	93.703606      	93.93208       	93.98946       	94.236465      	94.03739       	93.86072       	93.30219       	94.0323        	93.822334      	93.56978       	93.67533       	93.734604      	93.80653       	93.84656       	93.56979       	93.18022       	93.46015       	93.08786       	93.18          	93.14666       	93.24357       	93.23168       	93.34052       	93.61051       	93.35914       	93.53711       	93.96106       	93.74071       	93.70158       	94.095215      	92.81746       	93.16772       	93.790565      	
93.69984       	93.60191       	93.558586      	93.55284       	93.341156      	93.93027       	93.49833       	94.03963       	94.52258       	94.096794      	94.20893       	93.80835       	93.84337       	93.34816       	93.551476      	93.44337       	93.72152       	93.61035       	93.325455      	92.949425      	93.38342       	93.42144       	93.45727       	93.60196       	93.527885      	93.19174       	93.17027       	93.28321       	92.86161       	93.39751       	93.5247        	93.6872        	93.740875      	93.653854      	93.71622       	93.8726        	93.59173       	93.4375        	93.92699       	93.660164      	93.28248       	93.576385      	93.396225      	93.63835       	93.35787       	93.15578       	93.61059       	93.44336       	93.496864      	93.78052       	94.28051       	93.5443        	93.750435      	93.69225       	93.257935      	93.26513       	93.452446      	94.290825      	94.372154      	94.23693       	94.43804       	93.8575        	94.35486       	94.23425       	94.23463       	94.06563       	94.16444       	94.15315       	94.12382       	94.055595      	93.66135       	94.32604       	93.83898       	93.72306       	93.95409       	94.503654      	93.93663       	94.59444       	94.67241       	94.56486       	94.3022        	93.40949       	93.416016      	93.20584       	92.78276       	92.9506        	93.048454      	93.216934      	93.429184      	93.49962       	93.54618       	93.27939       	93.043106      	93.06324       	93.19196       	93.40878       	92.99649       	93.421844      	93.73751       	93.12386       	
93.61745       	93.74011       	93.615555      	93.550835      	93.47873       	93.509735      	93.704254      	93.449265      	93.705734      	93.46381       	94.13963       	94.01799       	93.8307        	93.8118        	94.16035       	93.55279       	94.09013       	93.75301       	93.56352       	93.49443       	93.709854      	93.157684      	93.098274      	93.098305      	93.38469       	93.63057       	93.55326       	93.29239       	93.10429       	93.11535       	93.35132       	93.617         	93.055954      	93.21243       	93.55489       	93.738235      	93.395744      	93.40052       	93.38041       	93.46699       	93.22071       	94.012314      	93.77872       	93.62664       	93.83564       	93.21467       	93.509445      	93.1611        	93.43022       	93.29614       	93.32271       	93.26481       	93.14887       	93.10564       	93.333405      	93.29293       	93.56127       	93.681015      	94.738235      	94.60452       	93.96715       	94.1492        	94.21186       	93.90488       	94.215706      	93.836876      	94.220894      	94.374466      	93.81965       	94.11813       	94.253586      	94.23788       	94.18632       	94.089355      	93.91654       	93.91422       	94.14011       	94.3791        	94.61114       	94.31712       	94.14575       	94.02046       	93.487656      	93.01753       	93.19838       	93.1403        	93.12849       	93.02077       	92.795         	92.76086       	92.81833       	93.833305      	93.16584       	93.160645      	93.66164       	93.66475       	93.64015       	93.65243       	93.821625      	93.231064      	
94.53864       	94.77673       	94.468735      	94.36673       	94.10571       	94.222015      	94.22393       	93.9651        	93.79895       	93.54558       	93.78089       	94.05652       	93.78863       	93.72656       	93.64401       	93.89357       	93.61922       	93.80697       	93.18836       	92.91684       	92.64949       	92.63929       	92.13716       	92.263916      	92.21817       	92.56535       	92.78642       	93.259155      	93.06596       	93.0606        	93.468414      	93.281906      	93.21029       	93.567764      	93.78          	93.33597       	93.780685      	93.19508       	93.36487       	93.42442       	93.10695       	93.31652       	93.66462       	93.20057       	93.01244       	93.60816       	93.23129       	93.26478       	93.138374      	92.97855       	93.85251       	93.68183       	93.36115       	93.59211       	93.610275      	93.356445      	93.635414      	93.91196       	94.50389       	94.60826       	94.33468       	94.426796      	93.9052        	93.759636      	93.76997       	94.155754      	94.10997       	93.23929       	93.51899       	93.6277        	93.992355      	93.889084      	94.02754       	93.85036       	93.82236       	93.97918       	94.069916      	94.43936       	94.37469       	93.78167       	93.98925       	93.9552        	93.380035      	93.05903       	93.12415       	93.0539        	93.08024       	93.209274      	93.18065       	93.188324      	93.079025      	93.438095      	93.69588       	94.21336       	93.916374      	93.547516      	93.509476      	92.78433       	93.664665      	93.77475       	
94.273735      	94.3299        	94.12118       	93.77668       	94.05974       	94.16198       	94.06037       	93.9651        	93.83947       	93.48797       	93.464584      	93.33623       	93.13205       	93.266754      	93.59931       	93.62272       	93.46565       	94.17709       	93.97819       	93.532745      	93.16973       	92.42162       	92.702965      	93.25725       	93.08918       	93.00086       	92.94207       	93.23267       	93.413994      	93.11762       	92.968834      	93.11595       	93.08355       	92.896904      	93.29696       	93.38264       	93.51156       	93.102165      	93.48865       	93.09154       	93.302505      	93.39934       	93.36051       	93.517975      	93.414024      	93.33116       	93.26501       	93.30743       	94.219604      	93.74875       	93.249146      	93.48913       	93.15883       	93.12818       	93.178375      	93.235344      	93.14371       	94.11546       	94.43271       	95.23488       	95.13867       	94.57789       	94.56144       	94.7621        	94.58911       	94.33248       	94.2537        	94.03677       	94.10669       	93.92773       	94.147         	93.84981       	94.141075      	93.93118       	94.22892       	94.077034      	93.87524       	93.92768       	93.99055       	94.02961       	94.028404      	94.11991       	93.97057       	93.613716      	93.308334      	93.47368       	93.34481       	93.09732       	93.360176      	93.71814       	93.61651       	93.89389       	93.70204       	93.577515      	93.70405       	93.51556       	93.69493       	93.98918       	94.030876      	93.53362       	
93.06142       	93.10725       	93.33571       	93.215744      	93.04027       	93.20435       	93.49328       	93.811615      	93.687675      	93.44168       	93.82758       	94.22415       	94.0324        	94.01417       	93.30159       	93.27701       	93.5595        	93.561775      	93.81597       	93.36532       	92.82          	93.039474      	92.930756      	92.69738       	93.25023       	93.78655       	93.49064       	93.644684      	93.65639       	93.36938       	93.96182       	93.70088       	93.481285      	93.613266      	93.22997       	93.56048       	93.584526      	93.45124       	93.34087       	93.74678       	93.948944      	93.68193       	93.378784      	93.158455      	93.29943       	93.34683       	93.15428       	93.05643       	93.02796       	92.93426       	93.56424       	93.732864      	93.37285       	93.0914        	92.81681       	92.84946       	92.98418       	93.28758       	93.51448       	94.361465      	94.850235      	94.473274      	94.17314       	94.47769       	94.964325      	94.64387       	94.35759       	94.24564       	94.46016       	94.50216       	94.22871       	94.13932       	94.61618       	93.96219       	93.69933       	93.847694      	93.677704      	93.83106       	94.37094       	94.57305       	94.49388       	95.015656      	94.237236      	93.6464        	93.51773       	93.88713       	93.39255       	93.42197       	93.57634       	93.4156        	92.7018        	92.91729       	93.045         	93.14479       	93.39395       	93.21266       	92.842         	93.15304       	93.25072       	92.86133       	
94.09209       	94.182785      	94.19866       	94.231895      	94.25776       	94.13537       	94.25347       	93.84146       	93.45243       	93.10136       	93.22551       	93.195854      	93.77345       	93.57475       	93.68228       	93.64885       	93.84925       	93.772934      	93.912766      	93.74137       	93.3506        	93.384476      	93.32177       	92.71908       	93.20031       	93.35055       	92.98683       	92.67688       	92.91231       	92.51302       	92.80341       	92.793655      	92.74882       	93.263985      	92.86561       	92.967705      	93.41408       	93.60291       	93.17199       	93.389404      	93.2379        	93.24751       	93.15011       	93.318344      	93.242966      	93.320724      	93.79794       	93.907036      	93.66438       	93.63151       	93.44919       	93.55781       	93.39263       	93.48172       	93.53035       	93.10746       	92.913345      	93.805984      	93.71379       	93.98138       	94.37415       	94.02569       	93.88866       	94.20364       	94.273384      	93.955734      	93.81674       	93.87823       	93.97615       	93.749504      	93.57971       	93.72777       	93.2305        	93.68641       	93.93806       	94.190384      	94.1012        	93.81221       	93.88159       	93.86702       	94.00353       	94.37264       	93.68095       	93.38005       	93.00638       	92.74618       	92.87901       	93.04488       	93.40484       	93.60148       	94.09619       	93.880745      	93.69927       	93.68921       	93.53193       	93.58406       	93.894196      	93.35052       	93.07818       	92.867516      	
93.25156       	93.6984        	93.69124       	93.622505      	93.75695       	93.699165      	94.27478       	93.84561       	93.51683       	93.86917       	93.70826       	93.82912       	93.7148        	94.07054       	94.413345      	94.40993       	94.88848       	94.84065       	94.57531       	94.0445        	94.048515      	93.76608       	93.28519       	92.845665      	93.260544      	92.92927       	93.3293        	93.04179       	92.89587       	93.49053       	93.252914      	92.95845       	93.59551       	93.79013       	93.64794       	94.12125       	94.283585      	93.616         	93.45126       	93.45305       	93.21516       	93.163345      	93.28129       	93.542114      	94.17969       	94.09155       	93.959175      	93.80096       	93.96669       	93.329346      	93.59382       	93.790436      	93.76606       	93.51977       	93.74732       	93.21053       	92.6152        	93.29631       	93.92631       	94.14896       	94.77227       	94.26923       	94.22657       	94.00565       	94.14882       	93.93104       	94.10514       	93.65195       	94.35259       	94.335365      	94.4526        	94.06904       	94.098915      	93.69465       	93.64011       	93.5481        	93.648155      	93.61075       	94.00691       	93.59356       	93.95293       	94.1148        	93.85548       	93.46612       	93.183365      	93.60196       	93.17416       	93.353424      	93.132095      	93.26201       	93.082146      	93.415375      	93.64485       	93.29638       	93.25914       	93.10791       	93.04393       	93.45039       	93.726105      	93.52509       	
93.6209        	93.24893       	93.41605       	93.57423       	93.55873       	93.87654       	93.72031       	93.4169        	93.480255      	93.70198       	93.78291       	94.35699       	93.83085       	94.276535      	94.19141       	94.395706      	94.194626      	94.11987       	94.053986      	93.70805       	93.68236       	93.2881        	93.26631       	93.36393       	93.31418       	93.09657       	93.4441        	93.55389       	93.544586      	93.56998       	93.64821       	93.33963       	93.50909       	93.40503       	93.375404      	93.75677       	93.349014      	93.238396      	93.31064       	93.08517       	93.289116      	93.837654      	93.68653       	93.84052       	93.853035      	93.90306       	93.785126      	93.893936      	94.1045        	93.77719       	94.01673       	94.244545      	93.83261       	93.698074      	93.83497       	93.61296       	93.647964      	93.64494       	94.22472       	94.47723       	94.837296      	94.794395      	94.673134      	94.513664      	94.53941       	94.03706       	94.48023       	94.32739       	94.52059       	94.25556       	94.38341       	94.20222       	94.03209       	94.268295      	94.606674      	94.25605       	94.1468        	94.203255      	94.106064      	93.68925       	93.345795      	93.84533       	93.91837       	93.14814       	92.996635      	93.39363       	92.82451       	92.62263       	93.01587       	93.22812       	93.28901       	93.044174      	93.363754      	93.402794      	93.1805        	93.32266       	93.71944       	93.59102       	93.78092       	93.77294       	
94.29379       	93.97241       	93.817924      	93.77528       	93.72403       	93.669106      	93.5191        	94.35723       	93.9919        	93.84239       	93.97816       	93.82982       	93.96786       	93.9037        	93.87024       	93.659904      	93.55295       	94.279366      	93.732414      	93.48778       	93.760895      	92.89404       	93.321175      	93.504135      	93.58809       	93.7737        	93.47719       	93.000404      	92.9272        	93.193         	93.26308       	93.34386       	93.50347       	93.29709       	93.30208       	93.49867       	94.020996      	93.604645      	93.57936       	93.69121       	93.49857       	93.7915        	93.5088        	93.36054       	93.22411       	93.26714       	92.90026       	93.26556       	93.471596      	93.07655       	93.34318       	93.47688       	92.513794      	93.04122       	92.90234       	92.98699       	92.8899        	93.185844      	93.17667       	93.67008       	93.96867       	94.128         	94.11979       	94.060844      	93.67168       	93.604416      	93.62223       	93.4157        	93.932976      	93.95765       	93.3529        	93.85821       	94.09058       	93.570465      	93.71136       	93.76819       	93.96524       	93.496956      	93.6709        	93.77209       	93.83818       	94.05827       	94.246895      	94.10885       	93.207886      	93.229774      	93.442375      	93.33182       	93.26714       	93.24503       	93.45564       	93.44597       	93.76503       	93.91919       	93.559006      	93.29103       	93.38227       	93.319466      	93.71935       	94.36644       	
93.85563       	94.02568       	93.95798       	93.713875      	93.31404       	93.6388        	93.89595       	94.026566      	94.494415      	94.695595      	94.17211       	93.97812       	94.24234       	93.889786      	94.0492        	93.82452       	93.71156       	93.85849       	94.33354       	94.40225       	93.90955       	93.787506      	93.47346       	93.00389       	93.0881        	92.89603       	93.64022       	93.4544        	93.61853       	93.33158       	93.9869        	93.61978       	93.549515      	93.88659       	93.9898        	94.06864       	94.373695      	94.05842       	93.740875      	93.71324       	93.707146      	93.07804       	93.26237       	93.55397       	93.57079       	93.31951       	93.734375      	93.71312       	94.05069       	93.61617       	93.230225      	93.32747       	93.506874      	93.20143       	93.32723       	93.466255      	93.38957       	93.43958       	94.030685      	93.85709       	94.13387       	94.336914      	94.70072       	94.60522       	94.655365      	94.929855      	94.31153       	94.00874       	93.67647       	93.39583       	93.48233       	93.55999       	93.49022       	93.474724      	93.56197       	94.06203       	94.006546      	93.703         	93.517494      	93.514084      	93.914185      	93.93888       	93.73064       	93.65299       	92.915565      	93.007256      	93.45269       	93.33277       	92.97464       	92.725464      	92.79803       	92.79273       	93.05234       	93.16338       	93.39552       	93.32413       	93.32735       	93.21059       	93.51099       	93.95415       	
93.87919       	93.62989       	93.57511       	94.000656      	94.038376      	94.2008        	93.9013        	93.60059       	93.66964       	93.802734      	93.563934      	93.7526        	93.54142       	93.878334      	93.88331       	94.04768       	93.82155       	93.99202       	93.642654      	93.29112       	93.68245       	93.10233       	93.05412       	93.18381       	93.21924       	93.304596      	93.487595      	93.460976      	93.35339       	93.37496       	93.59593       	93.661545      	93.47164       	93.02219       	93.29377       	93.159744      	93.27259       	93.62316       	93.506454      	94.15386       	94.20634       	93.86515       	93.77878       	94.036385      	93.81912       	93.87824       	93.97824       	94.109985      	94.17369       	93.98104       	94.32934       	93.96706       	93.87248       	93.574234      	93.62687       	93.26534       	92.96675       	93.18688       	93.13831       	93.51013       	93.76051       	94.33484       	94.18574       	93.96889       	93.93568       	94.24178       	93.903206      	93.81131       	93.81387       	93.60969       	93.29662       	93.266655      	93.5122        	93.753365      	93.43684       	93.39741       	93.63631       	93.85755       	93.09223       	93.167656      	93.25178       	92.79715       	93.09901       	93.104904      	92.88078       	92.813446      	93.19587       	92.940674      	92.92574       	92.880684      	93.00306       	92.88536       	93.2721        	93.09473       	93.37252       	93.56402       	93.379654      	93.62023       	93.78618       	93.56177       	
93.31093       	93.442         	93.893814      	94.13921       	93.84987       	94.08338       	94.23447       	94.16552       	93.69953       	93.57715       	93.60867       	93.59783       	93.89498       	93.700264      	93.41635       	93.693306      	93.41008       	93.24767       	93.02239       	93.015045      	92.78996       	92.878716      	92.35711       	92.09887       	92.29109       	91.98863       	92.67261       	93.1722        	92.86192       	92.43385       	92.72928       	92.70269       	92.69487       	93.03345       	93.02386       	92.96272       	93.19394       	93.02817       	92.704636      	92.910576      	93.59624       	93.53976       	93.79297       	93.483574      	93.26173       	93.61684       	93.14357       	93.28687       	93.402916      	93.01831       	92.961266      	93.11377       	93.01488       	93.359566      	93.42874       	93.1624        	93.246414      	93.621414      	93.53255       	93.65742       	94.43328       	94.63391       	94.50228       	94.574135      	94.472946      	94.33044       	94.086914      	93.99435       	93.95607       	94.3302        	94.08155       	94.08244       	93.64731       	93.38844       	93.81673       	94.25748       	93.50235       	93.86899       	93.82985       	93.79793       	93.73824       	94.07804       	93.672226      	93.81429       	94.35036       	93.92276       	94.048935      	94.027725      	94.05838       	93.71366       	93.485725      	93.96898       	93.78108       	94.18281       	93.906525      	93.69156       	93.88551       	93.749466      	93.66203       	94.33314       	
93.196         	93.4287        	93.53662       	93.201225      	92.86535       	93.532646      	94.07457       	93.461075      	93.83057       	94.284386      	93.66827       	93.47796       	93.68016       	93.43727       	93.06322       	93.3398        	93.47369       	93.69284       	93.80647       	93.72604       	93.64867       	92.93045       	92.57471       	92.80889       	92.50793       	92.4181        	92.33646       	92.06974       	91.9943        	92.084015      	92.56337       	92.82313       	92.61323       	93.01359       	93.10067       	92.931206      	93.12132       	93.687004      	93.28914       	92.85129       	92.88951       	93.405075      	93.51717       	93.54549       	93.53458       	93.44486       	93.33911       	93.20893       	93.41816       	93.57049       	92.929276      	93.49102       	93.49069       	93.33405       	93.32936       	93.999664      	93.57753       	93.37735       	93.563446      	93.647095      	93.97613       	94.11454       	94.26956       	94.09167       	93.81886       	94.015884      	94.43429       	94.51177       	94.42134       	94.57267       	94.44289       	94.118484      	94.557846      	94.47808       	94.383736      	94.12024       	93.96094       	94.50501       	94.863976      	94.50738       	94.52218       	94.560394      	94.11191       	93.601425      	94.16786       	94.06741       	93.7974        	93.44754       	93.857925      	93.48534       	93.55205       	93.647705      	93.71188       	94.233315      	93.43505       	93.724594      	93.78932       	93.887825      	93.76122       	94.468346      	
93.33238       	93.38039       	93.477486      	93.553764      	93.51323       	93.486626      	93.87526       	94.041626      	94.17323       	94.44388       	93.6084        	93.26979       	93.66342       	93.81418       	93.410164      	94.18409       	93.87464       	93.726494      	94.22608       	93.69051       	93.583855      	93.96289       	93.10949       	92.99475       	93.04988       	93.14604       	93.07282       	93.01883       	92.62698       	92.87938       	92.85843       	93.02002       	92.75572       	93.33912       	92.88426       	92.57182       	93.07822       	93.433395      	93.004036      	93.23092       	93.25879       	93.12531       	92.975555      	93.471886      	93.77739       	93.7093        	93.3553        	93.48295       	93.83382       	93.56245       	92.86304       	93.71589       	93.21005       	92.58406       	92.55944       	92.56616       	92.68415       	92.86209       	93.00682       	93.330864      	93.63533       	93.76507       	93.7148        	93.87692       	93.634575      	93.85784       	93.90425       	93.60094       	93.475204      	93.55805       	93.821304      	93.66535       	93.898445      	93.72133       	94.00724       	93.78973       	93.74448       	93.73129       	93.69226       	93.47926       	93.79552       	94.510376      	94.426796      	93.93656       	94.18458       	94.2614        	93.77298       	94.13061       	94.19472       	93.595634      	93.542854      	94.17323       	93.44873       	93.81744       	93.86084       	93.70243       	93.78356       	93.83052       	93.50058       	93.756355      	
93.32039       	93.47831       	93.49509       	93.7867        	93.82797       	94.08842       	93.80997       	93.57209       	93.68183       	93.79487       	93.61313       	93.376305      	93.6536        	93.295334      	93.59533       	93.850876      	93.3619        	93.4252        	93.696625      	93.40233       	93.44716       	93.31013       	92.73345       	92.31648       	93.15805       	92.88098       	93.14324       	93.82874       	93.96036       	93.81522       	93.45257       	94.00522       	94.16569       	94.217705      	93.869026      	93.79346       	93.74598       	93.36743       	93.225784      	93.3777        	93.18787       	93.89134       	93.81438       	93.260124      	93.52725       	93.227295      	92.99672       	93.10191       	92.73336       	92.78919       	93.11567       	92.9247        	92.72336       	92.25385       	92.491425      	92.462006      	93.02196       	92.67528       	92.79057       	93.379395      	93.56693       	93.63806       	93.73723       	93.36059       	93.58046       	94.01126       	93.80859       	93.65987       	93.49354       	93.488785      	93.45595       	93.74418       	94.38087       	94.0415        	94.32734       	94.23631       	93.78785       	94.16253       	94.241486      	93.89967       	94.02405       	94.08581       	93.6888        	93.92548       	93.905464      	94.04921       	93.89156       	93.73573       	93.57442       	93.81154       	93.95048       	93.2691        	93.84862       	93.90053       	93.98626       	94.1112        	94.096344      	93.65832       	93.579926      	94.180984      	
93.89979       	94.01566       	93.838455      	93.77325       	93.943085      	93.71221       	93.51778       	93.60938       	93.89157       	93.50174       	93.6174        	93.1906        	93.55849       	93.5594        	93.01376       	93.179565      	93.146454      	93.02862       	93.67121       	93.57912       	93.90971       	93.916824      	93.31065       	93.29339       	93.153244      	92.69305       	91.997185      	92.812454      	92.42392       	92.54198       	93.16288       	93.17257       	92.75131       	93.03263       	92.70707       	92.56955       	92.42912       	92.414764      	92.54589       	93.07996       	93.10414       	92.65641       	93.22938       	93.173996      	92.91938       	93.14757       	93.4513        	92.92553       	92.914665      	93.47583       	93.103386      	93.24942       	93.54887       	93.43022       	93.13874       	92.99924       	92.80561       	92.88594       	92.93514       	92.676926      	93.01606       	93.42083       	93.87796       	93.85751       	94.20764       	93.648636      	94.10692       	94.21924       	93.882355      	94.19207       	94.39769       	94.425095      	94.178986      	94.393845      	93.88256       	93.8404        	93.729416      	93.54012       	94.17071       	93.31274       	93.181305      	93.50507       	93.55092       	93.26409       	93.60137       	93.65111       	93.86594       	93.9926        	93.49754       	93.5004        	93.66093       	93.47795       	93.85814       	93.63514       	93.344185      	93.650276      	94.00837       	93.67594       	94.05687       	94.403114      	
93.74521       	93.86002       	93.93434       	93.988174      	94.22358       	93.579575      	93.36593       	93.92821       	93.676025      	93.72586       	93.93486       	94.21254       	94.1503        	94.23556       	94.205246      	93.898834      	93.87275       	93.837326      	93.25849       	93.70442       	93.8263        	93.62704       	93.3047        	93.10355       	93.119705      	92.8005        	92.81414       	92.941696      	92.909966      	93.242096      	93.37179       	93.542         	93.154816      	93.08947       	93.78863       	93.4466        	93.39281       	93.73247       	93.98572       	93.502495      	93.400925      	93.51783       	93.551346      	93.8498        	93.67406       	93.5179        	93.74841       	93.78226       	93.569786      	93.55156       	93.50274       	93.30566       	93.22757       	93.67325       	93.88178       	93.91279       	93.89267       	93.63221       	93.24744       	93.210815      	93.70992       	94.07028       	94.546036      	94.43256       	93.92597       	93.87436       	93.912346      	93.90874       	93.888565      	93.99849       	93.49491       	94.09648       	93.37602       	93.43122       	93.7289        	93.705894      	93.176544      	93.84899       	94.01721       	93.92029       	94.091255      	94.292564      	93.97713       	93.598236      	93.948364      	93.771255      	94.04996       	93.948975      	93.6014        	93.57092       	94.22912       	93.77055       	94.0561        	94.120865      	94.14209       	93.83916       	93.5184        	93.6163        	94.17925       	93.8046        	
93.64424       	93.81737       	93.59942       	93.529854      	93.42314       	93.69759       	94.33646       	94.01396       	93.63867       	93.77796       	94.206505      	93.870346      	93.725555      	93.72712       	93.60632       	93.67006       	93.30847       	93.500114      	93.55384       	93.3542        	93.74182       	94.09672       	93.56873       	93.104324      	93.76306       	93.48815       	93.07369       	93.187164      	93.09663       	93.36884       	93.2258        	93.33205       	93.59337       	93.32551       	92.743286      	93.37459       	93.60198       	92.89584       	92.8388        	93.11658       	93.133736      	92.82213       	92.947495      	93.38843       	92.967255      	93.231186      	93.35882       	93.662         	93.247314      	93.3318        	93.70566       	93.81182       	93.71235       	93.46305       	93.736565      	92.59639       	93.03158       	93.38823       	93.21766       	92.973724      	93.38477       	93.72625       	94.00444       	94.40976       	94.59279       	94.5048        	94.31323       	94.25517       	94.32474       	93.71582       	93.28197       	93.76824       	94.198         	93.69659       	94.03712       	94.18993       	94.30139       	94.132065      	93.95174       	93.74667       	93.25906       	93.18183       	93.09865       	94.083145      	93.71441       	94.13374       	94.29781       	93.89279       	93.82905       	94.212654      	94.338486      	94.23084       	94.03413       	94.15279       	94.49165       	94.01971       	94.26111       	94.48485       	94.018295      	93.91515       	
92.853035      	93.39654       	93.30788       	93.04578       	92.97386       	93.347374      	93.43873       	92.924736      	93.10395       	93.511856      	92.86651       	93.24046       	93.478836      	93.336586      	93.26465       	93.1397        	93.402176      	93.857254      	93.73154       	94.036736      	93.78321       	93.72566       	93.49445       	93.73918       	93.03895       	92.52182       	92.825226      	93.00989       	93.08154       	93.368126      	93.466644      	92.72957       	93.077484      	92.98474       	92.85791       	93.14537       	93.514854      	93.065155      	93.681114      	93.8305        	93.59584       	93.71028       	93.42509       	93.21338       	93.17846       	93.63012       	93.76046       	94.16419       	93.81721       	93.68417       	93.859116      	94.07368       	93.73466       	94.10421       	93.42606       	93.562225      	93.9597        	93.49515       	93.46107       	93.446655      	93.394165      	93.70263       	94.25246       	94.52271       	94.56078       	94.40226       	94.1532        	93.882866      	93.87317       	93.89177       	94.140015      	94.19567       	94.238174      	94.08327       	93.81194       	94.09002       	93.666435      	93.457596      	93.30419       	93.722466      	93.20216       	93.0487        	93.33864       	94.01762       	93.734215      	93.419266      	93.7851        	94.04355       	93.71204       	93.41204       	93.537224      	93.98272       	93.55636       	94.051765      	93.54399       	93.00048       	93.458855      	93.16291       	92.90455       	93.28076       	
92.95996       	93.19302       	93.16603       	93.31909       	93.67777       	93.990005      	93.36036       	93.45232       	93.503746      	93.20677       	93.657         	93.99622       	93.73893       	94.009766      	94.101944      	93.31093       	93.52181       	93.56923       	93.35975       	93.62057       	93.49593       	92.86028       	92.66581       	92.1582        	91.866165      	92.13942       	91.926765      	92.14595       	92.56695       	92.75914       	92.56639       	92.86378       	93.04032       	92.70808       	92.97709       	93.37206       	92.79659       	93.37598       	93.491905      	92.95098       	93.02385       	92.88254       	92.29855       	92.60767       	92.98693       	92.89719       	92.78959       	92.73844       	92.65805       	93.04135       	93.266655      	93.49227       	93.63313       	93.22335       	93.37467       	93.27857       	93.43786       	93.65097       	93.7546        	93.34848       	92.92691       	92.55455       	93.17269       	93.734375      	93.18591       	92.79704       	92.62114       	92.80158       	93.17437       	93.806625      	93.52026       	94.159836      	93.903336      	93.81878       	94.05303       	94.131966      	93.67198       	93.952545      	94.06585       	93.79342       	93.87239       	93.838005      	93.49951       	93.49899       	93.67025       	93.82547       	93.35446       	93.660416      	93.219986      	93.60324       	93.76124       	93.575485      	94.24445       	94.06326       	93.40938       	93.40822       	93.854996      	93.88099       	93.849434      	94.05138       	
93.90453       	94.03905       	93.86353       	93.56314       	93.483246      	93.43565       	93.956696      	93.738884      	93.908165      	94.059814      	93.267265      	93.32739       	93.72555       	93.59871       	93.708084      	94.07066       	93.97489       	94.27611       	94.270065      	93.95119       	93.686485      	93.90592       	93.67757       	93.375786      	93.33163       	92.90052       	92.493645      	92.71587       	93.173836      	93.53476       	93.10951       	93.182144      	93.018585      	92.752525      	92.61653       	92.92744       	93.00031       	92.732056      	92.542496      	93.40819       	93.25309       	93.05722       	93.11142       	92.89311       	93.096436      	93.43348       	93.33605       	93.50687       	94.09321       	93.88382       	93.46085       	93.70231       	93.598274      	93.5964        	94.124626      	93.67          	93.30034       	93.48934       	93.47225       	93.18083       	93.93106       	94.293175      	94.184135      	94.39848       	94.60416       	94.27565       	94.02194       	94.181305      	94.3649        	94.33589       	94.76911       	94.489365      	94.74805       	94.65426       	94.50937       	94.73751       	94.030396      	93.90347       	93.69626       	94.03973       	93.78004       	93.75399       	93.51823       	93.30196       	93.389084      	93.08887       	93.207146      	93.39867       	93.517136      	93.67486       	93.82697       	93.55477       	93.300606      	94.15922       	94.39357       	93.79639       	94.07759       	93.95592       	93.857124      	94.231766      	
94.15903       	93.43827       	93.65073       	93.75981       	94.04479       	94.31318       	93.65026       	93.88539       	93.70296       	93.66748       	93.92976       	93.99352       	93.605354      	93.75163       	94.06596       	93.211716      	93.664566      	93.763985      	93.6628        	93.79301       	93.81091       	93.35692       	93.95009       	93.78809       	93.387344      	93.051476      	93.21235       	93.09949       	93.12794       	92.91593       	92.758575      	93.20085       	93.54703       	93.81489       	94.34054       	93.46264       	93.15235       	93.15548       	93.18135       	93.57457       	93.24096       	93.226074      	93.53427       	93.79069       	93.579094      	93.32734       	93.44276       	92.86751       	93.35118       	93.48413       	93.59425       	93.35155       	93.289635      	93.544174      	94.14221       	94.30432       	94.25517       	94.50053       	94.63779       	94.33086       	94.36          	93.82331       	93.3267        	93.8516        	93.94777       	94.0753        	94.36918       	94.08458       	93.652016      	93.73062       	93.8094        	93.25565       	93.00054       	93.0097        	92.7966        	93.186165      	93.24112       	93.59962       	93.12613       	93.34174       	93.9179        	93.715164      	93.834015      	93.52295       	93.513756      	93.30083       	93.31047       	93.17091       	93.30816       	93.13718       	93.32177       	93.567345      	93.5482        	93.48481       	92.97887       	92.83683       	92.520294      	92.58098       	92.91977       	92.996994      	
93.80911       	93.95907       	94.19585       	94.18753       	93.74003       	93.36777       	93.587776      	93.81665       	93.8179        	94.15128       	94.00978       	93.97789       	93.76522       	93.19787       	93.538315      	93.29896       	93.57862       	93.37918       	93.209175      	93.53509       	93.8109        	94.47533       	94.39246       	93.724335      	93.7644        	93.648445      	93.21302       	93.1488        	93.850655      	93.35997       	93.57926       	93.64273       	93.40353       	93.638824      	93.80826       	93.785484      	94.05376       	93.22009       	93.34942       	93.14814       	93.253296      	93.62444       	93.97574       	94.46557       	94.30949       	94.31337       	94.64476       	93.86267       	93.962555      	93.98583       	94.12777       	94.0679        	94.308334      	94.22974       	93.86644       	93.68285       	93.890884      	94.32731       	93.67128       	93.580826      	93.88527       	93.88023       	93.848595      	93.96479       	93.69076       	93.69595       	93.80561       	94.218575      	94.36462       	94.410065      	94.13486       	93.85393       	94.15056       	94.09177       	93.99211       	94.242134      	93.775894      	93.89401       	94.34342       	94.17009       	93.74065       	93.61523       	93.98758       	93.39632       	93.41752       	93.64778       	93.38054       	93.26954       	93.196396      	93.43767       	93.88653       	93.31932       	93.338425      	93.74468       	93.17211       	93.41244       	93.47839       	93.5061        	93.947754      	93.991325      	
93.58418       	93.55806       	93.496445      	93.25906       	93.280556      	93.60848       	93.422066      	93.63392       	93.44939       	93.304756      	92.98425       	93.59773       	93.64747       	93.972984      	94.33517       	94.053535      	94.020355      	93.986786      	93.71981       	93.67471       	94.0324        	93.451675      	93.899666      	93.93104       	93.89903       	93.39864       	93.25985       	93.08163       	92.982254      	93.7179        	93.77619       	93.59996       	93.57364       	93.337074      	93.24765       	93.574135      	93.88746       	93.781006      	93.98738       	93.507324      	93.74032       	93.63781       	93.64385       	93.878105      	94.36413       	94.26732       	93.83342       	93.830864      	94.16568       	93.86857       	93.81269       	94.31802       	94.232544      	93.831955      	93.53925       	93.74          	93.534454      	93.25996       	93.16243       	93.5009        	93.52665       	93.01387       	92.866104      	93.57586       	93.88607       	93.290436      	93.02274       	93.33216       	93.2186        	93.36438       	93.76458       	93.53585       	94.130585      	93.67961       	93.44848       	93.72893       	93.693436      	93.39575       	93.204796      	93.78293       	94.143105      	94.12416       	93.88961       	93.55519       	93.81817       	93.709885      	93.520905      	93.82093       	93.62085       	93.20561       	93.24254       	93.62557       	93.46209       	93.68481       	93.58406       	93.477905      	93.63033       	93.565384      	93.41214       	93.26774       	
93.91463       	93.55847       	93.33093       	93.26721       	93.48892       	94.01623       	93.54571       	93.84823       	93.86513       	93.86075       	93.94624       	93.523895      	93.81319       	93.89101       	93.474434      	93.3788        	93.21263       	93.64143       	93.46081       	93.678635      	94.145355      	93.84254       	94.50062       	94.110016      	93.24923       	93.447395      	93.03254       	92.94955       	93.23567       	93.23361       	93.21553       	93.36849       	93.50968       	93.90543       	93.80692       	94.180504      	94.01946       	94.24863       	94.37456       	94.05781       	94.16312       	94.432076      	94.440765      	94.370575      	94.38207       	94.20611       	94.67758       	94.662926      	94.160774      	93.69842       	93.80559       	93.72949       	93.574585      	94.23515       	93.878334      	93.52357       	93.63756       	92.96959       	93.11512       	93.25382       	93.232895      	93.43806       	93.34328       	93.07516       	93.3429        	92.72584       	92.56273       	93.465805      	93.11561       	92.97485       	93.45578       	92.939896      	93.53975       	93.60225       	93.244354      	93.83196       	93.66708       	93.68644       	93.452354      	93.82559       	93.75001       	93.27107       	93.49517       	93.782974      	93.546135      	93.74993       	93.249916      	93.42831       	93.532455      	93.553185      	93.68314       	93.34457       	93.21317       	93.08057       	93.47735       	93.60544       	93.50068       	93.69062       	93.87688       	93.418785      	
93.50444       	93.17719       	93.07559       	93.43921       	93.99898       	93.57631       	93.20226       	93.22853       	93.898994      	93.727135      	94.06921       	93.72819       	93.72285       	94.23094       	93.96861       	94.06673       	94.05592       	93.59895       	93.63799       	94.11584       	93.6016        	94.00443       	94.441376      	94.409904      	94.1758        	94.152824      	93.87935       	92.844795      	93.72497       	93.60559       	92.75556       	93.6283        	93.52208       	93.78718       	94.19207       	93.75654       	93.33006       	93.83276       	93.67013       	93.52465       	94.177284      	93.966644      	93.54103       	93.8861        	94.102615      	94.63002       	94.45633       	94.350746      	94.01086       	93.9851        	93.91324       	93.69212       	93.769135      	93.915985      	93.816666      	93.781876      	93.82613       	93.802605      	93.81505       	93.61659       	93.53784       	93.72507       	93.8487        	93.67314       	93.62271       	93.83556       	93.59831       	93.74275       	93.70417       	94.0359        	94.08184       	93.70276       	93.79975       	94.28157       	93.460884      	93.95825       	94.15412       	93.871124      	94.13101       	93.81951       	93.88595       	94.25479       	93.6125        	93.665565      	93.76791       	93.621475      	93.889946      	94.38579       	94.20712       	93.91911       	94.101814      	94.21862       	93.87558       	93.996895      	93.9008        	93.67209       	93.49304       	93.60425       	93.39869       	93.590324      	
93.74736       	93.96139       	93.78788       	93.344         	93.134964      	93.30457       	93.33785       	93.21394       	93.31279       	93.97643       	93.882286      	93.71529       	93.247185      	93.65259       	93.56546       	93.55368       	93.34919       	93.506516      	93.479935      	93.76135       	93.51099       	93.31945       	93.74029       	93.923004      	93.93535       	93.30645       	93.611534      	93.56872       	93.49874       	93.71154       	93.83609       	93.68218       	93.53041       	93.84683       	94.17815       	94.21453       	94.1092        	94.163925      	93.72906       	93.6013        	93.66696       	93.86189       	94.14958       	94.1976        	93.314384      	93.079956      	93.53561       	93.338425      	93.2712        	92.71192       	92.85908       	93.41135       	93.38177       	93.717964      	93.783516      	93.46094       	92.92896       	93.16166       	93.18514       	92.87667       	93.101364      	93.60739       	93.694534      	93.57616       	93.84574       	93.90594       	93.67506       	93.366585      	93.64986       	93.62955       	93.248886      	92.99283       	93.04566       	93.350555      	93.15721       	93.635         	93.552666      	93.3867        	93.17178       	93.299225      	93.34999       	93.27265       	93.11923       	93.76168       	93.8706        	93.70733       	94.32296       	93.84716       	93.68404       	94.13567       	93.485886      	94.010704      	93.72322       	93.45793       	93.247734      	93.856575      	93.493515      	93.45353       	93.76522       	93.834755      	
93.77971       	93.62867       	93.77465       	93.760185      	93.79754       	93.68476       	93.50232       	93.74797       	93.96336       	93.569534      	94.40848       	94.402664      	93.79911       	93.99405       	94.09272       	93.562096      	93.42109       	93.81733       	93.577034      	93.807976      	93.7371        	93.804825      	94.125565      	94.09549       	93.84106       	93.93031       	94.27098       	94.18331       	94.155525      	94.16004       	94.326065      	94.672775      	94.83281       	94.97062       	95.14609       	94.604866      	94.28596       	94.575714      	94.1705        	94.26857       	94.088264      	93.888885      	93.73547       	93.73592       	93.53181       	93.99694       	93.27223       	93.10852       	93.19349       	93.73923       	93.67071       	93.666695      	93.482544      	93.70716       	94.10977       	93.94055       	93.893585      	93.68304       	93.65234       	93.39143       	93.771286      	93.94034       	93.99806       	93.69054       	93.47967       	93.72974       	93.155685      	92.98095       	93.21049       	93.10246       	93.30474       	93.23717       	93.97506       	93.983475      	93.70421       	94.00941       	93.86297       	94.0616        	93.56709       	93.82584       	94.05266       	94.01888       	94.18363       	93.79449       	93.67496       	93.441475      	93.93377       	93.905716      	93.67132       	93.70044       	94.045         	93.93262       	93.38677       	93.64265       	93.81164       	93.88652       	93.230156      	93.25225       	94.09108       	93.75591       	
92.708855      	92.83663       	93.259575      	93.2248        	92.85128       	92.669525      	93.29586       	93.195595      	92.996445      	93.048935      	93.41888       	93.87678       	93.54243       	94.24833       	94.628746      	94.43199       	93.947685      	94.00419       	94.10603       	94.296555      	94.03079       	94.1858        	94.18453       	94.04433       	93.57251       	94.3382        	94.32004       	94.03404       	94.4002        	93.90482       	93.846344      	94.031685      	94.331215      	93.83769       	93.398445      	93.32115       	93.19962       	93.88111       	93.06951       	93.53317       	93.84321       	93.71172       	93.29701       	93.13173       	92.89094       	93.215904      	93.20883       	93.165985      	92.978546      	93.57381       	93.20365       	93.70261       	93.479294      	93.05897       	92.96889       	93.165115      	93.4606        	93.73089       	93.78047       	94.189735      	94.22176       	94.02933       	94.19368       	94.06192       	93.38184       	93.61745       	93.9074        	93.439316      	93.5808        	94.01246       	93.55518       	93.54846       	93.927444      	93.58627       	93.04013       	93.096664      	93.05511       	93.14471       	93.44787       	93.372604      	93.43221       	93.573         	93.34423       	93.79643       	93.64842       	93.97091       	93.52178       	93.869385      	93.99731       	93.909615      	93.75872       	93.34466       	94.03415       	94.13606       	93.93865       	93.641716      	93.52808       	93.27055       	93.50843       	94.30835       	
93.69848       	93.55709       	93.44235       	93.33403       	93.57109       	93.825554      	93.86861       	93.50528       	93.73168       	93.85416       	94.017715      	93.45025       	93.939735      	93.99186       	94.05249       	93.76233       	93.85283       	94.08582       	93.7752        	93.725105      	93.85931       	93.70682       	93.53499       	93.551605      	92.8652        	93.45057       	93.44665       	93.54049       	93.766106      	93.59773       	93.41871       	93.569145      	93.52913       	93.77999       	94.12758       	94.168495      	93.737076      	94.494965      	94.20647       	93.64782       	94.00966       	93.60307       	94.125175      	93.71911       	94.0993        	93.60697       	93.69486       	94.114136      	94.133385      	93.57851       	93.89106       	93.78371       	93.69584       	94.13234       	93.85662       	94.90653       	94.891716      	94.435005      	94.393486      	94.10013       	94.22497       	94.38335       	93.806526      	93.832634      	93.78679       	93.628555      	94.17592       	94.134995      	94.01929       	93.76556       	93.98206       	94.09691       	94.292046      	94.120155      	93.99738       	93.58118       	94.09881       	94.58283       	94.307         	93.92101       	94.0475        	94.16601       	93.80049       	93.979454      	94.051155      	93.76036       	94.03239       	94.23357       	93.75778       	94.189125      	93.858925      	93.61764       	93.91272       	93.6294        	93.502686      	93.75985       	93.92176       	93.965775      	94.30495       	93.70686       	
93.93856       	94.10795       	94.091255      	94.50108       	94.37763       	94.02906       	94.33312       	94.34343       	93.95649       	94.213425      	94.2498        	93.58823       	93.94543       	94.46395       	94.454796      	94.201126      	94.130196      	94.14601       	94.08697       	93.942635      	93.96623       	94.376274      	94.19308       	93.63166       	93.740486      	93.85646       	93.8211        	93.97698       	93.819084      	94.55212       	93.967926      	93.49428       	93.87443       	94.0099        	93.83977       	93.72808       	93.58045       	93.18653       	92.879234      	92.97154       	93.58089       	93.31786       	93.84856       	93.671135      	93.15483       	92.966156      	93.2716        	93.38965       	93.337654      	93.47913       	93.524666      	93.33509       	93.77011       	93.67651       	93.77607       	94.06441       	93.93717       	93.87747       	93.59061       	93.70089       	93.52718       	93.77861       	93.58985       	93.53958       	93.29961       	93.179436      	93.37692       	93.77648       	93.63712       	93.23632       	93.09094       	93.61706       	93.39945       	93.61623       	93.77405       	93.92189       	93.523636      	93.77607       	93.38941       	92.84342       	94.00941       	93.51184       	93.39322       	93.232704      	93.18202       	93.54004       	93.752975      	93.72905       	93.75558       	94.10306       	93.52048       	93.900154      	94.352486      	93.88578       	93.84996       	94.05611       	93.8857        	93.65457       	93.47558       	93.40811       	
93.40917       	93.51106       	93.417244      	93.51037       	93.54621       	93.8311        	93.84118       	93.73824       	94.05968       	94.26954       	94.210785      	94.02846       	93.758995      	94.13024       	94.17844       	94.3091        	94.229866      	93.9064        	94.21364       	94.817184      	94.55954       	94.37305       	93.955376      	94.005         	93.468925      	93.5289        	93.405716      	93.49536       	93.80749       	93.3252        	93.67013       	94.08922       	93.56148       	93.74617       	93.69245       	93.42306       	94.19451       	93.939445      	93.48953       	94.112076      	93.95535       	93.74445       	93.595345      	93.61914       	93.58419       	93.59533       	93.36431       	93.397285      	93.72846       	93.550674      	93.51146       	93.62643       	92.98055       	93.188774      	93.959625      	94.10979       	93.96061       	93.378296      	93.32091       	93.30253       	93.067795      	93.18202       	93.12805       	93.06564       	93.13672       	93.246086      	93.60098       	93.23906       	93.08371       	93.06115       	92.92936       	93.20724       	93.20684       	93.4476        	93.531784      	93.38656       	93.7149        	93.69493       	93.3234        	93.289795      	93.51407       	93.21768       	93.137825      	93.34493       	93.298744      	92.99232       	93.30588       	93.71322       	93.84805       	94.11867       	93.73237       	93.88957       	94.21228       	93.1798        	93.910995      	94.21646       	93.95827       	93.687256      	94.19591       	93.85444       	
93.14066       	93.1805        	93.47287       	93.747086      	93.95752       	93.24999       	93.04773       	93.46951       	93.65214       	93.938324      	94.10957       	94.140144      	94.39922       	94.479645      	93.86784       	93.65225       	93.65893       	94.00848       	93.265625      	94.03665       	94.09949       	93.837036      	93.61878       	93.80664       	94.002945      	93.64526       	93.42357       	93.92897       	93.80474       	94.05518       	93.960464      	94.239395      	94.07598       	93.67934       	93.68994       	93.919716      	94.06336       	94.3002        	93.95596       	93.594696      	93.781456      	93.40775       	93.52493       	93.32121       	93.11422       	93.42354       	93.573784      	93.49956       	93.76359       	94.48615       	93.720245      	94.067825      	94.431755      	93.56325       	93.93556       	94.14786       	93.96835       	93.97517       	93.84071       	93.25426       	93.01036       	93.35369       	93.17737       	93.10878       	93.07194       	93.462654      	93.348946      	93.40418       	93.4123        	93.21241       	93.68705       	93.17471       	93.536705      	93.33166       	93.41283       	93.74804       	93.42513       	93.271126      	93.320564      	93.41487       	93.403656      	93.34757       	93.33724       	93.60547       	93.754425      	93.244736      	93.36366       	93.47704       	93.76111       	93.32893       	93.64546       	93.645454      	93.924065      	93.97847       	93.816055      	93.534225      	93.81025       	93.60926       	94.05298       	94.21986       	
93.22851       	93.28578       	93.50652       	94.07605       	94.25038       	93.90689       	93.54304       	93.66212       	93.96152       	93.99897       	94.2072        	93.76973       	93.64804       	93.9131        	94.15625       	93.84358       	93.81462       	94.11284       	93.55756       	93.62143       	93.73089       	93.59854       	93.11374       	93.2267        	93.700806      	93.51442       	93.51008       	93.79689       	94.099785      	94.152985      	93.39058       	93.662346      	93.704834      	93.271736      	93.47437       	93.707954      	93.62901       	93.61049       	93.194664      	93.592804      	93.615105      	93.45647       	93.8311        	93.61842       	93.335014      	93.27467       	93.402534      	92.92045       	93.03226       	93.2409        	93.726654      	93.1942        	93.0181        	93.0572        	93.40487       	93.06757       	93.13          	93.568344      	93.55669       	93.131645      	93.39621       	93.289185      	93.50216       	93.50772       	93.252205      	93.33412       	93.31215       	93.2545        	93.157555      	93.41827       	93.427826      	93.56694       	93.972         	94.40353       	93.56999       	93.46237       	93.45527       	93.46931       	93.257866      	93.386444      	93.46821       	93.75761       	93.68735       	93.6245        	93.88283       	93.84713       	93.51717       	93.45267       	93.923164      	94.26197       	94.088486      	94.08515       	94.1355        	94.1615        	94.14328       	93.88532       	93.70429       	93.61255       	93.77978       	93.73271       	
94.364655      	94.45973       	94.68734       	94.743195      	94.92802       	94.881836      	94.59484       	94.181885      	94.533676      	94.65056       	94.61667       	93.573746      	93.97281       	94.41459       	94.16695       	93.50762       	93.473175      	93.54691       	93.61842       	93.509         	93.5111        	93.7341        	93.10648       	93.2277        	93.27603       	93.30464       	93.44725       	93.92189       	93.41479       	93.5903        	93.40714       	92.80859       	93.18265       	93.41394       	93.41446       	93.60994       	93.904625      	93.97078       	93.63626       	93.82313       	93.20277       	93.398224      	93.90689       	93.42254       	93.25204       	93.75661       	93.94246       	93.843155      	93.59899       	93.75419       	93.38365       	93.420204      	92.88346       	93.0664        	93.104576      	93.4039        	93.43303       	93.63335       	93.39959       	93.59557       	93.82402       	93.33321       	93.233894      	93.279785      	93.14073       	92.90312       	93.29769       	93.63475       	94.11223       	93.58882       	93.22558       	93.74976       	94.11303       	93.365524      	93.521515      	93.98824       	93.757324      	94.066025      	94.221695      	93.892494      	94.41764       	94.39449       	94.2872        	94.03784       	93.805534      	93.86441       	94.21932       	93.98321       	93.77136       	93.98666       	94.40986       	94.071495      	93.99991       	94.27762       	94.04077       	93.82634       	93.95279       	93.9606        	93.73577       	94.17719       	
93.43963       	93.021614      	92.92871       	93.13829       	93.54145       	93.381905      	92.98705       	93.46198       	93.71475       	92.56405       	93.1121        	93.264786      	93.46912       	93.48709       	93.57033       	93.240585      	93.45389       	93.80102       	93.374725      	93.870476      	93.71671       	93.5494        	93.83363       	93.674355      	93.224335      	93.34281       	93.97639       	93.91084       	93.908806      	94.02368       	94.340225      	93.91745       	93.98914       	93.50281       	93.552         	93.625565      	93.923096      	94.005875      	93.82295       	93.91743       	93.53092       	93.726524      	93.90929       	93.85334       	93.61391       	93.40463       	93.99887       	93.48796       	93.34169       	94.04232       	93.35962       	93.42115       	93.83353       	93.6118        	93.91273       	93.5734        	93.591034      	93.758965      	93.535         	93.55344       	93.55057       	93.297554      	92.751465      	93.416985      	93.30124       	93.11584       	92.9449        	93.643845      	93.419174      	92.82915       	93.54968       	93.7131        	93.552284      	93.71075       	93.72226       	94.41641       	94.15776       	93.827866      	93.444534      	93.444         	93.31939       	93.23194       	93.58089       	93.44764       	93.05108       	93.44606       	93.12575       	92.87186       	93.40032       	93.576126      	93.06197       	92.75415       	92.7242        	92.924         	92.76622       	93.01396       	93.38814       	93.46351       	93.20118       	93.54892       	
93.01964       	93.07076       	93.07784       	93.303116      	93.38065       	93.52327       	93.14825       	92.62883       	93.00984       	93.000206      	92.980255      	93.27953       	93.03174       	92.57593       	93.11093       	93.32098       	92.9593        	93.06243       	93.18743       	93.07771       	93.37653       	92.99067       	93.5121        	93.27632       	93.558624      	93.26936       	93.34014       	93.08095       	92.76246       	93.31182       	93.48058       	93.1243        	93.24376       	92.9126        	92.81312       	93.222786      	93.09547       	92.767494      	92.88484       	92.8983        	92.876434      	92.897354      	93.186874      	93.00156       	93.4073        	93.02725       	92.541855      	92.785         	93.230965      	92.686386      	93.085526      	93.10583       	93.412125      	93.41503       	93.09181       	93.52574       	93.388275      	93.17298       	93.15975       	93.10306       	92.89328       	93.02303       	92.79178       	93.246376      	93.0608        	93.122955      	93.18332       	92.8722        	92.7253        	92.97599       	92.88785       	93.13244       	93.36954       	93.337326      	93.044876      	93.48063       	93.51257       	94.10381       	94.225426      	94.08916       	93.360435      	93.70155       	93.99745       	93.260796      	93.92627       	93.588875      	93.49307       	93.62976       	93.74615       	93.80444       	93.20068       	93.51442       	93.57605       	93.41524       	93.06573       	93.67034       	93.59518       	93.57857       	93.80074       	93.878006      	
93.45752       	93.75274       	93.87082       	93.886314      	94.19943       	93.89637       	93.79765       	93.84244       	93.715836      	93.755615      	93.69181       	93.59525       	93.950226      	93.28462       	92.95827       	92.96087       	93.09929       	93.27808       	92.95992       	93.38403       	92.765305      	93.222336      	93.37305       	93.04385       	93.099045      	93.53307       	93.3827        	93.23154       	93.391914      	93.6781        	93.267525      	93.64164       	93.522285      	93.66479       	93.94191       	93.34417       	93.72794       	93.349495      	94.15506       	93.68498       	93.58452       	93.39429       	93.46864       	93.71479       	93.72637       	93.389984      	93.56027       	93.486725      	93.65663       	93.10133       	93.577354      	93.53226       	93.356285      	93.120834      	93.26469       	93.21696       	92.96231       	93.08545       	93.17692       	92.72555       	92.694244      	92.37302       	92.59026       	92.88892       	92.71699       	92.49585       	92.74089       	93.19488       	92.97222       	92.80699       	93.26185       	93.28514       	93.39627       	93.08562       	93.03651       	93.112045      	93.53679       	93.07868       	93.14171       	93.26329       	93.19978       	93.32726       	93.13464       	93.09192       	93.24806       	92.81741       	93.36133       	93.2966        	92.63897       	92.908646      	93.353584      	93.36836       	93.65016       	93.767624      	93.67543       	93.34806       	93.2859        	93.09915       	92.9492        	92.83986       	
94.11446       	93.9318        	93.48754       	93.42937       	93.863106      	94.2372        	93.89171       	93.59544       	93.7592        	93.70794       	93.63493       	93.66116       	93.89653       	93.804756      	93.51153       	93.47761       	93.68153       	93.46406       	93.58162       	93.721924      	93.59891       	93.818115      	93.52345       	93.85234       	93.586395      	93.57704       	93.51927       	93.93152       	93.831635      	94.07525       	93.50835       	93.196495      	93.48515       	93.071         	93.58336       	93.48909       	93.5238        	93.69381       	93.67826       	93.78885       	93.475876      	93.60688       	93.369675      	93.04433       	93.26832       	93.689735      	93.708336      	93.99586       	93.3488        	93.32531       	93.36617       	93.18758       	93.10566       	93.681305      	93.42365       	93.55999       	93.72841       	93.764         	93.485146      	93.59565       	93.52837       	93.66716       	93.80085       	93.787285      	93.8213        	93.87626       	94.0314        	94.2144        	94.03816       	93.94738       	93.98709       	94.12436       	93.51466       	93.59087       	93.5573        	93.23819       	93.50993       	93.8969        	94.25618       	94.241684      	94.12114       	94.0356        	93.583954      	94.25368       	94.0641        	93.72851       	93.64886       	93.51074       	93.67729       	93.39655       	93.43552       	93.57628       	93.7082        	93.69693       	92.932495      	92.64137       	92.331         	92.81295       	92.7519        	92.68958       	
