# www.neaspec.com
# Scan:	 	AFM
# Project:	 	20251007_PS
# Description:	 	
# Date:	 	10/07/2025 14:36:28
# Scanner Center Position (X, Y):	[µm]	49.66	48.17	 
# Rotation:	[°]	0	 	 
# Scan Area (X, Y, Z):	[µm]	5.000	5.000	0.000
# Pixel Area (X, Y, Z):	[px]	100	100	1
# Averaging:	 	1	 	 
# Integration time:	[ms]	5	 	 
# Laser Source:	 	4.5-15 µm nano-FTIR laser
# Detector:	 	R
# Target Wavelength:	[µm]	10.000	 	 
# Demodulation Mode:	 	Fourier
# Tip Frequency:	[Hz]	241,340.500	 	 
# Tip Amplitude:	[mV]	45.700	 	 
# Tapping Amplitude:	[nm]	74.418	 	 
# Modulation Frequency:	[Hz]	0.000	 	 
# Modulation Amplitude:	[mV]	0.000	 	 
# Modulation Offset:	[mV]	0.000	 	 
# Setpoint:	[%]	79.75	 	 
# Regulator (P, I, D):	 	4.206850	8.625812	1.000000
# Tip Potential:	[mV]	0.000	 	 
# M1A Scaling:	[nm/V]	0.426	 	 
# M1A Cantilever Factor:	 	1,000	 	 
# Q-Factor:	 	487.4	 	 
# Version:	 	2.1.11536.0
1224.1942      	1223.7372      	1223.9192      	1223.9944      	1224.0359      	1224.162       	1224.1632      	1224.0958      	1224.1088      	1224.0497      	1224.0839      	1224.0881      	1224.0729      	1224.104       	1224.0378      	1224.1333      	1224.2742      	1223.671       	1224.0332      	1224.0558      	1224.0212      	1224.0731      	1224.0831      	1224.0566      	1224.0543      	1224.0555      	1224.0458      	1224.1287      	1224.0581      	1224.1179      	1224.1573      	1224.0585      	1224.092       	1224.1208      	1224.0858      	1224.0669      	1224.095       	1224.1199      	1224.2273      	1224.2561      	1224.6145      	1224.0768      	1224.0962      	1224.079       	1224.0536      	1224.0781      	1224.0706      	1224.0344      	1224.0856      	1224.0911      	1224.0808      	1224.0786      	1224.0851      	1224.1182      	1224.0647      	1224.0973      	1224.085       	1224.0579      	1224.1118      	1224.1346      	1224.0643      	1224.1515      	1224.1395      	1224.0281      	1223.6702      	1223.8643      	1223.8635      	1223.8914      	1224.0762      	1224.1082      	1224.1338      	1224.1746      	1224.1151      	1224.162       	1224.1237      	1224.1188      	1224.201       	1224.1107      	1224.178       	1224.1433      	1224.1289      	1224.1744      	1224.1946      	1224.1819      	1224.1593      	1224.1704      	1224.1567      	1224.1617      	1224.1687      	1224.2004      	1224.245       	1224.2224      	1224.2618      	1224.2311      	1224.2808      	1224.248       	1224.2396      	1224.2345      	1224.2314      	1224.2769      	
1224.5452      	1224.1941      	1224.2345      	1224.258       	1224.3237      	1224.4855      	1224.4868      	1224.4644      	1224.4333      	1224.4253      	1224.4805      	1224.4221      	1224.4309      	1224.4191      	1224.42        	1224.4039      	1224.4226      	1224.4656      	1224.4451      	1224.4128      	1224.4163      	1224.4341      	1224.3308      	1224.3965      	1224.4335      	1224.4081      	1224.3906      	1224.3927      	1224.4388      	1224.4758      	1224.4657      	1224.4952      	1224.4546      	1224.4402      	1224.4344      	1224.3967      	1224.3527      	1224.391       	1224.5519      	1224.553       	1224.821       	1224.558       	1224.3778      	1224.372       	1224.3752      	1224.3745      	1224.413       	1224.3923      	1224.4386      	1224.4261      	1224.4172      	1224.3872      	1224.3923      	1224.3835      	1224.4103      	1224.4276      	1224.4343      	1224.4165      	1224.4623      	1224.4613      	1224.4059      	1224.4138      	1224.4343      	1224.5532      	1223.7964      	1224.124       	1224.1499      	1224.2341      	1224.3248      	1224.4359      	1224.4115      	1224.411       	1224.4004      	1224.4397      	1224.3782      	1224.3807      	1224.437       	1224.4191      	1224.4192      	1224.4749      	1224.3702      	1224.4141      	1224.4136      	1224.4773      	1224.4102      	1224.4452      	1224.4377      	1224.4446      	1224.4667      	1224.4436      	1224.4186      	1224.4447      	1224.4493      	1224.48        	1224.4364      	1224.4464      	1224.468       	1224.4788      	1224.4293      	1224.4512      	
1224.5876      	1224.067       	1224.3041      	1224.2968      	1224.3134      	1224.4772      	1224.5007      	1224.5005      	1224.4778      	1224.5275      	1224.4857      	1224.4587      	1224.459       	1224.4976      	1224.4442      	1224.4823      	1224.4565      	1224.4827      	1224.437       	1224.4413      	1224.4496      	1224.4799      	1224.4656      	1224.4259      	1224.4802      	1224.491       	1224.4772      	1224.4763      	1224.4752      	1224.4865      	1224.4274      	1224.4459      	1224.508       	1224.4501      	1224.5038      	1224.4152      	1224.3739      	1224.4628      	1224.6267      	1224.659       	1224.8358      	1224.6967      	1224.4585      	1224.4391      	1224.4108      	1224.4598      	1224.4452      	1224.422       	1224.4672      	1224.4532      	1224.5308      	1224.471       	1224.4708      	1224.4387      	1224.5388      	1224.4559      	1224.4827      	1224.525       	1224.5134      	1224.4384      	1224.5137      	1224.5171      	1224.5293      	1224.6171      	1224.1356      	1224.1737      	1224.3287      	1224.3444      	1224.4374      	1224.603       	1224.5858      	1224.5906      	1224.5881      	1224.6044      	1224.622       	1224.6206      	1224.63        	1224.6165      	1224.605       	1224.6482      	1224.645       	1224.6099      	1224.606       	1224.6184      	1224.619       	1224.6345      	1224.6545      	1224.6224      	1224.5916      	1224.6666      	1224.6738      	1224.6604      	1224.6763      	1224.6733      	1224.6558      	1224.6792      	1224.6888      	1224.6965      	1224.6808      	1224.6694      	
1224.347       	1223.8217      	1224.0143      	1224.148       	1224.1124      	1224.255       	1224.3348      	1224.3221      	1224.2856      	1224.254       	1224.296       	1224.3416      	1224.2495      	1224.3112      	1224.2659      	1224.2941      	1224.2516      	1224.216       	1224.3136      	1224.2395      	1224.2766      	1224.2416      	1224.2971      	1224.2501      	1224.2483      	1224.2571      	1224.2935      	1224.2352      	1224.278       	1224.2716      	1224.2733      	1224.2834      	1224.2461      	1224.2568      	1224.2498      	1224.2317      	1224.2443      	1224.2336      	1224.4384      	1224.5924      	1224.5157      	1224.5198      	1224.3405      	1224.2374      	1224.289       	1224.2644      	1224.2585      	1224.3354      	1224.2205      	1224.267       	1224.3214      	1224.3221      	1224.3264      	1224.3511      	1224.3103      	1224.3357      	1224.2605      	1224.352       	1224.3375      	1224.2634      	1224.358       	1224.3203      	1224.3342      	1224.3522      	1224.2217      	1223.94        	1224.087       	1224.2037      	1224.1681      	1224.2787      	1224.3009      	1224.3665      	1224.3285      	1224.322       	1224.3353      	1224.363       	1224.3728      	1224.364       	1224.3907      	1224.3807      	1224.3469      	1224.4121      	1224.4045      	1224.4353      	1224.3643      	1224.4076      	1224.4266      	1224.4203      	1224.4243      	1224.4106      	1224.4474      	1224.4468      	1224.464       	1224.4952      	1224.4807      	1224.4667      	1224.5261      	1224.4868      	1224.4487      	1224.5262      	
1224.0669      	1223.4496      	1223.7505      	1223.8583      	1223.8909      	1223.906       	1224.1027      	1224.0507      	1224.0669      	1224.0143      	1223.9688      	1224.0579      	1223.9445      	1223.9962      	1224.0212      	1223.9889      	1223.9777      	1223.9807      	1224.1552      	1223.9901      	1223.886       	1223.9851      	1224.0775      	1224.0386      	1224.0823      	1224.0616      	1224.0623      	1224.0822      	1224.073       	1224.0356      	1224.0876      	1224.0707      	1224.08        	1224.0569      	1223.9902      	1224.062       	1224.0323      	1223.9653      	1224.1464      	1224.2505      	1224.3663      	1224.365       	1224.1993      	1224.075       	1224.0841      	1224.0665      	1224.0619      	1224.0701      	1224.0911      	1224.0679      	1224.1008      	1224.1149      	1224.1438      	1224.1422      	1224.1613      	1224.1007      	1224.2238      	1224.1528      	1224.1653      	1224.1736      	1224.1946      	1224.2017      	1224.1853      	1224.1945      	1224.0935      	1223.7549      	1223.9397      	1224.0272      	1224.023       	1224.1068      	1224.2244      	1224.2206      	1224.191       	1224.213       	1224.2454      	1224.2644      	1224.2566      	1224.2362      	1224.2955      	1224.2699      	1224.2905      	1224.3414      	1224.3452      	1224.3438      	1224.388       	1224.3269      	1224.3035      	1224.3231      	1224.3494      	1224.349       	1224.3284      	1224.3359      	1224.3815      	1224.3842      	1224.3329      	1224.3859      	1224.4308      	1224.4254      	1224.3844      	1224.3987      	
1223.8956      	1223.5634      	1223.5037      	1223.531       	1223.6462      	1223.697       	1223.8416      	1223.8901      	1223.8474      	1223.7783      	1223.8187      	1223.8135      	1223.821       	1223.8115      	1223.7921      	1223.8616      	1223.8474      	1223.8185      	1223.8645      	1223.7689      	1223.8456      	1223.8691      	1223.8933      	1223.8221      	1223.8901      	1223.8582      	1223.8817      	1223.8982      	1223.8485      	1223.8683      	1223.8855      	1223.8779      	1223.8379      	1223.8529      	1223.8876      	1223.855       	1223.769       	1223.7394      	1223.9061      	1224.0514      	1224.1459      	1224.1472      	1224.006       	1223.7981      	1223.8156      	1223.8456      	1223.8198      	1223.7872      	1223.8605      	1223.8234      	1223.8628      	1223.858       	1223.8218      	1223.886       	1223.8898      	1223.9374      	1223.9224      	1223.8693      	1223.9084      	1223.8586      	1223.8607      	1223.9078      	1223.8826      	1223.7662      	1223.9695      	1223.3502      	1223.5825      	1223.606       	1223.675       	1223.833       	1223.939       	1223.8809      	1223.947       	1223.9661      	1223.9917      	1223.9104      	1223.9536      	1223.9087      	1223.9601      	1224.0046      	1223.9907      	1224.1113      	1223.8094      	1223.9657      	1224.0353      	1223.9686      	1224.0027      	1224.034       	1223.951       	1224.0477      	1224.035       	1224.0493      	1224.0038      	1224.03        	1224.0491      	1224.0383      	1224.077       	1224.0347      	1224.0568      	1224.0768      	
1224.009       	1223.9636      	1223.4019      	1223.7119      	1223.7917      	1223.7324      	1223.9308      	1223.963       	1223.9302      	1223.9436      	1223.9368      	1223.911       	1223.896       	1223.9436      	1223.9363      	1223.9264      	1223.9464      	1223.9609      	1223.9376      	1223.9183      	1223.9623      	1223.8917      	1223.9735      	1223.9668      	1223.8823      	1223.9559      	1223.9486      	1223.9631      	1223.9183      	1224.0004      	1223.9177      	1223.9355      	1223.9738      	1223.9106      	1223.9413      	1223.8584      	1223.8739      	1223.8702      	1223.9297      	1224.0559      	1224.2322      	1224.2224      	1224.1112      	1223.864       	1223.8961      	1223.9545      	1223.9233      	1223.9388      	1223.8888      	1223.9415      	1223.929       	1223.9275      	1223.9452      	1223.9694      	1223.9484      	1223.9849      	1224.022       	1223.9006      	1223.9521      	1223.9382      	1223.9932      	1223.9979      	1224.0056      	1224.0555      	1224.1398      	1223.5347      	1223.7137      	1223.8026      	1223.7926      	1223.9756      	1224.0497      	1224.0468      	1224.0448      	1224.0688      	1223.9991      	1224.0914      	1224.1047      	1224.1277      	1224.0734      	1224.1082      	1224.0725      	1224.1116      	1224.0924      	1224.0903      	1224.0991      	1224.1151      	1224.0494      	1224.1936      	1224.0831      	1224.0452      	1224.1815      	1224.0698      	1224.0883      	1224.148       	1224.0696      	1224.2024      	1224.1753      	1224.1041      	1224.0182      	1223.9957      	
1224.1652      	1224.1632      	1223.5123      	1223.7302      	1223.8221      	1223.8674      	1224.1139      	1224.0366      	1224.05        	1224.0017      	1224.0664      	1224.0364      	1224.0271      	1224.0402      	1224.0646      	1224.0806      	1224.0034      	1224.096       	1224.0052      	1224.0746      	1224.0236      	1224.0692      	1224.0557      	1224.0413      	1224.079       	1224.0682      	1224.0931      	1224.0889      	1224.0911      	1224.0737      	1224.1218      	1224.0782      	1224.1344      	1224.0963      	1224.0618      	1224.0964      	1224.0831      	1224.005       	1224.0648      	1224.2072      	1224.2484      	1224.4463      	1224.4263      	1224.1194      	1224.0988      	1224.0946      	1224.0667      	1224.0918      	1224.0626      	1224.1414      	1224.0867      	1224.0864      	1224.0319      	1224.1378      	1224.1005      	1224.1278      	1224.0813      	1224.1028      	1224.1083      	1224.0856      	1224.1211      	1224.1487      	1224.0852      	1224.1302      	1224.244       	1223.7146      	1223.7822      	1223.8933      	1223.9556      	1224.0071      	1224.1362      	1224.1349      	1224.1389      	1224.1786      	1224.1224      	1224.1729      	1224.1476      	1224.1499      	1224.1042      	1224.1626      	1224.1483      	1224.1825      	1224.1682      	1224.128       	1224.1594      	1224.2073      	1224.1766      	1224.0828      	1224.1353      	1224.1788      	1224.1506      	1224.2366      	1224.2023      	1224.2133      	1224.254       	1224.2847      	1224.426       	1224.3546      	1224.1252      	1224.0273      	
1224.0662      	1224.182       	1223.5063      	1223.733       	1223.8772      	1223.8795      	1224.0575      	1224.0309      	1224.0923      	1224.1088      	1224.0077      	1224.0024      	1224.099       	1223.9675      	1224.0118      	1224.096       	1224.0566      	1224.0095      	1224.0685      	1224.0671      	1224.095       	1224.1335      	1224.1155      	1224.2122      	1224.0012      	1224.0698      	1224.095       	1224.1218      	1224.0852      	1224.1035      	1224.1155      	1224.1202      	1224.0464      	1224.1406      	1224.0991      	1224.1514      	1224.171       	1224.0253      	1224.0734      	1224.1688      	1224.2979      	1224.3684      	1224.4288      	1224.1317      	1224.1041      	1224.0676      	1224.1648      	1224.037       	1224.1255      	1224.1387      	1224.1184      	1224.1666      	1224.1743      	1224.1354      	1224.2063      	1224.1127      	1224.1869      	1224.132       	1224.1644      	1224.1416      	1224.181       	1224.1788      	1224.1355      	1224.157       	1224.2554      	1223.9731      	1223.7563      	1223.9565      	1223.9393      	1224.0867      	1224.2144      	1224.2188      	1224.273       	1224.1763      	1224.2292      	1224.2715      	1224.2542      	1224.2426      	1224.3817      	1224.1981      	1224.2645      	1224.201       	1224.2449      	1224.2592      	1224.3002      	1224.2509      	1224.2491      	1224.2712      	1224.2305      	1224.2732      	1224.3074      	1224.2867      	1224.2523      	1224.3157      	1224.3009      	1224.3082      	1224.3512      	1224.2705      	1224.4579      	1224.4695      	
1224.2356      	1224.2443      	1223.6909      	1223.7192      	1223.8075      	1223.8677      	1223.9543      	1224.0187      	1224.064       	1224.0668      	1223.9984      	1224.0437      	1224.0276      	1224.1388      	1223.9901      	1224.01        	1224.0829      	1224.0691      	1224.0676      	1224.0529      	1224.0784      	1224.1124      	1224.086       	1224.1252      	1224.1646      	1224.1252      	1224.0776      	1224.0444      	1224.1122      	1224.1007      	1224.0636      	1224.0751      	1224.0222      	1224.0597      	1224.0454      	1224.0413      	1224.0023      	1224.0775      	1224.0938      	1224.0906      	1224.2329      	1224.3905      	1224.3595      	1224.1841      	1224.092       	1223.9828      	1224.0686      	1223.9878      	1224.0286      	1224.0317      	1224.0099      	1224.0385      	1224.0786      	1224.0656      	1224.1082      	1224.1244      	1223.9835      	1224.0215      	1224.1017      	1224.1453      	1224.1184      	1223.994       	1224.0226      	1224.1469      	1224.1038      	1224.1886      	1223.4722      	1223.8478      	1223.9653      	1224.0083      	1224.1018      	1224.1528      	1224.2058      	1224.1521      	1224.205       	1224.1838      	1224.1921      	1224.2216      	1224.1731      	1224.2303      	1224.2756      	1224.1388      	1224.1425      	1224.2179      	1224.2849      	1224.2745      	1224.3092      	1224.2433      	1224.2968      	1224.3022      	1224.2847      	1224.2438      	1224.2455      	1224.3542      	1224.3146      	1224.3383      	1224.496       	1224.4575      	1224.4773      	1224.4894      	
1224.0541      	1224.0925      	1223.6716      	1223.6096      	1223.834       	1223.8318      	1223.9181      	1224.0625      	1223.9774      	1224.0432      	1224.0222      	1224.0118      	1224.038       	1224.026       	1224.0356      	1224.0383      	1224.0166      	1224.0042      	1224.0509      	1224.0607      	1224.0358      	1224.0066      	1224.0353      	1224.0408      	1224.057       	1224.051       	1224.0312      	1224.0259      	1224.1179      	1224.087       	1224.0975      	1224.0367      	1224.0624      	1224.0995      	1224.0958      	1224.0728      	1224.2101      	1224.2692      	1224.2362      	1224.3289      	1224.4049      	1224.3735      	1224.518       	1224.3071      	1223.9377      	1223.9503      	1223.8792      	1223.8872      	1223.9674      	1223.9772      	1224.0061      	1224.0577      	1223.9906      	1224.0521      	1223.9758      	1224.0542      	1224.0281      	1224.1069      	1224.0233      	1224.0505      	1224.0823      	1223.9595      	1224.0582      	1224.091       	1224.103       	1224.1718      	1223.4688      	1223.8231      	1223.9194      	1223.9521      	1224.0256      	1224.158       	1224.1932      	1224.2107      	1224.1401      	1224.1638      	1224.2008      	1224.177       	1224.2234      	1224.1766      	1224.1882      	1224.2344      	1224.2905      	1224.1858      	1224.2312      	1224.2476      	1224.2693      	1224.2069      	1224.2795      	1224.2703      	1224.2467      	1224.2605      	1224.2416      	1224.3174      	1224.3099      	1224.4812      	1224.391       	1224.2062      	1224.2313      	1224.3617      	
1224.0917      	1224.1464      	1223.84        	1223.6333      	1223.9226      	1223.9572      	1223.9297      	1224.0491      	1224.121       	1224.1066      	1224.1316      	1224.1196      	1224.1035      	1224.1497      	1224.1136      	1224.0923      	1224.1388      	1224.1342      	1224.1018      	1224.1073      	1224.1066      	1224.1057      	1224.0802      	1224.1238      	1224.1174      	1224.1198      	1224.13        	1224.0917      	1224.1582      	1224.0723      	1224.1185      	1224.1189      	1224.1145      	1224.1353      	1224.0823      	1224.1304      	1224.095       	1224.1527      	1224.0588      	1224.11        	1224.2505      	1224.3406      	1224.4358      	1224.4669      	1224.0186      	1224.0396      	1224.089       	1224.0918      	1224.1249      	1224.1111      	1224.123       	1224.1246      	1224.1078      	1224.1796      	1224.1174      	1224.2075      	1224.0538      	1224.1473      	1224.1492      	1224.1089      	1224.1843      	1224.2185      	1224.1108      	1224.1509      	1224.1705      	1224.3512      	1223.6895      	1223.8722      	1224.0121      	1224.0458      	1224.1666      	1224.2089      	1224.3807      	1224.2429      	1224.1466      	1224.2867      	1224.3195      	1224.3505      	1224.3276      	1224.3368      	1224.281       	1224.3156      	1224.2778      	1224.2472      	1224.294       	1224.3162      	1224.2804      	1224.2202      	1224.3761      	1224.3107      	1224.3683      	1224.5051      	1224.295       	1224.2263      	1224.2839      	1224.2684      	1224.3419      	1224.1906      	1224.0769      	1224.0958      	
1224.3561      	1224.3955      	1224.3613      	1223.8654      	1224.0981      	1224.0393      	1224.1306      	1224.2886      	1224.3506      	1224.3279      	1224.3619      	1224.3763      	1224.3167      	1224.3564      	1224.3344      	1224.3162      	1224.3878      	1224.3555      	1224.3749      	1224.3728      	1224.3236      	1224.4227      	1224.3029      	1224.4065      	1224.3464      	1224.3745      	1224.3481      	1224.365       	1224.3501      	1224.3776      	1224.386       	1224.322       	1224.3722      	1224.3466      	1224.3219      	1224.3556      	1224.3921      	1224.3584      	1224.3325      	1224.3888      	1224.4423      	1224.561       	1224.6837      	1224.6573      	1224.4214      	1224.3513      	1224.3333      	1224.3202      	1224.3392      	1224.3566      	1224.3507      	1224.3644      	1224.3931      	1224.2615      	1224.3433      	1224.3218      	1224.3478      	1224.3639      	1224.3911      	1224.3114      	1224.3552      	1224.3445      	1224.3241      	1224.3075      	1224.3347      	1224.422       	1224.2064      	1223.8768      	1224.1606      	1224.2551      	1224.3489      	1224.3832      	1224.4362      	1224.444       	1224.4978      	1224.5314      	1224.4789      	1224.4792      	1224.4854      	1224.497       	1224.4788      	1224.4043      	1224.4983      	1224.4423      	1224.4459      	1224.5482      	1224.5017      	1224.5288      	1224.4625      	1224.3843      	1224.4415      	1224.4562      	1224.4058      	1224.4572      	1224.4207      	1224.4199      	1224.4705      	1224.4558      	1224.3658      	1224.3408      	
1224.401       	1224.3572      	1224.512       	1223.8947      	1223.9448      	1224.0898      	1224.1329      	1224.2334      	1224.4982      	1224.3435      	1224.3273      	1224.4735      	1224.3713      	1224.3998      	1224.4019      	1224.3566      	1224.4178      	1224.3898      	1224.4066      	1224.3743      	1224.3927      	1224.439       	1224.3472      	1224.4028      	1224.3804      	1224.378       	1224.3577      	1224.3788      	1224.3954      	1224.4208      	1224.3323      	1224.4591      	1224.3184      	1224.4114      	1224.3792      	1224.4172      	1224.4846      	1224.3356      	1224.3931      	1224.4233      	1224.4393      	1224.6339      	1224.6317      	1224.8259      	1224.5529      	1224.3633      	1224.3883      	1224.3733      	1224.3947      	1224.463       	1224.3983      	1224.3853      	1224.3685      	1224.4178      	1224.3774      	1224.4458      	1224.4089      	1224.4249      	1224.3644      	1224.4075      	1224.3873      	1224.4371      	1224.3738      	1224.4558      	1224.4348      	1224.4493      	1224.487       	1224.049       	1224.339       	1224.3674      	1224.3181      	1224.4498      	1224.484       	1224.5609      	1224.522       	1224.4757      	1224.4266      	1224.5153      	1224.6144      	1224.5969      	1224.5962      	1224.6827      	1224.5568      	1224.439       	1224.5522      	1224.4604      	1224.4923      	1224.4548      	1224.5203      	1224.5061      	1224.4921      	1224.5005      	1224.4559      	1224.5245      	1224.4767      	1224.4949      	1224.4753      	1224.44        	1224.3843      	1224.4182      	
1224.4114      	1224.3518      	1224.5525      	1223.8378      	1224.0707      	1224.201       	1224.325       	1224.2103      	1224.3906      	1224.598       	1224.3038      	1224.4128      	1224.3881      	1224.3868      	1224.4056      	1224.4081      	1224.3778      	1224.3842      	1224.4094      	1224.3933      	1224.3552      	1224.369       	1224.3995      	1224.3864      	1224.396       	1224.3171      	1224.3776      	1224.3793      	1224.379       	1224.3495      	1224.3984      	1224.36        	1224.4191      	1224.408       	1224.3884      	1224.4594      	1224.4089      	1224.3546      	1224.4198      	1224.4166      	1224.3954      	1224.5591      	1224.6458      	1224.6997      	1224.6534      	1224.3268      	1224.3356      	1224.3585      	1224.3163      	1224.3333      	1224.3254      	1224.397       	1224.3688      	1224.3296      	1224.364       	1224.3608      	1224.3569      	1224.4061      	1224.3704      	1224.3953      	1224.4191      	1224.3817      	1224.4022      	1224.4591      	1224.3665      	1224.4266      	1224.4652      	1224.3993      	1224.2745      	1224.1646      	1224.2557      	1224.451       	1224.4282      	1224.4537      	1224.7687      	1224.4438      	1224.416       	1224.4155      	1224.6832      	1224.5197      	1224.461       	1224.4548      	1224.5294      	1224.4392      	1224.4766      	1224.5083      	1224.4917      	1224.4614      	1224.4783      	1224.4941      	1224.4943      	1224.5662      	1224.5134      	1224.4719      	1224.5251      	1224.5364      	1224.5077      	1224.4707      	1224.5079      	1224.5417      	
1224.3973      	1224.422       	1224.4604      	1223.9999      	1224.0325      	1224.2455      	1224.275       	1224.2483      	1224.426       	1224.5006      	1224.3999      	1224.4393      	1224.5109      	1224.4674      	1224.4874      	1224.476       	1224.4354      	1224.3865      	1224.4626      	1224.4391      	1224.4216      	1224.4484      	1224.4998      	1224.4275      	1224.4701      	1224.4369      	1224.4161      	1224.42        	1224.426       	1224.4564      	1224.4465      	1224.4386      	1224.4318      	1224.4587      	1224.4565      	1224.4725      	1224.493       	1224.4622      	1224.4696      	1224.4833      	1224.5428      	1224.6167      	1224.6979      	1224.7465      	1224.7122      	1224.4913      	1224.4537      	1224.493       	1224.4524      	1224.4088      	1224.5015      	1224.4905      	1224.422       	1224.4344      	1224.5431      	1224.4249      	1224.4801      	1224.45        	1224.5077      	1224.4995      	1224.4858      	1224.5184      	1224.531       	1224.4471      	1224.4788      	1224.4989      	1224.6013      	1224.5505      	1224.5792      	1224.4248      	1224.4747      	1224.6353      	1224.6393      	1224.6019      	1224.7662      	1224.5906      	1224.5616      	1224.5951      	1224.6345      	1224.5688      	1224.6257      	1224.5938      	1224.6227      	1224.6561      	1224.6217      	1224.6515      	1224.6135      	1224.6315      	1224.6304      	1224.5854      	1224.5886      	1224.6549      	1224.6426      	1224.7072      	1224.6066      	1224.6299      	1224.6077      	1224.6161      	1224.5721      	1224.553       	
1224.3741      	1224.3533      	1224.4348      	1224.3156      	1223.8846      	1224.1036      	1224.2195      	1224.2296      	1224.3087      	1224.4471      	1224.4227      	1224.4304      	1224.4344      	1224.4167      	1224.4099      	1224.4558      	1224.428       	1224.4268      	1224.4042      	1224.4009      	1224.3947      	1224.4258      	1224.4246      	1224.4042      	1224.3937      	1224.4161      	1224.4398      	1224.4015      	1224.439       	1224.3943      	1224.4019      	1224.4297      	1224.4415      	1224.4905      	1224.4894      	1224.4155      	1224.4292      	1224.4272      	1224.4695      	1224.3925      	1224.4761      	1224.5275      	1224.6428      	1224.7488      	1224.8013      	1224.4904      	1224.3827      	1224.4006      	1224.4213      	1224.366       	1224.3953      	1224.3972      	1224.3809      	1224.4365      	1224.3594      	1224.4319      	1224.2987      	1224.445       	1224.3323      	1224.4276      	1224.3987      	1224.3778      	1224.4288      	1224.3953      	1224.4929      	1224.3925      	1224.3998      	1224.461       	1224.4417      	1224.4595      	1224.4531      	1224.3546      	1224.4602      	1224.4878      	1224.5303      	1224.3905      	1224.4985      	1224.3943      	1224.4408      	1224.5007      	1224.4194      	1224.487       	1224.4873      	1224.4823      	1224.4784      	1224.4813      	1224.5272      	1224.4077      	1224.4707      	1224.4374      	1224.4479      	1224.4779      	1224.4312      	1224.437       	1224.4774      	1224.5209      	1224.4875      	1224.4467      	1224.4152      	1224.4238      	
1224.8282      	1224.824       	1224.8282      	1224.8604      	1224.3488      	1224.5149      	1224.5282      	1224.5802      	1224.705       	1224.7931      	1224.83        	1224.8013      	1224.8016      	1224.8434      	1224.8268      	1224.7874      	1224.8195      	1224.8191      	1224.8147      	1224.7751      	1224.7963      	1224.83        	1224.8341      	1224.8088      	1224.8077      	1224.8231      	1224.7642      	1224.8229      	1224.8134      	1224.7742      	1224.8176      	1224.7455      	1224.8398      	1224.7909      	1224.8213      	1224.7518      	1224.8608      	1224.7728      	1224.7987      	1224.8074      	1224.8204      	1224.9153      	1224.9271      	1225.0458      	1225.1007      	1224.8839      	1224.7527      	1224.7458      	1224.686       	1224.7219      	1224.6998      	1224.7518      	1224.6638      	1224.7106      	1224.6835      	1224.6553      	1224.6971      	1224.6887      	1224.6847      	1224.6833      	1224.7205      	1224.655       	1224.724       	1224.6769      	1224.7413      	1224.7782      	1224.7327      	1224.7439      	1224.7452      	1224.7498      	1224.7715      	1224.7153      	1224.7991      	1224.7483      	1224.7548      	1224.8146      	1224.7787      	1224.7533      	1224.7799      	1224.8577      	1224.7429      	1224.8184      	1224.7589      	1224.8108      	1224.7968      	1224.7296      	1224.7515      	1224.717       	1224.6794      	1224.7484      	1224.6921      	1224.7283      	1224.7306      	1224.7501      	1224.6998      	1224.6538      	1224.7687      	1224.6853      	1224.6251      	1224.6796      	
1224.8739      	1224.8618      	1224.8794      	1224.9465      	1224.6207      	1224.4054      	1224.6044      	1224.6233      	1224.7278      	1224.8873      	1224.915       	1224.945       	1224.846       	1224.9236      	1224.9117      	1224.8667      	1224.8579      	1224.8931      	1224.8872      	1224.8397      	1224.9536      	1224.8608      	1224.8711      	1224.865       	1224.878       	1224.8732      	1224.9055      	1224.856       	1224.845       	1224.8868      	1224.8921      	1224.9255      	1224.8971      	1224.962       	1224.9272      	1224.915       	1224.9783      	1224.8894      	1224.9426      	1224.9479      	1224.9084      	1225.0067      	1225.0469      	1225.1456      	1225.301       	1225.1349      	1224.871       	1224.8442      	1224.8457      	1224.9042      	1224.8455      	1224.8784      	1224.8496      	1224.8728      	1224.875       	1224.9469      	1224.868       	1224.8644      	1224.9014      	1224.9072      	1224.877       	1224.8925      	1224.8816      	1224.9258      	1224.9526      	1224.914       	1224.9192      	1224.9856      	1224.8838      	1224.9963      	1224.8253      	1225.0074      	1224.9169      	1224.9445      	1224.9248      	1224.9886      	1224.8838      	1224.9507      	1224.9758      	1224.9224      	1224.915       	1224.9635      	1224.9104      	1224.9484      	1224.954       	1224.8959      	1224.9921      	1224.8145      	1224.9441      	1224.9419      	1224.9265      	1224.8871      	1224.9386      	1224.8674      	1224.8531      	1224.9315      	1224.883       	1224.8284      	1224.8169      	1224.8127      	
1224.7675      	1224.7095      	1224.7915      	1224.8622      	1224.6251      	1224.327       	1224.5603      	1224.6458      	1224.7118      	1224.7786      	1224.8757      	1224.9161      	1224.9098      	1224.8212      	1224.8683      	1224.9073      	1224.8817      	1224.9083      	1224.8625      	1224.8405      	1224.9257      	1224.8641      	1224.8988      	1224.9036      	1224.8408      	1224.8259      	1224.8583      	1224.8982      	1224.8472      	1224.867       	1224.9087      	1224.87        	1224.8615      	1224.8954      	1224.895       	1224.8905      	1224.8481      	1224.9943      	1224.8933      	1224.87        	1224.8923      	1224.9662      	1225.0472      	1225.0468      	1225.2361      	1225.1901      	1224.9124      	1224.8649      	1224.8707      	1224.8553      	1224.8684      	1224.882       	1224.8804      	1224.8291      	1224.8882      	1224.8785      	1224.8904      	1224.8314      	1224.8873      	1224.9006      	1224.8827      	1224.8501      	1224.8982      	1224.921       	1224.9515      	1224.834       	1224.9802      	1224.9003      	1224.946       	1224.8928      	1224.9905      	1224.8324      	1224.9552      	1224.9335      	1224.9435      	1224.9369      	1224.9265      	1224.9647      	1224.9806      	1224.89        	1224.9851      	1224.9126      	1224.9152      	1224.9426      	1224.921       	1224.9257      	1224.9033      	1224.9141      	1224.8798      	1224.883       	1224.9214      	1224.8723      	1224.9111      	1224.8777      	1224.9054      	1224.8928      	1224.8702      	1224.8633      	1224.8118      	1224.8021      	
1224.6066      	1224.5579      	1224.5634      	1224.591       	1224.6326      	1224.0159      	1224.3539      	1224.3765      	1224.4382      	1224.5867      	1224.6656      	1224.6853      	1224.4731      	1224.6926      	1224.6477      	1224.6614      	1224.5779      	1224.6394      	1224.6008      	1224.6268      	1224.6261      	1224.6062      	1224.6332      	1224.6042      	1224.638       	1224.6272      	1224.6436      	1224.6393      	1224.6528      	1224.6884      	1224.6978      	1224.6919      	1224.7902      	1224.7028      	1224.6599      	1224.7311      	1224.7587      	1224.773       	1224.8015      	1224.7194      	1224.7529      	1224.7849      	1224.768       	1224.7858      	1225.0201      	1224.9473      	1224.7113      	1224.6929      	1224.6582      	1224.701       	1224.6704      	1224.683       	1224.7218      	1224.6752      	1224.6329      	1224.6769      	1224.6943      	1224.6859      	1224.7081      	1224.72        	1224.6952      	1224.7234      	1224.7505      	1224.7087      	1224.7455      	1224.7638      	1224.6998      	1224.7986      	1224.7195      	1224.7704      	1224.7346      	1224.7356      	1224.7515      	1224.7329      	1224.7633      	1224.6583      	1224.7234      	1224.7334      	1224.7323      	1224.6796      	1224.7208      	1224.6655      	1224.7102      	1224.6622      	1224.6997      	1224.6569      	1224.6829      	1224.6722      	1224.6241      	1224.6887      	1224.6304      	1224.6249      	1224.6448      	1224.629       	1224.6685      	1224.6426      	1224.6534      	1224.629       	1224.6251      	1224.6613      	
1224.4143      	1224.4149      	1224.439       	1224.3938      	1224.5151      	1224.0522      	1224.0854      	1224.2472      	1224.3146      	1224.5034      	1224.4791      	1224.2853      	1224.3909      	1224.642       	1224.5079      	1224.5533      	1224.4994      	1224.4702      	1224.5295      	1224.5315      	1224.5061      	1224.5011      	1224.48        	1224.519       	1224.5156      	1224.4839      	1224.5216      	1224.5543      	1224.5413      	1224.5553      	1224.5468      	1224.5017      	1224.6743      	1224.5714      	1224.5294      	1224.6158      	1224.636       	1224.6404      	1224.5607      	1224.6545      	1224.6678      	1224.5409      	1224.6189      	1224.6815      	1224.7834      	1224.8027      	1224.6782      	1224.5635      	1224.5509      	1224.4799      	1224.5356      	1224.526       	1224.5066      	1224.5856      	1224.4626      	1224.5485      	1224.5583      	1224.6096      	1224.5431      	1224.5239      	1224.5245      	1224.5524      	1224.6027      	1224.582       	1224.6008      	1224.5897      	1224.6018      	1224.5708      	1224.6266      	1224.6007      	1224.6249      	1224.527       	1224.561       	1224.6123      	1224.593       	1224.605       	1224.611       	1224.5558      	1224.627       	1224.5409      	1224.5653      	1224.588       	1224.5365      	1224.586       	1224.5643      	1224.5592      	1224.5536      	1224.5691      	1224.5236      	1224.5781      	1224.5071      	1224.5887      	1224.532       	1224.5007      	1224.5131      	1224.5479      	1224.477       	1224.4631      	1224.4237      	1224.4562      	
1224.4861      	1224.4628      	1224.4612      	1224.4885      	1224.5858      	1224.1132      	1224.077       	1224.3018      	1224.3607      	1224.4128      	1224.5558      	1224.4639      	1224.5409      	1224.5765      	1224.5066      	1224.5454      	1224.5282      	1224.5612      	1224.4607      	1224.5388      	1224.565       	1224.5101      	1224.5366      	1224.4851      	1224.5425      	1224.5287      	1224.5272      	1224.5386      	1224.5187      	1224.4954      	1224.4767      	1224.6594      	1224.5021      	1224.5338      	1224.6362      	1224.5574      	1224.5901      	1224.574       	1224.5571      	1224.5978      	1224.5403      	1224.7369      	1224.6405      	1224.611       	1224.6057      	1224.5171      	1224.5116      	1224.4915      	1224.5011      	1224.4741      	1224.523       	1224.4602      	1224.5276      	1224.511       	1224.4701      	1224.5197      	1224.5308      	1224.5413      	1224.545       	1224.5569      	1224.5011      	1224.551       	1224.5292      	1224.5543      	1224.522       	1224.528       	1224.5474      	1224.5157      	1224.5391      	1224.511       	1224.5232      	1224.5275      	1224.4568      	1224.5334      	1224.5155      	1224.5148      	1224.5565      	1224.5736      	1224.466       	1224.4705      	1224.4563      	1224.4995      	1224.4728      	1224.4401      	1224.5138      	1224.4244      	1224.4967      	1224.4725      	1224.4431      	1224.4275      	1224.4247      	1224.4456      	1224.4395      	1224.3787      	1224.441       	1224.4102      	1224.4182      	1224.4369      	1224.3987      	1224.421       	
1224.7852      	1224.8195      	1224.8566      	1224.8102      	1224.8612      	1224.559       	1224.3706      	1224.6417      	1224.6575      	1224.653       	1224.8405      	1224.8606      	1224.8345      	1224.8455      	1224.8417      	1224.846       	1224.8948      	1224.8202      	1224.8253      	1224.8777      	1224.8398      	1224.8004      	1224.8455      	1224.8533      	1224.8474      	1224.8094      	1224.844       	1224.8594      	1224.8722      	1224.8312      	1224.8483      	1224.9122      	1224.8892      	1224.8016      	1224.9216      	1224.7787      	1224.8802      	1224.9069      	1224.8722      	1224.8785      	1224.8478      	1224.8807      	1224.7798      	1224.7866      	1224.7499      	1224.7822      	1224.7593      	1224.7505      	1224.7653      	1224.7317      	1224.7239      	1224.7283      	1224.8275      	1224.6952      	1224.7966      	1224.7823      	1224.7288      	1224.7004      	1224.7872      	1224.7579      	1224.7346      	1224.7721      	1224.7731      	1224.7655      	1224.785       	1224.7751      	1224.7534      	1224.76        	1224.7843      	1224.7762      	1224.7253      	1224.7491      	1224.6614      	1224.7794      	1224.7458      	1224.7059      	1224.7987      	1224.6453      	1224.6962      	1224.6707      	1224.7412      	1224.6858      	1224.698       	1224.6111      	1224.6863      	1224.6809      	1224.6572      	1224.6678      	1224.6902      	1224.6505      	1224.6626      	1224.6151      	1224.6454      	1224.6068      	1224.6534      	1224.5779      	1224.5826      	1224.5806      	1224.595       	1224.5916      	
1224.9113      	1224.9387      	1224.8741      	1224.9402      	1224.9562      	1224.8696      	1224.2893      	1224.7083      	1224.6687      	1224.7206      	1224.9325      	1224.953       	1224.9413      	1224.94        	1225.0004      	1224.9679      	1224.9689      	1224.9755      	1225.0115      	1225.038       	1224.9738      	1224.9988      	1225.0604      	1225.0282      	1225.0182      	1225.0317      	1225.0404      	1225.0048      	1224.9989      	1224.9587      	1224.9734      	1224.9803      	1225.0493      	1225.0002      	1225.1704      	1225.052       	1224.9218      	1224.9332      	1224.9948      	1224.9464      	1225.0118      	1224.9619      	1224.9456      	1224.9934      	1224.9937      	1225.0166      	1224.9016      	1224.9551      	1224.9401      	1224.9719      	1224.9551      	1224.9445      	1224.9617      	1224.9314      	1224.9446      	1224.9366      	1224.9469      	1224.913       	1224.9539      	1224.9792      	1224.962       	1224.9768      	1224.9858      	1224.9852      	1224.9816      	1224.9866      	1224.9712      	1224.9556      	1224.957       	1224.9634      	1224.9258      	1224.9763      	1224.8989      	1224.9081      	1224.8811      	1224.8926      	1224.9421      	1224.8905      	1224.9299      	1224.9294      	1224.8679      	1224.8589      	1224.8605      	1224.8712      	1224.8214      	1224.8846      	1224.8026      	1224.8698      	1224.7981      	1224.8127      	1224.7928      	1224.8029      	1224.7954      	1224.81        	1224.7668      	1224.8013      	1224.7745      	1224.7507      	1224.7495      	1224.7747      	
1224.8849      	1224.8374      	1225.0026      	1224.7225      	1224.8425      	1225.0309      	1224.3729      	1224.663       	1224.6892      	1224.6627      	1224.7671      	1224.9321      	1224.9359      	1224.9662      	1224.9333      	1224.9592      	1225.0527      	1224.9282      	1225.0767      	1224.9331      	1225.1249      	1224.9601      	1224.9601      	1224.9495      	1224.9181      	1224.9634      	1225.0358      	1224.952       	1224.907       	1224.897       	1225.0608      	1225.1095      	1224.9398      	1224.9716      	1224.9495      	1224.8995      	1224.9675      	1224.9169      	1224.9576      	1225.0277      	1224.9324      	1224.9233      	1224.9729      	1224.9175      	1224.9761      	1224.9462      	1224.9724      	1224.9827      	1224.952       	1224.9825      	1225.0067      	1224.9568      	1224.9858      	1225           	1224.9634      	1225.0403      	1224.9198      	1225.0428      	1225.0453      	1224.928       	1225.004       	1224.923       	1225.0264      	1224.978       	1224.979       	1224.9696      	1224.9607      	1224.9481      	1224.9677      	1224.9353      	1224.937       	1224.919       	1224.9236      	1225.0022      	1224.8986      	1224.8591      	1224.8849      	1224.8593      	1224.9246      	1224.8563      	1224.8912      	1224.9285      	1224.8995      	1224.8647      	1224.8522      	1224.8771      	1224.7888      	1224.8308      	1224.8546      	1224.8224      	1224.8751      	1224.7148      	1224.7971      	1224.809       	1224.8052      	1224.7811      	1224.7772      	1224.7118      	1224.7614      	1224.7737      	
1224.833       	1224.8143      	1224.7808      	1224.8716      	1224.8031      	1224.943       	1224.409       	1224.4841      	1224.6248      	1224.6865      	1224.8562      	1224.8651      	1224.8745      	1224.9048      	1224.9708      	1224.9209      	1224.859       	1224.9786      	1225.0176      	1224.8925      	1224.8931      	1224.9432      	1224.958       	1224.9304      	1224.9005      	1225.0249      	1224.9545      	1225.1031      	1224.9022      	1224.8335      	1224.8663      	1224.8745      	1224.9183      	1224.9183      	1224.924       	1224.8801      	1224.9257      	1224.9257      	1224.9128      	1224.8973      	1224.8644      	1224.9172      	1224.884       	1224.9695      	1224.9255      	1224.9127      	1224.9081      	1224.888       	1224.9244      	1224.934       	1224.9102      	1224.8955      	1224.9026      	1224.9238      	1224.935       	1224.9065      	1224.9         	1224.9318      	1224.9724      	1224.9755      	1225.0118      	1224.898       	1224.9907      	1224.9645      	1224.9692      	1224.9933      	1224.977       	1225.0546      	1225.0488      	1225.0443      	1224.9702      	1224.9808      	1224.9397      	1224.9698      	1224.9052      	1224.9447      	1225.0138      	1224.8761      	1224.9725      	1224.9012      	1224.9144      	1224.884       	1224.8997      	1224.921       	1224.8622      	1224.8806      	1224.836       	1224.8318      	1224.8381      	1224.8333      	1224.8538      	1224.8014      	1224.8234      	1224.7878      	1224.8079      	1224.7885      	1224.8312      	1224.773       	1224.7612      	1224.7378      	
1224.8407      	1224.7312      	1224.8187      	1224.8212      	1224.8445      	1224.9012      	1224.5175      	1224.5605      	1224.8049      	1224.8217      	1224.9106      	1224.7134      	1224.85        	1224.912       	1224.944       	1224.8793      	1224.9594      	1224.9631      	1224.9319      	1224.9034      	1224.9585      	1224.9484      	1225.0978      	1224.8992      	1224.9208      	1224.8231      	1224.8813      	1224.8829      	1224.8862      	1224.9108      	1224.8867      	1224.8849      	1224.9384      	1224.8882      	1224.9652      	1224.89        	1224.9471      	1224.9321      	1224.9805      	1224.9202      	1224.9299      	1224.8807      	1224.9099      	1224.9204      	1224.912       	1224.8855      	1224.853       	1224.9329      	1224.851       	1224.9587      	1224.9188      	1224.8378      	1224.8779      	1224.9188      	1224.8625      	1224.8784      	1224.8671      	1224.9036      	1224.8501      	1224.8458      	1224.8427      	1224.8923      	1224.8771      	1224.8585      	1224.863       	1224.8453      	1224.86        	1224.8569      	1224.8345      	1224.8954      	1224.809       	1224.8381      	1224.7751      	1224.7466      	1224.8416      	1224.7437      	1224.7771      	1224.7661      	1224.8138      	1224.7645      	1224.7571      	1224.7697      	1224.7363      	1224.7222      	1224.707       	1224.7241      	1224.7379      	1224.7186      	1224.6912      	1224.7117      	1224.7958      	1224.6068      	1224.713       	1224.6993      	1224.6991      	1224.7485      	1224.6986      	1224.7089      	1224.713       	1224.6809      	
1225.0125      	1225.0839      	1224.9353      	1225.0166      	1224.9753      	1225.0057      	1225.0593      	1224.7462      	1224.8895      	1224.7886      	1224.8887      	1224.9595      	1224.9694      	1224.9626      	1225.0605      	1225.1251      	1225.1549      	1225.1174      	1225.1376      	1225.0581      	1225.0095      	1225.0615      	1225.0212      	1225.0635      	1225.0184      	1225.0122      	1224.9819      	1225.0715      	1224.9954      	1225.073       	1225.127       	1224.9874      	1225.0835      	1225.0994      	1225.138       	1225.0955      	1225.1212      	1225.1145      	1225.0991      	1225.1108      	1225.1688      	1225.1084      	1225.1069      	1225.1414      	1225.174       	1225.1808      	1225.159       	1225.1267      	1225.1051      	1225.1102      	1225.1302      	1225.0776      	1225.1049      	1225.1299      	1225.0375      	1225.0968      	1225.1075      	1225.1023      	1225.077       	1225.115       	1225.0929      	1225.0881      	1225.0513      	1225.1179      	1225.0403      	1225.0808      	1225.052       	1225.0933      	1225.051       	1225.0236      	1225.0166      	1225.0537      	1224.9408      	1224.9142      	1225.0204      	1224.9967      	1224.8882      	1224.9916      	1225.0544      	1224.8071      	1224.9364      	1224.8712      	1224.929       	1224.901       	1224.9224      	1224.9044      	1224.8917      	1224.8999      	1224.8699      	1224.9054      	1224.8567      	1224.8433      	1224.8322      	1224.841       	1224.7982      	1224.8364      	1224.8441      	1224.8428      	1224.7938      	1224.7932      	
1225.1328      	1225.1196      	1225.1438      	1225.1207      	1225.1256      	1225.1592      	1225.2091      	1225.157       	1224.9011      	1225.008       	1225.0305      	1225.0708      	1225.1599      	1225.0806      	1225.3925      	1225.1416      	1225.1449      	1225.2012      	1225.1681      	1225.1545      	1225.1971      	1225.2427      	1225.2542      	1225.2239      	1225.2319      	1225.1792      	1225.2385      	1225.2715      	1225.1973      	1225.2493      	1225.2808      	1225.1968      	1225.3226      	1225.1809      	1225.2039      	1225.2043      	1225.2457      	1225.2434      	1225.2277      	1225.2517      	1225.2349      	1225.2507      	1225.2693      	1225.2467      	1225.256       	1225.2114      	1225.2192      	1225.2498      	1225.2107      	1225.2488      	1225.1584      	1225.2244      	1225.2307      	1225.2092      	1225.1649      	1225.2357      	1225.2456      	1225.2367      	1225.2134      	1225.1746      	1225.2152      	1225.1881      	1225.2134      	1225.1124      	1225.1815      	1225.1567      	1225.1279      	1225.1257      	1225.1046      	1225.0906      	1225.1232      	1225.0442      	1225.0636      	1225.0823      	1225.0698      	1225.0558      	1225.017       	1225.0831      	1225.0642      	1224.9847      	1225.0386      	1225.0146      	1225.0155      	1224.9456      	1224.9769      	1225.035       	1224.9536      	1224.9606      	1224.9734      	1224.9467      	1224.9413      	1224.9545      	1224.9286      	1224.9507      	1224.9108      	1224.931       	1224.9094      	1224.9299      	1224.9059      	1224.9132      	
1225.2583      	1225.2372      	1225.2686      	1225.26        	1225.3406      	1225.221       	1225.3096      	1225.3112      	1225.2664      	1225.3358      	1225.2516      	1225.267       	1225.2677      	1225.3546      	1225.2423      	1225.3221      	1225.2715      	1225.3046      	1225.3384      	1225.3463      	1225.3486      	1225.4088      	1225.4375      	1225.3612      	1225.4012      	1225.3795      	1225.3638      	1225.4417      	1225.3713      	1225.421       	1225.428       	1225.3562      	1225.3767      	1225.4155      	1225.3938      	1225.4276      	1225.3829      	1225.3638      	1225.3763      	1225.3733      	1225.4015      	1225.3765      	1225.4225      	1225.4045      	1225.328       	1225.4094      	1225.4116      	1225.3934      	1225.4146      	1225.3096      	1225.3046      	1225.3547      	1225.2872      	1225.3119      	1225.3726      	1225.2366      	1225.3097      	1225.3293      	1225.3557      	1225.2832      	1225.3186      	1225.3268      	1225.3138      	1225.3464      	1225.3055      	1225.336       	1225.3003      	1225.3573      	1225.2498      	1225.2705      	1225.2346      	1225.2102      	1225.2356      	1225.2107      	1225.1714      	1225.2003      	1225.1921      	1225.1394      	1225.2657      	1225.1503      	1225.1002      	1225.1886      	1225.1731      	1225.1833      	1225.1532      	1225.1283      	1225.1355      	1225.1129      	1225.0734      	1225.0802      	1225.1387      	1225.1005      	1225.0981      	1225.121       	1225.0916      	1225.1139      	1225.1282      	1225.1097      	1225.0686      	1225.0975      	
1225.2382      	1225.2651      	1225.2856      	1225.2355      	1225.2856      	1225.2238      	1225.2208      	1225.2476      	1225.2404      	1225.2709      	1225.3008      	1225.2583      	1225.2761      	1225.2887      	1225.2898      	1225.3511      	1225.3696      	1225.2754      	1225.2695      	1225.3246      	1225.3881      	1225.3335      	1225.3213      	1225.4146      	1225.3566      	1225.3594      	1225.3955      	1225.3567      	1225.3568      	1225.3549      	1225.3757      	1225.4082      	1225.4258      	1225.3119      	1225.3263      	1225.3239      	1225.3296      	1225.3137      	1225.2882      	1225.3468      	1225.2872      	1225.4012      	1225.2825      	1225.3224      	1225.3904      	1225.3531      	1225.3322      	1225.3303      	1225.3301      	1225.2938      	1225.2798      	1225.2781      	1225.2854      	1225.3358      	1225.2771      	1225.2872      	1225.2456      	1225.3156      	1225.269       	1225.2944      	1225.3048      	1225.3059      	1225.2399      	1225.226       	1225.2582      	1225.2249      	1225.2747      	1225.2378      	1225.2166      	1225.2667      	1225.2017      	1225.2272      	1225.1565      	1225.2299      	1225.1786      	1225.1685      	1225.1512      	1225.0923      	1225.1063      	1225.0457      	1224.9746      	1225.1759      	1225.1013      	1225.1118      	1225.1154      	1225.097       	1225.071       	1225.0419      	1225.0981      	1225.0604      	1225.0548      	1225.1047      	1225.0242      	1225.1354      	1225.0519      	1225.1085      	1224.9708      	1225.0713      	1225.0927      	1225.0879      	
1225.3241      	1225.3452      	1225.336       	1225.3674      	1225.3811      	1225.3683      	1225.3495      	1225.3325      	1225.3473      	1225.3649      	1225.2489      	1225.3663      	1225.3774      	1225.3511      	1225.4017      	1225.3362      	1225.3529      	1225.383       	1225.4304      	1225.2782      	1225.3986      	1225.3502      	1225.4048      	1225.4321      	1225.4178      	1225.3625      	1225.4663      	1225.4005      	1225.4125      	1225.4386      	1225.4716      	1225.4933      	1225.4276      	1225.3939      	1225.4314      	1225.4011      	1225.3806      	1225.412       	1225.3997      	1225.427       	1225.4161      	1225.3982      	1225.403       	1225.4393      	1225.347       	1225.388       	1225.4062      	1225.3829      	1225.401       	1225.3392      	1225.38        	1225.411       	1225.3292      	1225.3903      	1225.3615      	1225.3489      	1225.3645      	1225.3439      	1225.296       	1225.3323      	1225.3068      	1225.2638      	1225.3167      	1225.284       	1225.2753      	1225.28        	1225.2449      	1225.2947      	1225.2144      	1225.2499      	1225.2456      	1225.2037      	1225.1824      	1225.2657      	1225.1505      	1225.1571      	1225.2446      	1225.1954      	1225.1974      	1225.2161      	1225.0972      	1225.1829      	1225.1329      	1225.1842      	1225.1318      	1225.174       	1225.1124      	1225.1057      	1225.1128      	1225.1251      	1225.1462      	1225.1016      	1225.1276      	1225.1649      	1225.0007      	1225.1082      	1225.1721      	1225.162       	1225.0831      	1225.0815      	
1225.4108      	1225.394       	1225.3997      	1225.4794      	1225.3909      	1225.4115      	1225.3474      	1225.4495      	1225.3976      	1225.45        	1225.4069      	1225.4219      	1225.462       	1225.488       	1225.4431      	1225.439       	1225.4633      	1225.4493      	1225.5183      	1225.4943      	1225.5248      	1225.502       	1225.522       	1225.4891      	1225.4469      	1225.5378      	1225.4728      	1225.478       	1225.4956      	1225.5239      	1225.4943      	1225.5111      	1225.5135      	1225.4927      	1225.4999      	1225.4631      	1225.4213      	1225.4707      	1225.4196      	1225.4191      	1225.4146      	1225.3591      	1225.4304      	1225.3973      	1225.394       	1225.3323      	1225.4366      	1225.395       	1225.406       	1225.3586      	1225.3392      	1225.389       	1225.3489      	1225.3743      	1225.3446      	1225.3348      	1225.371       	1225.3206      	1225.341       	1225.3782      	1225.3591      	1225.3326      	1225.3562      	1225.3173      	1225.3674      	1225.2627      	1225.2944      	1225.2815      	1225.298       	1225.3219      	1225.2227      	1225.2769      	1225.2651      	1225.228       	1225.2634      	1225.1428      	1225.2388      	1225.205       	1225.1941      	1225.221       	1225.2665      	1225.2489      	1225.224       	1225.2612      	1225.2308      	1225.2758      	1225.2856      	1225.2524      	1225.2678      	1225.2358      	1225.262       	1225.3083      	1225.2341      	1225.3098      	1225.3289      	1225.2899      	1225.3225      	1225.3104      	1225.2856      	1225.3087      	
1225.4111      	1225.423       	1225.4447      	1225.45        	1225.4637      	1225.4827      	1225.4265      	1225.5203      	1225.539       	1225.3964      	1225.4697      	1225.5007      	1225.5337      	1225.5321      	1225.5288      	1225.594       	1225.4901      	1225.5826      	1225.5474      	1225.5867      	1225.5918      	1225.5958      	1225.5292      	1225.6138      	1225.6294      	1225.5994      	1225.5741      	1225.5812      	1225.6151      	1225.5983      	1225.5621      	1225.5487      	1225.528       	1225.5835      	1225.5372      	1225.5249      	1225.575       	1225.541       	1225.6125      	1225.5552      	1225.6748      	1225.5315      	1225.5493      	1225.6027      	1225.4841      	1225.5582      	1225.6619      	1225.5912      	1225.5892      	1225.5419      	1225.5923      	1225.5542      	1225.5706      	1225.539       	1225.5265      	1225.4995      	1225.537       	1225.484       	1225.5004      	1225.4924      	1225.4844      	1225.4343      	1225.466       	1225.4993      	1225.3907      	1225.4309      	1225.4493      	1225.3848      	1225.3921      	1225.3618      	1225.398       	1225.4124      	1225.3986      	1225.3716      	1225.3656      	1225.3431      	1225.3514      	1225.2999      	1225.3022      	1225.3606      	1225.3733      	1225.3728      	1225.31        	1225.3556      	1225.3547      	1225.3381      	1225.2992      	1225.3657      	1225.3474      	1225.3478      	1225.352       	1225.3538      	1225.4042      	1225.372       	1225.4167      	1225.3842      	1225.4474      	1225.3997      	1225.2501      	1225.2123      	
1225.4406      	1225.4436      	1225.4171      	1225.3926      	1225.4789      	1225.4617      	1225.4606      	1225.4612      	1225.4728      	1225.533       	1225.5059      	1225.4891      	1225.5454      	1225.5183      	1225.5353      	1225.5201      	1225.5399      	1225.5437      	1225.5323      	1225.5774      	1225.5857      	1225.5796      	1225.5703      	1225.5955      	1225.5223      	1225.617       	1225.5243      	1225.5929      	1225.5629      	1225.5881      	1225.5516      	1225.5948      	1225.543       	1225.5411      	1225.5337      	1225.5767      	1225.5522      	1225.5441      	1225.5292      	1225.5194      	1225.5452      	1225.5304      	1225.5929      	1225.5546      	1225.5358      	1225.5605      	1225.5569      	1225.5786      	1225.5242      	1225.5438      	1225.4867      	1225.524       	1225.495       	1225.5125      	1225.5045      	1225.5349      	1225.4952      	1225.4982      	1225.4719      	1225.4972      	1225.5099      	1225.4683      	1225.4764      	1225.449       	1225.4353      	1225.4476      	1225.3834      	1225.3763      	1225.4155      	1225.4304      	1225.4323      	1225.4445      	1225.3586      	1225.4122      	1225.4003      	1225.3458      	1225.426       	1225.3777      	1225.4071      	1225.3861      	1225.4236      	1225.2976      	1225.426       	1225.337       	1225.3519      	1225.3805      	1225.4028      	1225.3693      	1225.4095      	1225.3397      	1225.3973      	1225.408       	1225.427       	1225.4558      	1225.4536      	1225.4658      	1225.4954      	1225.533       	1225.2843      	1225.0544      	
1225.3022      	1225.4043      	1225.3466      	1225.3962      	1225.3975      	1225.3917      	1225.3464      	1225.4221      	1225.4089      	1225.3992      	1225.3884      	1225.4728      	1225.4243      	1225.4923      	1225.4216      	1225.4547      	1225.4509      	1225.4847      	1225.38        	1225.4863      	1225.4187      	1225.451       	1225.4867      	1225.4712      	1225.4363      	1225.4858      	1225.4054      	1225.4384      	1225.4484      	1225.4725      	1225.4569      	1225.4796      	1225.4572      	1225.4299      	1225.435       	1225.4481      	1225.437       	1225.4376      	1225.4766      	1225.4121      	1225.4204      	1225.4321      	1225.4264      	1225.4341      	1225.4813      	1225.4434      	1225.4529      	1225.5066      	1225.4652      	1225.4227      	1225.4257      	1225.4105      	1225.3983      	1225.3914      	1225.4199      	1225.3478      	1225.3712      	1225.3875      	1225.3704      	1225.3258      	1225.3292      	1225.3342      	1225.3104      	1225.3225      	1225.2888      	1225.2511      	1225.2988      	1225.2257      	1225.2433      	1225.2761      	1225.2136      	1225.2059      	1225.239       	1225.2034      	1225.2136      	1225.1938      	1225.2161      	1225.2183      	1225.1471      	1225.2307      	1225.2198      	1225.1957      	1225.2194      	1225.1925      	1225.2532      	1225.2168      	1225.2554      	1225.199       	1225.1821      	1225.2578      	1225.2343      	1225.3013      	1225.2579      	1225.2808      	1225.3718      	1224.831       	1224.753       	1224.9929      	1225.0308      	1225.1392      	
1225.297       	1225.2765      	1225.2815      	1225.3442      	1225.3556      	1225.3184      	1225.3044      	1225.321       	1225.3821      	1225.3752      	1225.295       	1225.3555      	1225.3557      	1225.3964      	1225.3906      	1225.3673      	1225.4631      	1225.3743      	1225.4291      	1225.3839      	1225.3973      	1225.4359      	1225.4142      	1225.3585      	1225.4514      	1225.3551      	1225.4146      	1225.3806      	1225.4132      	1225.4647      	1225.4558      	1225.4545      	1225.4006      	1225.4507      	1225.4128      	1225.3915      	1225.385       	1225.4249      	1225.4116      	1225.3969      	1225.43        	1225.3915      	1225.424       	1225.4379      	1225.4083      	1225.3744      	1225.3976      	1225.4099      	1225.4001      	1225.3826      	1225.393       	1225.4126      	1225.3942      	1225.3728      	1225.3517      	1225.3563      	1225.3547      	1225.2612      	1225.3346      	1225.3044      	1225.3347      	1225.2891      	1225.2821      	1225.3167      	1225.3157      	1225.2439      	1225.2859      	1225.2201      	1225.2626      	1225.2625      	1225.2141      	1225.2496      	1225.2329      	1225.24        	1225.2355      	1225.2184      	1225.1758      	1225.2356      	1225.1626      	1225.2664      	1225.1892      	1225.1796      	1225.1964      	1225.2222      	1225.243       	1225.2468      	1225.209       	1225.261       	1225.2332      	1225.2422      	1225.2756      	1224.8495      	1225.1024      	1225.2224      	1225.2341      	1225.1606      	1225.1245      	1225.2252      	1225.3484      	1225.3732      	
1225.339       	1225.2742      	1225.3448      	1225.3489      	1225.2838      	1225.3286      	1225.3337      	1225.3231      	1225.329       	1225.3451      	1225.366       	1225.34        	1225.2603      	1225.3755      	1225.3575      	1225.3552      	1225.356       	1225.3337      	1225.3771      	1225.3618      	1225.3552      	1225.4335      	1225.3772      	1225.3829      	1225.354       	1225.3625      	1225.3403      	1225.3606      	1225.3684      	1225.3501      	1225.3335      	1225.369       	1225.3689      	1225.321       	1225.4232      	1225.3215      	1225.3484      	1225.383       	1225.3518      	1225.3276      	1225.3579      	1225.3783      	1225.3639      	1225.3439      	1225.3654      	1225.3337      	1225.3882      	1225.3878      	1225.3713      	1225.3381      	1225.349       	1225.3916      	1225.3322      	1225.3376      	1225.259       	1225.3136      	1225.3055      	1225.3018      	1225.289       	1225.2673      	1225.2762      	1225.2551      	1225.2759      	1225.2716      	1225.2163      	1225.2566      	1225.2352      	1225.2003      	1225.2268      	1225.2394      	1225.2131      	1225.2219      	1225.1918      	1225.237       	1225.2305      	1225.1968      	1225.184       	1225.2002      	1225.1686      	1225.2001      	1225.2         	1225.1956      	1225.2523      	1225.2891      	1225.2673      	1224.9458      	1225.3331      	1225.0536      	1224.9666      	1225.2177      	1225.116       	1225.1733      	1225.1782      	1225.2429      	1225.334       	1225.3462      	1225.3873      	1225.3527      	1225.3013      	1225.3325      	
1225.358       	1225.3944      	1225.3308      	1225.4045      	1225.3577      	1225.4104      	1225.3866      	1225.3862      	1225.3995      	1225.3557      	1225.4132      	1225.3856      	1225.3806      	1225.4493      	1225.341       	1225.44        	1225.4028      	1225.4143      	1225.3947      	1225.4536      	1225.3701      	1225.4653      	1225.4712      	1225.3846      	1225.4154      	1225.4474      	1225.4362      	1225.414       	1225.3749      	1225.4578      	1225.427       	1225.4587      	1225.4138      	1225.4218      	1225.452       	1225.4198      	1225.3967      	1225.4598      	1225.426       	1225.4222      	1225.3815      	1225.4178      	1225.3973      	1225.405       	1225.4106      	1225.387       	1225.3608      	1225.4077      	1225.4106      	1225.411       	1225.4021      	1225.408       	1225.4165      	1225.3849      	1225.4005      	1225.3684      	1225.3816      	1225.2878      	1225.371       	1225.3132      	1225.3071      	1225.2659      	1225.26        	1225.299       	1225.244       	1225.2439      	1225.2358      	1225.1981      	1225.2255      	1225.2104      	1225.2637      	1225.196       	1225.2317      	1225.2257      	1225.2058      	1225.2163      	1225.1897      	1225.1647      	1225.2007      	1225.2981      	1225.1368      	1225.2731      	1225.3525      	1224.7365      	1224.938       	1225.1188      	1225.2009      	1225.3229      	1225.2032      	1225.323       	1225.301       	1225.3729      	1225.369       	1225.3749      	1225.3911      	1225.3821      	1225.413       	1225.3896      	1225.3944      	1225.4034      	
1225.3892      	1225.3976      	1225.3767      	1225.4419      	1225.4039      	1225.4094      	1225.5044      	1225.5127      	1225.3439      	1225.4413      	1225.4214      	1225.4205      	1225.4347      	1225.4419      	1225.4753      	1225.4607      	1225.4199      	1225.4723      	1225.4475      	1225.4325      	1225.443       	1225.501       	1225.4457      	1225.4681      	1225.4626      	1225.463       	1225.424       	1225.461       	1225.4689      	1225.4602      	1225.4421      	1225.503       	1225.4562      	1225.4316      	1225.4786      	1225.4576      	1225.4799      	1225.3403      	1225.4115      	1225.3726      	1225.368       	1225.346       	1225.3799      	1225.3624      	1225.4058      	1225.3843      	1225.373       	1225.3885      	1225.3849      	1225.395       	1225.342       	1225.3727      	1225.3738      	1225.3801      	1225.3798      	1225.3217      	1225.303       	1225.3351      	1225.309       	1225.3293      	1225.258       	1225.2722      	1225.2654      	1225.2742      	1225.231       	1225.2606      	1225.2291      	1225.2369      	1225.2162      	1225.2423      	1225.255       	1225.2277      	1225.2075      	1225.2203      	1225.2452      	1225.2374      	1225.2728      	1225.3965      	1224.8181      	1225.0245      	1225.0442      	1225.1619      	1225.2705      	1225.1882      	1225.163       	1225.3381      	1225.3783      	1225.3467      	1225.3937      	1225.4473      	1225.3772      	1225.4187      	1225.372       	1225.3811      	1225.4423      	1225.4347      	1225.4719      	1225.4686      	1225.3713      	1225.3987      	
1225.3544      	1225.3125      	1225.3391      	1225.363       	1225.3464      	1225.3402      	1225.3677      	1225.4027      	1225.365       	1225.371       	1225.3407      	1225.4226      	1225.3472      	1225.3962      	1225.4058      	1225.3995      	1225.3934      	1225.4647      	1225.3806      	1225.4303      	1225.3789      	1225.4175      	1225.4021      	1225.4038      	1225.4218      	1225.3937      	1225.3501      	1225.3806      	1225.3549      	1225.3512      	1225.3398      	1225.3495      	1225.3453      	1225.3865      	1225.3489      	1225.3972      	1225.3948      	1225.4396      	1225.3357      	1225.4113      	1225.3341      	1225.4067      	1225.3849      	1225.353       	1225.3773      	1225.3622      	1225.3768      	1225.351       	1225.3632      	1225.3472      	1225.3086      	1225.2963      	1225.3018      	1225.3041      	1225.2721      	1225.2899      	1225.2393      	1225.2759      	1225.2288      	1225.2616      	1225.2733      	1225.2861      	1225.2655      	1225.2758      	1225.261       	1225.258       	1225.2153      	1225.2437      	1225.2572      	1225.2349      	1225.2421      	1225.2156      	1225.2858      	1225.2283      	1225.2566      	1225.3486      	1224.8259      	1224.7483      	1225.0372      	1225.1812      	1225.223       	1225.2625      	1225.302       	1225.3735      	1225.3983      	1225.3735      	1225.3749      	1225.4034      	1225.4281      	1225.3855      	1225.3961      	1225.4441      	1225.442       	1225.4209      	1225.4225      	1225.4591      	1225.4358      	1225.4661      	1225.4486      	1225.4563      	
1225.2062      	1225.1614      	1225.2957      	1225.2427      	1225.2375      	1225.2637      	1225.2324      	1225.3016      	1225.2594      	1225.2488      	1225.253       	1225.2677      	1225.2561      	1225.2277      	1225.2444      	1225.2802      	1225.2717      	1225.287       	1225.3019      	1225.2424      	1225.2579      	1225.2827      	1225.26        	1225.2365      	1225.2147      	1225.2941      	1225.2505      	1225.2552      	1225.2401      	1225.2573      	1225.2064      	1225.2202      	1225.243       	1225.252       	1225.2343      	1225.3035      	1225.2583      	1225.2507      	1225.1984      	1225.2603      	1225.2081      	1225.214       	1225.231       	1225.2251      	1225.2466      	1225.2222      	1225.3049      	1225.1139      	1225.2529      	1225.2324      	1225.2544      	1225.2151      	1225.1827      	1225.2046      	1225.1526      	1225.0975      	1225.1925      	1225.1239      	1225.1506      	1225.0927      	1225.1078      	1225.1179      	1225.143       	1225.1079      	1225.1804      	1225.1239      	1225.1595      	1225.2076      	1225.1357      	1225.107       	1225.1488      	1225.1749      	1225.1624      	1225.1062      	1225.2501      	1224.754       	1224.7809      	1224.9056      	1225.0713      	1225.2698      	1225.2858      	1225.2927      	1225.2437      	1225.336       	1225.2788      	1225.2864      	1225.3108      	1225.2509      	1225.3097      	1225.3187      	1225.3804      	1225.3032      	1225.3508      	1225.3811      	1225.3989      	1225.3806      	1225.3973      	1225.4075      	1225.3705      	1225.3937      	
1225.2988      	1225.385       	1225.3757      	1225.3562      	1225.3142      	1225.4116      	1225.3525      	1225.3356      	1225.4034      	1225.3452      	1225.3999      	1225.3342      	1225.3789      	1225.3319      	1225.3705      	1225.369       	1225.3646      	1225.3396      	1225.3488      	1225.3192      	1225.3931      	1225.369       	1225.2942      	1225.3181      	1225.337       	1225.3157      	1225.3469      	1225.3442      	1225.2859      	1225.3699      	1225.3527      	1225.3025      	1225.3369      	1225.3224      	1225.3508      	1225.3367      	1225.3425      	1225.3264      	1225.3535      	1225.3044      	1225.3231      	1225.265       	1225.2894      	1225.2708      	1225.3142      	1225.259       	1225.287       	1225.1897      	1225.3175      	1225.3011      	1225.287       	1225.2821      	1225.2843      	1225.2883      	1225.246       	1225.2645      	1225.2454      	1225.2341      	1225.2178      	1225.1803      	1225.1814      	1225.2052      	1225.1799      	1225.1594      	1225.1993      	1225.1566      	1225.1504      	1225.1982      	1225.1436      	1225.1776      	1225.2068      	1225.1827      	1225.2117      	1225.2133      	1225.0125      	1224.6567      	1224.9329      	1225.0613      	1225.0515      	1225.2657      	1225.251       	1225.2932      	1225.2915      	1225.2979      	1225.3077      	1225.3259      	1225.3574      	1225.2767      	1225.3091      	1225.3542      	1225.3331      	1225.3546      	1225.3951      	1225.3706      	1225.4755      	1225.3512      	1225.3755      	1225.4174      	1225.4548      	1225.4592      	
1225.2902      	1225.251       	1225.2618      	1225.2853      	1225.2661      	1225.2749      	1225.2927      	1225.267       	1225.2965      	1225.2935      	1225.271       	1225.3099      	1225.3811      	1225.1505      	1225.3073      	1225.3364      	1225.2225      	1225.2986      	1225.3381      	1225.2819      	1225.2913      	1225.283       	1225.2495      	1225.281       	1225.2766      	1225.2948      	1225.2616      	1225.2792      	1225.2474      	1225.2815      	1225.2698      	1225.2574      	1225.2217      	1225.3306      	1225.255       	1225.2765      	1225.3162      	1225.295       	1225.2697      	1225.3247      	1225.2634      	1225.2996      	1225.2761      	1225.2413      	1225.3181      	1225.2869      	1225.3073      	1225.2983      	1225.2782      	1225.2638      	1225.3118      	1225.2582      	1225.2815      	1225.2294      	1225.2585      	1225.2657      	1225.2123      	1225.2653      	1225.2753      	1225.2627      	1225.2284      	1225.2761      	1225.2853      	1225.2317      	1225.287       	1225.1868      	1225.2776      	1225.1831      	1225.1969      	1225.1824      	1225.2345      	1225.2087      	1225.2219      	1225.2532      	1225.2322      	1224.7346      	1225.0444      	1225.0977      	1225.0936      	1225.2865      	1225.3124      	1225.3829      	1225.3163      	1225.407       	1225.3514      	1225.4042      	1225.3862      	1225.4243      	1225.3804      	1225.4027      	1225.4048      	1225.3846      	1225.4211      	1225.4283      	1225.4493      	1225.4683      	1225.4509      	1225.4248      	1225.4396      	1225.4196      	
1225.2723      	1225.2775      	1225.3091      	1225.2842      	1225.3169      	1225.3229      	1225.2961      	1225.2722      	1225.2731      	1225.2866      	1225.217       	1225.2349      	1225.2562      	1225.223       	1225.2638      	1225.2886      	1225.2583      	1225.2769      	1225.2532      	1225.2563      	1225.2314      	1225.2552      	1225.2328      	1225.2535      	1225.2753      	1225.2244      	1225.2639      	1225.2247      	1225.2213      	1225.2107      	1225.2367      	1225.1857      	1225.2151      	1225.2144      	1225.1687      	1225.2639      	1225.214       	1225.2251      	1225.2299      	1225.2798      	1225.2148      	1225.2573      	1225.2167      	1225.191       	1225.1534      	1225.2163      	1225.219       	1225.1959      	1225.2241      	1225.2158      	1225.2054      	1225.211       	1225.1818      	1225.1625      	1225.2053      	1225.131       	1225.1434      	1225.1942      	1225.1212      	1225.1365      	1225.1235      	1225.1108      	1225.1405      	1225.1243      	1225.1458      	1225.1335      	1225.0989      	1225.1064      	1225.119       	1225.1091      	1225.1473      	1225.1711      	1225.1798      	1225.1726      	1225.3496      	1224.6085      	1224.8186      	1224.9856      	1225.0128      	1225.1489      	1225.2233      	1225.2356      	1225.2831      	1225.2687      	1225.2323      	1225.2941      	1225.2714      	1225.2909      	1225.3456      	1225.3389      	1225.3026      	1225.3407      	1225.3066      	1225.3446      	1225.345       	1225.3358      	1225.3462      	1225.4061      	1225.3711      	1225.3768      	
1225.1482      	1225.1366      	1225.1829      	1225.1519      	1225.2037      	1225.1733      	1225.1458      	1225.1246      	1225.1672      	1225.1259      	1225.1428      	1225.1426      	1225.1207      	1225.1655      	1225.1571      	1225.2147      	1225.1887      	1225.13        	1225.1295      	1225.1561      	1225.151       	1225.1464      	1225.1594      	1225.1456      	1225.1555      	1225.1084      	1225.132       	1225.1365      	1225.1001      	1225.0906      	1225.0962      	1225.1304      	1225.1443      	1225.0966      	1225.0936      	1225.1456      	1225.1196      	1225.098       	1225.128       	1225.1062      	1225.1465      	1225.123       	1225.1466      	1225.073       	1225.0365      	1225.1276      	1225.1329      	1225.0879      	1225.0894      	1225.1254      	1225.0402      	1225.1063      	1225.0879      	1225.0957      	1225.039       	1225.0792      	1225.052       	1225.0863      	1225.0372      	1225.0688      	1225.0521      	1225.0006      	1225.0796      	1225.1056      	1225.1227      	1225.0643      	1225.0914      	1225.0721      	1225.1031      	1225.0426      	1225.0656      	1225.1218      	1225.1302      	1225.1345      	1225.2538      	1224.6082      	1224.9214      	1224.9862      	1225.0638      	1225.0903      	1225.2087      	1225.233       	1225.2157      	1225.2948      	1225.1991      	1225.2809      	1225.2693      	1225.2948      	1225.2742      	1225.3297      	1225.2905      	1225.2952      	1225.3257      	1225.3391      	1225.3033      	1225.3668      	1225.3042      	1225.3535      	1225.3477      	1225.279       	
1225.1184      	1225.1421      	1225.1516      	1225.1714      	1225.1483      	1225.1431      	1225.1488      	1225.1544      	1225.1243      	1225.1472      	1225.1385      	1225.0724      	1225.0854      	1225.0598      	1225.048       	1225.1024      	1225.0798      	1225.0685      	1225.1102      	1225.1025      	1225.0911      	1225.106       	1225.0997      	1225.0938      	1225.0549      	1225.1101      	1225.0748      	1225.0868      	1225.0513      	1225.087       	1225.0823      	1225.0798      	1225.1238      	1225.0671      	1225.1146      	1225.0892      	1225.072       	1225.0972      	1225.1003      	1225.0099      	1225.0503      	1225.115       	1225.039       	1225.0231      	1225.0037      	1225.0394      	1225.0355      	1225.0905      	1225.0397      	1225.0471      	1225.0748      	1225.0538      	1225.0143      	1225.0122      	1225.0176      	1225.0024      	1225.0941      	1224.9685      	1224.9595      	1225.075       	1224.9618      	1225.008       	1225.0416      	1225.022       	1225.0111      	1225.0293      	1225.0298      	1225.082       	1225.0353      	1225.0704      	1225.0236      	1225.0958      	1225.0682      	1225.094       	1225.2201      	1224.689       	1224.7877      	1224.9185      	1225.0079      	1224.9431      	1225.2096      	1225.1831      	1225.2633      	1225.1956      	1225.2363      	1225.2429      	1225.1814      	1225.2479      	1225.2427      	1225.2336      	1225.228       	1225.2781      	1225.2549      	1225.2509      	1225.2522      	1225.2703      	1225.2833      	1225.2751      	1225.2406      	1225.251       	
1225.1477      	1225.1398      	1225.1401      	1225.1135      	1225.1536      	1225.1105      	1225.1489      	1225.0764      	1225.1454      	1225.0731      	1225.1251      	1225.049       	1225.0826      	1225.0936      	1225.0299      	1225.0586      	1225.1199      	1225.0027      	1225.0536      	1225.1499      	1225.0873      	1225.0555      	1225.1079      	1225.0876      	1225.0587      	1225.0536      	1225.112       	1225.0643      	1225.0532      	1225.0831      	1225.0798      	1225.0995      	1225.1063      	1225.0552      	1225.124       	1225.0171      	1225.0864      	1225.067       	1225.0411      	1225.0691      	1225.1294      	1225.1042      	1225.0514      	1225.0967      	1224.7585      	1224.7917      	1224.7991      	1224.8508      	1225.0067      	1225.08        	1225.1002      	1225.1499      	1224.994       	1225.0562      	1225.006       	1225.0288      	1224.955       	1224.9742      	1224.9581      	1224.9583      	1224.9807      	1224.9696      	1225.0084      	1224.98        	1224.9546      	1225.0122      	1225.0527      	1225.0227      	1225.0012      	1225.0251      	1224.9557      	1225.0848      	1225.0527      	1225.0715      	1225.0815      	1225.1664      	1224.4872      	1224.8422      	1224.9321      	1224.9276      	1225.1552      	1225.2166      	1225.137       	1225.1969      	1225.2156      	1225.1812      	1225.2058      	1225.2272      	1225.1694      	1225.1583      	1225.23        	1225.2137      	1225.2384      	1225.2014      	1225.227       	1225.2648      	1225.2507      	1225.2166      	1225.217       	1225.2224      	
1225.2129      	1225.1873      	1225.1913      	1225.1764      	1225.1748      	1225.1737      	1225.0916      	1225.1667      	1225.1367      	1225.1407      	1225.1659      	1225.1346      	1225.1476      	1225.0703      	1225.0166      	1225.1445      	1225.0808      	1225.1489      	1225.1567      	1225.1528      	1225.0806      	1225.1544      	1225.1638      	1225.1063      	1225.1436      	1225.1466      	1225.1012      	1225.1041      	1225.0759      	1225.1792      	1225.0835      	1225.1355      	1225.0153      	1225.1375      	1225.0422      	1225.1132      	1225.1074      	1225.1194      	1225.2013      	1224.8826      	1224.9982      	1224.9255      	1224.8274      	1224.9083      	1224.9579      	1224.9563      	1224.9974      	1224.9993      	1225.0353      	1225.1458      	1225.2509      	1225.2384      	1225.5695      	1225.1304      	1225.0792      	1225.1038      	1225.0117      	1225.0625      	1225.0573      	1225.0066      	1225.0254      	1225.0476      	1224.9824      	1225.1366      	1225.0835      	1225.0509      	1225.1256      	1225.0935      	1225.2017      	1225.1427      	1225.0837      	1225.1466      	1225.1263      	1225.1771      	1225.1996      	1225.2649      	1224.5778      	1224.9312      	1225.0614      	1225.0929      	1225.1434      	1225.2888      	1225.3021      	1225.291       	1225.235       	1225.3156      	1225.2854      	1225.3164      	1225.302       	1225.2987      	1225.3137      	1225.3191      	1225.3262      	1225.3162      	1225.3574      	1225.2844      	1225.3483      	1225.3192      	1225.2826      	1225.3142      	
1225.338       	1225.3583      	1225.304       	1225.3638      	1225.2979      	1225.3523      	1225.2452      	1225.274       	1225.3163      	1225.2859      	1225.3279      	1225.2603      	1225.2994      	1225.2386      	1225.3116      	1225.1913      	1225.2361      	1225.2816      	1225.2634      	1225.1624      	1225.2294      	1225.2369      	1225.3035      	1225.1931      	1225.2517      	1225.2595      	1225.312       	1225.1736      	1225.2859      	1225.2684      	1225.2162      	1225.3054      	1225.2429      	1225.3386      	1225.474       	1225.1833      	1224.9685      	1224.8462      	1224.8911      	1225.0708      	1225.1433      	1225.1709      	1225.2113      	1225.2097      	1225.2186      	1225.3087      	1225.1497      	1225.146       	1225.1978      	1225.2612      	1225.3662      	1225.4524      	1225.5953      	1225.4014      	1225.2156      	1225.2151      	1225.1775      	1225.1791      	1225.1256      	1225.1769      	1225.1882      	1225.1559      	1225.1736      	1225.2014      	1225.1537      	1225.1653      	1225.1461      	1225.1359      	1225.2377      	1225.2292      	1225.1892      	1225.2246      	1225.1786      	1225.2551      	1225.3048      	1225.3651      	1224.7716      	1225.0503      	1225.0852      	1225.1526      	1225.1477      	1225.3215      	1225.3837      	1225.338       	1225.3524      	1225.3384      	1225.339       	1225.4126      	1225.3912      	1225.3807      	1225.4012      	1225.3801      	1225.3751      	1225.3987      	1225.4045      	1225.3987      	1225.4146      	1225.3948      	1225.3083      	1225.3368      	
1225.4388      	1225.4406      	1225.4482      	1225.3856      	1225.4524      	1225.4276      	1225.4382      	1225.4081      	1225.4001      	1225.4509      	1225.4247      	1225.3993      	1225.4331      	1225.3755      	1225.4021      	1225.3712      	1225.3429      	1225.3435      	1225.4026      	1225.3339      	1225.3732      	1225.4329      	1225.4473      	1225.3712      	1225.4237      	1225.3298      	1225.3771      	1225.4004      	1225.3632      	1225.3575      	1225.423       	1225.4252      	1225.0796      	1225.0344      	1225.1521      	1225.1917      	1225.2437      	1225.26        	1225.2894      	1225.3591      	1225.3097      	1225.295       	1225.3794      	1225.3152      	1225.4127      	1225.2374      	1225.311       	1225.3677      	1225.2335      	1225.3928      	1225.4166      	1225.4724      	1225.6417      	1225.551       	1225.3748      	1225.2898      	1225.2316      	1225.2922      	1225.285       	1225.2474      	1225.3097      	1225.2852      	1225.321       	1225.3198      	1225.3547      	1225.3284      	1225.2814      	1225.3484      	1225.3851      	1225.4016      	1225.3535      	1225.4465      	1225.3894      	1225.4015      	1225.4142      	1225.4381      	1225.3915      	1224.9888      	1225.2251      	1225.3586      	1225.295       	1225.47        	1225.4553      	1225.5173      	1225.4556      	1225.4722      	1225.5242      	1225.5181      	1225.5338      	1225.5643      	1225.513       	1225.5709      	1225.5009      	1225.5815      	1225.5376      	1225.5195      	1225.5651      	1225.4342      	1225.3958      	1225.4767      	
1225.6228      	1225.7081      	1225.5092      	1225.5682      	1225.614       	1225.5978      	1225.5687      	1225.5491      	1225.4983      	1225.565       	1225.5857      	1225.5237      	1225.5671      	1225.4956      	1225.5342      	1225.4983      	1225.4333      	1225.4343      	1225.5416      	1225.4637      	1225.4976      	1225.4624      	1225.594       	1225.4797      	1225.5479      	1225.5242      	1225.584       	1225.5739      	1225.1635      	1225.1804      	1225.325       	1225.5138      	1225.1532      	1225.4178      	1225.3315      	1225.491       	1225.4526      	1225.4656      	1225.4637      	1225.4458      	1225.4856      	1225.4692      	1225.4315      	1225.4392      	1225.4562      	1225.4575      	1225.3915      	1225.4258      	1225.4924      	1225.4279      	1225.4928      	1225.586       	1225.6248      	1225.7108      	1225.5603      	1225.3511      	1225.3577      	1225.4552      	1225.3749      	1225.4186      	1225.4052      	1225.4568      	1225.4324      	1225.4683      	1225.4484      	1225.4988      	1225.468       	1225.549       	1225.5018      	1225.5111      	1225.521       	1225.5304      	1225.5774      	1225.5872      	1225.6246      	1225.6284      	1225.591       	1225.095       	1225.314       	1225.3994      	1225.4547      	1225.551       	1225.6113      	1225.6155      	1225.632       	1225.6277      	1225.5979      	1225.6106      	1225.6523      	1225.6306      	1225.6707      	1225.6302      	1225.6716      	1225.6667      	1225.6583      	1225.6149      	1225.6814      	1225.6437      	1225.6604      	1225.659       	
1225.7583      	1225.7224      	1225.7032      	1225.7217      	1225.7281      	1225.6865      	1225.6062      	1225.6829      	1225.6888      	1225.6589      	1225.6156      	1225.6222      	1225.6887      	1225.6404      	1225.6112      	1225.6521      	1225.6877      	1225.5408      	1225.6241      	1225.7103      	1225.683       	1225.6354      	1225.7345      	1225.59        	1225.2715      	1225.3746      	1225.3723      	1225.5262      	1225.4735      	1225.631       	1225.572       	1225.6157      	1225.5886      	1225.596       	1225.6034      	1225.7185      	1225.5944      	1225.6438      	1225.6255      	1225.627       	1225.6393      	1225.6056      	1225.658       	1225.6024      	1225.5858      	1225.632       	1225.5784      	1225.5145      	1225.7292      	1225.5602      	1225.5953      	1225.8503      	1225.8757      	1225.7904      	1225.7505      	1225.5479      	1225.5656      	1225.5569      	1225.5558      	1225.5028      	1225.5507      	1225.6521      	1225.553       	1225.546       	1225.5756      	1225.5897      	1225.5514      	1225.6216      	1225.6593      	1225.6758      	1225.6617      	1225.564       	1225.6326      	1225.7216      	1225.6868      	1225.7898      	1225.844       	1225.1288      	1225.547       	1225.5835      	1225.5447      	1225.6666      	1225.6913      	1225.824       	1225.7563      	1225.7576      	1225.7654      	1225.7773      	1225.7528      	1225.7981      	1225.7792      	1225.8733      	1225.7283      	1225.796       	1225.7615      	1225.8027      	1225.8071      	1225.7677      	1225.7623      	1225.7616      	
1225.6914      	1225.72        	1225.7856      	1225.7316      	1225.7239      	1225.6041      	1225.8193      	1225.6477      	1225.6833      	1225.7252      	1225.6355      	1225.7102      	1225.6876      	1225.6844      	1225.5969      	1225.768       	1225.6274      	1225.5691      	1225.727       	1225.7643      	1225.4246      	1225.3184      	1225.3708      	1225.5066      	1225.5037      	1225.6357      	1225.6696      	1225.5879      	1225.6993      	1225.5901      	1225.7048      	1225.7358      	1225.7195      	1225.6267      	1225.6981      	1225.633       	1225.6346      	1225.7396      	1225.7058      	1225.6348      	1225.6497      	1225.715       	1225.7404      	1225.8177      	1225.7214      	1225.6132      	1225.6746      	1225.7627      	1225.6993      	1225.6311      	1225.7212      	1225.8351      	1225.8445      	1226.0703      	1225.9829      	1225.7085      	1225.6287      	1225.6702      	1225.6866      	1225.6666      	1225.7427      	1225.6707      	1225.7113      	1225.726       	1225.7267      	1225.7299      	1225.7684      	1225.6598      	1225.7389      	1225.812       	1225.7499      	1225.8276      	1225.76        	1225.8197      	1225.765       	1225.8835      	1225.9979      	1225.3635      	1225.4757      	1225.6582      	1225.7126      	1225.6758      	1225.7168      	1225.9065      	1225.845       	1225.8416      	1225.8866      	1225.8436      	1225.8583      	1225.8429      	1225.9294      	1225.8823      	1225.8677      	1225.8483      	1225.8394      	1225.8031      	1225.8331      	1225.8394      	1225.8555      	1225.8651      	
1225.6515      	1225.6584      	1225.5726      	1225.6624      	1225.6046      	1225.5565      	1225.6124      	1225.5792      	1225.5923      	1225.612       	1225.6284      	1225.5399      	1225.6205      	1225.5729      	1225.5488      	1225.6377      	1225.3234      	1225.0118      	1225.3796      	1225.5525      	1225.4822      	1225.5408      	1225.5034      	1225.5118      	1225.6411      	1225.6005      	1225.5555      	1225.6172      	1225.5815      	1225.5564      	1225.6133      	1225.5647      	1225.6117      	1225.5981      	1225.5577      	1225.5802      	1225.547       	1225.6232      	1225.6194      	1225.5499      	1225.6118      	1225.5288      	1225.644       	1225.5603      	1225.5789      	1225.6248      	1225.5769      	1225.5922      	1225.5886      	1225.5396      	1225.5724      	1225.737       	1225.7917      	1225.9149      	1225.8907      	1225.644       	1225.6273      	1225.5637      	1225.6497      	1225.584       	1225.6116      	1225.6482      	1225.6653      	1225.6083      	1225.6365      	1225.6897      	1225.6667      	1225.6903      	1225.6865      	1225.6775      	1225.6599      	1225.7081      	1225.7325      	1225.7842      	1225.7502      	1225.7147      	1225.784       	1225.6511      	1225.2963      	1225.5665      	1225.6477      	1225.6636      	1225.7454      	1225.8434      	1225.7565      	1225.8182      	1225.7589      	1225.8312      	1225.8174      	1225.793       	1225.8192      	1225.7805      	1225.8318      	1225.7878      	1225.789       	1225.7964      	1225.7781      	1225.7848      	1225.7825      	1225.7512      	
1225.3944      	1225.4077      	1225.3861      	1225.4556      	1225.3651      	1225.4235      	1225.4281      	1225.3864      	1225.4375      	1225.3236      	1225.4294      	1225.3531      	1225.4463      	1225.446       	1225.4686      	1224.8593      	1224.9614      	1225.0154      	1225.2317      	1225.3882      	1225.4258      	1225.3661      	1225.4827      	1225.3767      	1225.356       	1225.4087      	1225.3839      	1225.4039      	1225.4049      	1225.4174      	1225.4246      	1225.4208      	1225.3872      	1225.3948      	1225.4298      	1225.4087      	1225.3788      	1225.4872      	1225.4247      	1225.4216      	1225.3888      	1225.4557      	1225.4454      	1225.421       	1225.476       	1225.4412      	1225.4722      	1225.4032      	1225.4634      	1225.3585      	1225.4326      	1225.4825      	1225.6652      	1225.6492      	1225.698       	1225.5122      	1225.3497      	1225.3817      	1225.4335      	1225.3027      	1225.461       	1225.4537      	1225.378       	1225.374       	1225.4841      	1225.469       	1225.4766      	1225.382       	1225.4813      	1225.5586      	1225.5619      	1225.545       	1225.5886      	1225.6259      	1225.5972      	1225.477       	1225.6838      	1225.5464      	1225.119       	1225.3514      	1225.5007      	1225.4155      	1225.5276      	1225.6438      	1225.593       	1225.5763      	1225.6093      	1225.5791      	1225.6277      	1225.5857      	1225.62        	1225.629       	1225.6414      	1225.636       	1225.6101      	1225.6343      	1225.619       	1225.6323      	1225.6241      	1225.5997      	
1225.3425      	1225.3367      	1225.355       	1225.4452      	1225.2992      	1225.3735      	1225.3992      	1225.2172      	1225.3555      	1225.3698      	1225.203       	1225.3729      	1225.3676      	1225.3655      	1224.9722      	1224.8048      	1225.0897      	1225.1417      	1225.2899      	1225.4309      	1225.3193      	1225.3619      	1225.3783      	1225.3866      	1225.352       	1225.328       	1225.351       	1225.2964      	1225.3333      	1225.3376      	1225.3124      	1225.3772      	1225.2985      	1225.3159      	1225.3341      	1225.2521      	1225.3536      	1225.2717      	1225.2574      	1225.2767      	1225.2585      	1225.2397      	1225.3179      	1225.3169      	1225.256       	1225.3425      	1225.2762      	1225.2755      	1225.3187      	1225.3145      	1225.2922      	1225.4062      	1225.5253      	1225.6509      	1225.6307      	1225.4093      	1225.3262      	1225.3508      	1225.4221      	1225.3884      	1225.392       	1225.3132      	1225.4318      	1225.4822      	1225.3458      	1225.4224      	1225.4441      	1225.4675      	1225.4924      	1225.4988      	1225.4486      	1225.4061      	1225.5009      	1225.491       	1225.4777      	1225.533       	1225.5177      	1225.5906      	1224.9413      	1225.3016      	1225.3601      	1225.3439      	1225.3582      	1225.458       	1225.5244      	1225.5159      	1225.507       	1225.547       	1225.4819      	1225.497       	1225.5763      	1225.5267      	1225.5011      	1225.5013      	1225.5151      	1225.4957      	1225.4875      	1225.49        	1225.4705      	1225.459       	
1225.3173      	1225.2891      	1225.2964      	1225.3134      	1225.257       	1225.2909      	1225.252       	1225.2666      	1225.2775      	1225.2102      	1225.255       	1225.3121      	1225.298       	1225.3733      	1224.7402      	1224.9022      	1225.1483      	1225.0883      	1225.0616      	1225.2705      	1225.2812      	1225.304       	1225.2745      	1225.2866      	1225.3157      	1225.2882      	1225.3147      	1225.313       	1225.3434      	1225.2762      	1225.3076      	1225.297       	1225.3313      	1225.348       	1225.3073      	1225.282       	1225.3448      	1225.3151      	1225.303       	1225.3427      	1225.3009      	1225.3562      	1225.3291      	1225.3651      	1225.315       	1225.3495      	1225.3346      	1225.377       	1225.3387      	1225.3231      	1225.327       	1225.4272      	1225.5206      	1225.5643      	1225.6738      	1225.5817      	1225.2805      	1225.3845      	1225.3175      	1225.3534      	1225.3679      	1225.3854      	1225.3726      	1225.3591      	1225.3405      	1225.3978      	1225.374       	1225.3895      	1225.4486      	1225.3934      	1225.4114      	1225.4849      	1225.4796      	1225.4661      	1225.4312      	1225.4651      	1225.5507      	1225.4679      	1225.3552      	1225.0068      	1225.181       	1225.2306      	1225.2745      	1225.426       	1225.4614      	1225.4583      	1225.4542      	1225.4135      	1225.4128      	1225.4634      	1225.4282      	1225.4231      	1225.4178      	1225.4387      	1225.4193      	1225.4382      	1225.4178      	1225.4021      	1225.416       	1225.41        	
1225.3241      	1225.3837      	1225.2395      	1225.3094      	1225.3738      	1225.287       	1225.3386      	1225.3257      	1225.2618      	1225.3298      	1225.2716      	1225.267       	1225.3257      	1225.3861      	1225.2449      	1224.7921      	1225.0654      	1225.1779      	1225.2308      	1225.3859      	1225.351       	1225.3475      	1225.3733      	1225.3428      	1225.3083      	1225.3717      	1225.3513      	1225.3087      	1225.404       	1225.3668      	1225.287       	1225.3718      	1225.3381      	1225.2756      	1225.3683      	1225.4056      	1225.3676      	1225.3632      	1225.3616      	1225.3134      	1225.3506      	1225.3374      	1225.3005      	1225.386       	1225.3075      	1225.3732      	1225.399       	1225.2896      	1225.3359      	1225.3815      	1225.4138      	1225.3402      	1225.5021      	1225.5353      	1225.6007      	1225.6523      	1225.2351      	1225.3826      	1225.3254      	1225.346       	1225.3376      	1225.3499      	1225.3505      	1225.4122      	1225.3717      	1225.4292      	1225.4257      	1225.4221      	1225.4612      	1225.4413      	1225.4208      	1225.4923      	1225.4872      	1225.4631      	1225.5278      	1225.5009      	1225.4602      	1225.4874      	1225.4794      	1224.8932      	1225.1833      	1225.2538      	1225.317       	1225.3856      	1225.4581      	1225.4957      	1225.4272      	1225.4431      	1225.455       	1225.4465      	1225.4358      	1225.4164      	1225.4077      	1225.4536      	1225.4478      	1225.3928      	1225.3833      	1225.4075      	1225.435       	1225.4318      	
1225.3744      	1225.4396      	1225.3744      	1225.3644      	1225.3291      	1225.3807      	1225.3613      	1225.3209      	1225.3146      	1225.2983      	1225.4628      	1225.3156      	1225.3608      	1225.4532      	1225.4679      	1224.7214      	1225.1642      	1225.2551      	1225.2672      	1225.3002      	1225.3914      	1225.4534      	1225.401       	1225.4113      	1225.4227      	1225.3951      	1225.4445      	1225.4034      	1225.3845      	1225.413       	1225.3574      	1225.3723      	1225.4231      	1225.4047      	1225.4142      	1225.3475      	1225.3737      	1225.3514      	1225.3625      	1225.412       	1225.4031      	1225.362       	1225.4067      	1225.4275      	1225.4185      	1225.3982      	1225.3983      	1225.4316      	1225.4281      	1225.3707      	1225.4321      	1225.4048      	1225.5481      	1225.6018      	1225.7384      	1225.7538      	1225.432       	1225.3524      	1225.4294      	1225.413       	1225.375       	1225.4637      	1225.3878      	1225.3741      	1225.4113      	1225.4998      	1225.4669      	1225.4877      	1225.3905      	1225.4741      	1225.5242      	1225.4657      	1225.4823      	1225.4735      	1225.5142      	1225.4835      	1225.4923      	1225.507       	1225.5095      	1224.8627      	1225.2294      	1225.2214      	1225.2775      	1225.4113      	1225.4236      	1225.5114      	1225.4277      	1225.46        	1225.4674      	1225.4525      	1225.3799      	1225.4364      	1225.4772      	1225.3439      	1225.4987      	1225.4501      	1225.4368      	1225.419       	1225.3853      	1225.3584      	
1225.4672      	1225.4572      	1225.4324      	1225.4319      	1225.4574      	1225.3324      	1225.4249      	1225.3673      	1225.4991      	1225.375       	1225.3838      	1225.4315      	1225.3932      	1225.5194      	1225.5349      	1225.1318      	1225.1274      	1225.2778      	1225.2538      	1225.3622      	1225.5349      	1225.442       	1225.5128      	1225.5138      	1225.4689      	1225.5112      	1225.4808      	1225.51        	1225.5287      	1225.4836      	1225.5249      	1225.4889      	1225.5433      	1225.5177      	1225.4984      	1225.5208      	1225.4797      	1225.5151      	1225.518       	1225.4958      	1225.4989      	1225.4686      	1225.4788      	1225.4878      	1225.4558      	1225.5479      	1225.4816      	1225.4806      	1225.5779      	1225.5033      	1225.4713      	1225.4987      	1225.5658      	1225.6958      	1225.746       	1225.8733      	1225.6489      	1225.3853      	1225.4233      	1225.5101      	1225.4716      	1225.5262      	1225.4338      	1225.5135      	1225.5739      	1225.518       	1225.4956      	1225.5759      	1225.5708      	1225.4747      	1225.5316      	1225.5706      	1225.5828      	1225.5361      	1225.5298      	1225.4985      	1225.4679      	1225.5323      	1225.6045      	1224.9305      	1225.1777      	1225.2495      	1225.3036      	1225.4451      	1225.426       	1225.4816      	1225.468       	1225.4447      	1225.4326      	1225.4187      	1225.4641      	1225.5143      	1225.3956      	1225.4155      	1225.4302      	1225.3967      	1225.3774      	1225.3934      	1225.366       	1225.3306      	
1225.4536      	1225.3873      	1225.391       	1225.328       	1225.3899      	1225.3466      	1225.3878      	1225.3479      	1225.3784      	1225.4468      	1225.2954      	1225.3953      	1225.4393      	1225.4143      	1225.3861      	1225.3348      	1224.9196      	1225.2616      	1225.3093      	1225.3087      	1225.4478      	1225.4792      	1225.5231      	1225.4733      	1225.47        	1225.5066      	1225.4894      	1225.4513      	1225.4459      	1225.4966      	1225.429       	1225.4534      	1225.4797      	1225.4725      	1225.4799      	1225.4904      	1225.4385      	1225.4873      	1225.4622      	1225.4833      	1225.5332      	1225.5089      	1225.5286      	1225.4987      	1225.4706      	1225.5156      	1225.5071      	1225.4907      	1225.5012      	1225.4706      	1225.5001      	1225.3885      	1225.543       	1225.6511      	1225.7709      	1225.7495      	1225.6327      	1225.4802      	1225.5084      	1225.5286      	1225.4021      	1225.5398      	1225.536       	1225.5532      	1225.607       	1225.4874      	1225.6158      	1225.5555      	1225.4923      	1225.5145      	1225.5863      	1225.6189      	1225.5127      	1225.6519      	1225.554       	1225.534       	1225.4849      	1225.5837      	1225.6202      	1225.1808      	1225.1565      	1225.2496      	1225.3529      	1225.418       	1225.4387      	1225.5343      	1225.5176      	1225.4813      	1225.5254      	1225.506       	1225.537       	1225.5118      	1225.4829      	1225.5242      	1225.508       	1225.455       	1225.4666      	1225.4646      	1225.455       	1225.4366      	
1225.4446      	1225.4186      	1225.4763      	1225.4272      	1225.3766      	1225.4939      	1225.4855      	1225.3445      	1225.4928      	1225.4846      	1225.4886      	1225.4623      	1225.4587      	1225.4973      	1225.505       	1225.551       	1224.9321      	1225.3073      	1225.2798      	1225.3098      	1225.5107      	1225.5013      	1225.6019      	1225.5232      	1225.5507      	1225.554       	1225.5154      	1225.5372      	1225.4714      	1225.5548      	1225.528       	1225.5164      	1225.5161      	1225.5393      	1225.5747      	1225.5238      	1225.5167      	1225.5144      	1225.5739      	1225.4882      	1225.548       	1225.5393      	1225.4766      	1225.5886      	1225.5425      	1225.5708      	1225.5531      	1225.5637      	1225.557       	1225.5304      	1225.6321      	1225.4415      	1225.6023      	1225.7244      	1225.7427      	1225.9707      	1225.8176      	1225.5414      	1225.5793      	1225.47        	1225.5594      	1225.5616      	1225.5636      	1225.6068      	1225.5443      	1225.5812      	1225.5906      	1225.5593      	1225.4995      	1225.5842      	1225.503       	1225.6473      	1225.5024      	1225.5404      	1225.4679      	1225.5074      	1225.5002      	1225.4431      	1225.5804      	1225.1135      	1225.1755      	1225.1823      	1225.269       	1225.2097      	1225.4215      	1225.4049      	1225.4354      	1225.4788      	1225.4207      	1225.3815      	1225.4192      	1225.411       	1225.3883      	1225.3651      	1225.3618      	1225.3865      	1225.406       	1225.387       	1225.3807      	1225.3685      	
1225.7198      	1225.7238      	1225.7156      	1225.7384      	1225.7244      	1225.7026      	1225.6971      	1225.7148      	1225.7162      	1225.6936      	1225.71        	1225.7092      	1225.6827      	1225.7036      	1225.707       	1225.868       	1225.2521      	1225.4495      	1225.5441      	1225.5983      	1225.7207      	1225.7501      	1225.7266      	1225.749       	1225.7524      	1225.7869      	1225.7917      	1225.6796      	1225.8029      	1225.6685      	1225.7301      	1225.727       	1225.7089      	1225.7128      	1225.7051      	1225.7108      	1225.7032      	1225.646       	1225.6794      	1225.6469      	1225.624       	1225.7288      	1225.6697      	1225.7747      	1225.6326      	1225.7633      	1225.7494      	1225.7075      	1225.7407      	1225.7499      	1225.7877      	1225.698       	1225.7393      	1225.8044      	1225.947       	1226.0054      	1226.1321      	1225.713       	1225.6478      	1225.705       	1225.765       	1225.7286      	1225.7275      	1225.7296      	1225.7019      	1225.6765      	1225.6823      	1225.6398      	1225.7444      	1225.6128      	1225.7478      	1225.6562      	1225.6729      	1225.7173      	1225.6377      	1225.624       	1225.6736      	1225.6534      	1225.6971      	1225.4341      	1225.2218      	1225.2892      	1225.3423      	1225.4441      	1225.5735      	1225.4958      	1225.4519      	1225.5826      	1225.4578      	1225.5712      	1225.5415      	1225.5646      	1225.5275      	1225.5255      	1225.4939      	1225.4667      	1225.4512      	1225.4385      	1225.4558      	1225.4539      	
1226.0111      	1225.978       	1225.9922      	1225.9485      	1225.9546      	1225.9081      	1225.9894      	1226.0018      	1226.0422      	1225.9501      	1225.9108      	1226.0768      	1226.0151      	1226.0219      	1226.0385      	1226.1487      	1225.494       	1225.7944      	1225.9504      	1225.855       	1225.8809      	1226.011       	1226.0697      	1226.0527      	1226.0625      	1226.0176      	1226.0536      	1226.0259      	1226.0422      	1226.06        	1226.0764      	1226.023       	1226.0386      	1226.0463      	1226.0288      	1226.0594      	1226.0138      	1226.054       	1226.0135      	1226.0469      	1226.0498      	1226.0143      	1226.0298      	1226.0393      	1226.0453      	1226.0078      	1226.0256      	1226.0422      	1226.0367      	1226.0452      	1226.0992      	1226.0466      	1226.0261      	1226.1         	1226.3665      	1226.2048      	1226.4236      	1226.1233      	1226.0872      	1226.0363      	1226.0427      	1226.0553      	1226.0641      	1226.0762      	1226.0312      	1226.0372      	1226.0437      	1226.026       	1226.0675      	1226.0154      	1226.0328      	1226.0304      	1226.0244      	1226.0168      	1225.9979      	1225.9774      	1225.97        	1225.9768      	1226.0265      	1225.9907      	1225.329       	1225.722       	1225.7847      	1225.6895      	1225.881       	1225.8989      	1225.9386      	1225.8313      	1225.9221      	1225.8586      	1225.8416      	1225.8817      	1225.9452      	1225.8776      	1225.8861      	1225.8431      	1225.8596      	1225.8506      	1225.7849      	1225.8417      	
1226.2411      	1226.3495      	1226.2883      	1226.3429      	1226.3302      	1226.2645      	1226.2958      	1226.3717      	1226.3167      	1226.3179      	1226.3578      	1226.3485      	1226.4286      	1226.3682      	1226.3356      	1226.4585      	1226.2906      	1225.8765      	1226.0714      	1226.2745      	1226.1816      	1226.4077      	1226.345       	1226.4749      	1226.3197      	1226.428       	1226.3561      	1226.3743      	1226.3796      	1226.3871      	1226.3578      	1226.3995      	1226.3665      	1226.3684      	1226.3425      	1226.3586      	1226.368       	1226.3599      	1226.3319      	1226.4579      	1226.399       	1226.3817      	1226.3901      	1226.3868      	1226.4109      	1226.4015      	1226.3989      	1226.4292      	1226.4138      	1226.4344      	1226.4357      	1226.4185      	1226.394       	1226.4382      	1226.5671      	1226.6681      	1226.5643      	1226.3611      	1226.3773      	1226.3217      	1226.4011      	1226.2328      	1226.4092      	1226.342       	1226.3951      	1226.3413      	1226.39        	1226.3666      	1226.3746      	1226.3235      	1226.2922      	1226.3789      	1226.2495      	1226.3079      	1226.3276      	1226.3007      	1226.2279      	1226.2847      	1226.2893      	1226.313       	1225.7577      	1225.832       	1225.9459      	1226.0931      	1226.0613      	1226.1924      	1226.1877      	1226.1782      	1226.1708      	1226.205       	1226.2102      	1226.2052      	1226.1495      	1226.2188      	1226.1451      	1226.1458      	1226.131       	1226.1393      	1226.1511      	1226.1362      	
1226.4388      	1226.3738      	1226.4291      	1226.5021      	1226.3507      	1226.4894      	1226.4163      	1226.4866      	1226.4375      	1226.4641      	1226.4113      	1226.4286      	1226.4675      	1226.5698      	1226.4138      	1226.5226      	1226.5719      	1226.0021      	1226.2566      	1226.2502      	1226.3704      	1226.507       	1226.4465      	1226.4202      	1226.6106      	1226.3917      	1226.5905      	1226.5748      	1226.5056      	1226.4885      	1226.5477      	1226.5067      	1226.4862      	1226.5405      	1226.5186      	1226.5503      	1226.5012      	1226.518       	1226.5143      	1226.5522      	1226.5564      	1226.549       	1226.552       	1226.535       	1226.5614      	1226.545       	1226.5535      	1226.5665      	1226.5563      	1226.5586      	1226.5631      	1226.5802      	1226.5521      	1226.5468      	1226.5762      	1226.8182      	1226.8873      	1227.0076      	1226.6342      	1226.5312      	1226.5795      	1226.5243      	1226.5492      	1226.5867      	1226.5343      	1226.5366      	1226.548       	1226.5181      	1226.5278      	1226.4897      	1226.5247      	1226.5128      	1226.4913      	1226.4692      	1226.4556      	1226.4685      	1226.453       	1226.491       	1226.4657      	1226.4932      	1226.1041      	1226.0071      	1226.1682      	1226.2327      	1226.2622      	1226.4402      	1226.3734      	1226.4396      	1226.409       	1226.3811      	1226.3875      	1226.4326      	1226.3961      	1226.3015      	1226.3077      	1226.338       	1226.3367      	1226.5033      	1226.4263      	1226.3602      	
1226.371       	1226.3884      	1226.4009      	1226.5189      	1226.4042      	1226.3636      	1226.47        	1226.4618      	1226.4204      	1226.5165      	1226.4641      	1226.562       	1226.4049      	1226.4993      	1226.5112      	1226.5287      	1226.5939      	1225.9487      	1226.2677      	1226.3123      	1226.3995      	1226.4528      	1226.5847      	1226.5908      	1226.5726      	1226.552       	1226.5522      	1226.5509      	1226.5594      	1226.549       	1226.5634      	1226.5363      	1226.5217      	1226.5482      	1226.5306      	1226.543       	1226.5029      	1226.487       	1226.5077      	1226.5295      	1226.4752      	1226.5416      	1226.5167      	1226.5105      	1226.5212      	1226.5671      	1226.5372      	1226.5405      	1226.5369      	1226.5988      	1226.5594      	1226.5305      	1226.5017      	1226.5167      	1226.6447      	1226.6741      	1226.7108      	1226.9227      	1226.5942      	1226.4501      	1226.5061      	1226.528       	1226.5107      	1226.5103      	1226.5248      	1226.513       	1226.471       	1226.4961      	1226.4233      	1226.4238      	1226.4679      	1226.4299      	1226.2814      	1226.4486      	1226.4336      	1226.411       	1226.3445      	1226.3279      	1226.3657      	1226.4185      	1226.121       	1225.8529      	1226.0911      	1226.1304      	1226.0702      	1226.2306      	1226.2803      	1226.2878      	1226.1833      	1226.2288      	1226.3201      	1226.3062      	1226.2915      	1226.2482      	1226.3016      	1226.3774      	1226.3035      	1226.438       	1226.4241      	1226.4481      	
1226.2632      	1226.3877      	1226.3667      	1226.3293      	1226.4203      	1226.3367      	1226.3542      	1226.414       	1226.444       	1226.3524      	1226.3441      	1226.3892      	1226.4636      	1226.404       	1226.4509      	1226.3898      	1226.6239      	1226.1492      	1226.1022      	1226.238       	1226.2577      	1226.3218      	1226.4515      	1226.4891      	1226.5088      	1226.4833      	1226.4794      	1226.4806      	1226.4822      	1226.4487      	1226.4446      	1226.45        	1226.4629      	1226.4403      	1226.4374      	1226.4227      	1226.448       	1226.4202      	1226.4536      	1226.4479      	1226.4423      	1226.4244      	1226.4347      	1226.4807      	1226.4694      	1226.4641      	1226.4963      	1226.4885      	1226.5205      	1226.5226      	1226.5254      	1226.5427      	1226.553       	1226.4836      	1226.5618      	1226.6484      	1226.7837      	1226.7902      	1226.7206      	1226.5245      	1226.4961      	1226.5002      	1226.5283      	1226.5405      	1226.5468      	1226.466       	1226.4935      	1226.4645      	1226.3906      	1226.4534      	1226.4324      	1226.4128      	1226.4149      	1226.4127      	1226.4065      	1226.396       	1226.38        	1226.3864      	1226.3723      	1226.4214      	1226.4673      	1225.8264      	1226.1316      	1226.0842      	1226.172       	1226.1565      	1226.3527      	1226.3478      	1226.3508      	1226.3944      	1226.4379      	1226.4486      	1226.4006      	1226.3911      	1226.3713      	1226.4734      	1226.4529      	1226.4132      	1226.4546      	1226.543       	
1226.295       	1226.3989      	1226.2166      	1226.4318      	1226.4237      	1226.3416      	1226.3667      	1226.3055      	1226.3806      	1226.4072      	1226.3469      	1226.4763      	1226.394       	1226.3314      	1226.5675      	1226.3972      	1226.3809      	1226.3843      	1225.8455      	1226.1208      	1226.2744      	1226.2457      	1226.4609      	1226.4175      	1226.3761      	1226.4207      	1226.4103      	1226.3848      	1226.3761      	1226.3962      	1226.39        	1226.4143      	1226.3729      	1226.4038      	1226.3928      	1226.3873      	1226.3591      	1226.3572      	1226.3845      	1226.3938      	1226.3885      	1226.4333      	1226.3973      	1226.4349      	1226.4231      	1226.4084      	1226.4044      	1226.37        	1226.4478      	1226.4188      	1226.4075      	1226.4241      	1226.3702      	1226.3851      	1226.4337      	1226.5457      	1226.6202      	1226.7047      	1226.69        	1226.259       	1226.3586      	1226.383       	1226.3807      	1226.3342      	1226.3975      	1226.3278      	1226.358       	1226.279       	1226.371       	1226.3346      	1226.3298      	1226.2913      	1226.3032      	1226.3425      	1226.2712      	1226.2626      	1226.2843      	1226.2903      	1226.2683      	1226.2932      	1226.3225      	1225.63        	1225.8885      	1225.9187      	1225.9634      	1226.0524      	1226.1619      	1226.1161      	1226.1631      	1226.2461      	1226.2201      	1226.2378      	1226.1346      	1226.2206      	1226.1974      	1226.3003      	1226.2207      	1226.405       	1226.4646      	1226.3751      	
1226.4303      	1226.4404      	1226.4685      	1226.4465      	1226.4332      	1226.4199      	1226.4293      	1226.4995      	1226.4858      	1226.4553      	1226.4705      	1226.4897      	1226.4169      	1226.4816      	1226.5234      	1226.4451      	1226.513       	1226.2722      	1225.986       	1226.2441      	1226.4004      	1226.3352      	1226.3019      	1226.4656      	1226.517       	1226.5149      	1226.4132      	1226.416       	1226.5159      	1226.4171      	1226.4468      	1226.5018      	1226.4407      	1226.4486      	1226.5427      	1226.4933      	1226.4286      	1226.4198      	1226.4851      	1226.4353      	1226.5011      	1226.4298      	1226.4537      	1226.4773      	1226.3892      	1226.4221      	1226.4958      	1226.4202      	1226.344       	1226.4823      	1226.3945      	1226.4165      	1226.4609      	1226.2928      	1226.4202      	1226.4637      	1226.6504      	1226.5704      	1226.641       	1226.4346      	1226.363       	1226.3418      	1226.3635      	1226.2968      	1226.3394      	1226.338       	1226.3354      	1226.2953      	1226.3185      	1226.1783      	1226.324       	1226.2562      	1226.3339      	1226.2593      	1226.2744      	1226.2445      	1226.2708      	1226.2601      	1226.287       	1226.2317      	1226.3307      	1225.9972      	1225.7482      	1226.1317      	1226.1423      	1226.1936      	1226.0282      	1226.2334      	1226.037       	1226.1304      	1226.2645      	1226.1912      	1226.0276      	1226.242       	1226.1947      	1226.1696      	1226.3827      	1226.2958      	1226.4932      	1226.5544      	
1226.451       	1226.475       	1226.3964      	1226.44        	1226.4686      	1226.396       	1226.5486      	1226.4347      	1226.5236      	1226.45        	1226.5132      	1226.5071      	1226.502       	1226.5636      	1226.5063      	1226.5255      	1226.4985      	1226.5198      	1225.9779      	1226.2657      	1226.2537      	1226.3815      	1226.453       	1226.5159      	1226.4822      	1226.5105      	1226.5209      	1226.4911      	1226.4862      	1226.5042      	1226.4628      	1226.476       	1226.4907      	1226.5165      	1226.5261      	1226.4973      	1226.5148      	1226.551       	1226.4746      	1226.5376      	1226.4989      	1226.523       	1226.5463      	1226.5409      	1226.4862      	1226.5809      	1226.4972      	1226.5682      	1226.5354      	1226.5232      	1226.5255      	1226.5304      	1226.5526      	1226.5721      	1226.5331      	1226.6172      	1226.7206      	1226.7888      	1226.846       	1226.4276      	1226.4747      	1226.4246      	1226.4204      	1226.4309      	1226.4379      	1226.4523      	1226.4325      	1226.4259      	1226.4269      	1226.3893      	1226.4253      	1226.3862      	1226.3704      	1226.3605      	1226.3572      	1226.2937      	1226.3356      	1226.2799      	1226.3135      	1226.2551      	1226.3126      	1226.3036      	1225.9816      	1226.2533      	1225.9977      	1226.124       	1226.1681      	1226.2015      	1226.253       	1226.356       	1226.3126      	1226.3481      	1226.314       	1226.398       	1226.2739      	1226.5161      	1226.6008      	1226.2714      	1226.2311      	1226.2684      	
1226.337       	1226.3765      	1226.3918      	1226.4312      	1226.3896      	1226.4197      	1226.4321      	1226.4497      	1226.4249      	1226.4276      	1226.5366      	1226.4731      	1226.5044      	1226.4895      	1226.5352      	1226.5162      	1226.4456      	1226.623       	1226.0956      	1226.0848      	1226.3289      	1226.3009      	1226.2434      	1226.4315      	1226.4412      	1226.4246      	1226.4685      	1226.4558      	1226.444       	1226.4777      	1226.4286      	1226.4513      	1226.4448      	1226.4385      	1226.4451      	1226.4559      	1226.4772      	1226.4983      	1226.5094      	1226.5267      	1226.4795      	1226.4843      	1226.4738      	1226.4868      	1226.4718      	1226.5278      	1226.5146      	1226.5011      	1226.4852      	1226.4823      	1226.4548      	1226.4608      	1226.484       	1226.4784      	1226.5039      	1226.5442      	1226.6438      	1226.7686      	1226.7787      	1226.5233      	1226.5386      	1226.3958      	1226.4965      	1226.4224      	1226.4288      	1226.4048      	1226.411       	1226.3035      	1226.3276      	1226.3774      	1226.3069      	1226.4321      	1226.2408      	1226.3871      	1226.3186      	1226.2968      	1226.3679      	1226.3416      	1226.3743      	1226.256       	1226.3331      	1226.3225      	1226.4036      	1226.1345      	1226.064       	1226.1884      	1226.3151      	1226.1382      	1226.287       	1226.4297      	1226.3479      	1226.4358      	1226.2924      	1226.2831      	1226.2739      	1226.268       	1226.2638      	1226.3286      	1226.2711      	1226.2477      	
1226.2638      	1226.3297      	1226.3071      	1226.2625      	1226.4192      	1226.3651      	1226.3976      	1226.3712      	1226.3702      	1226.3428      	1226.4247      	1226.2992      	1226.3247      	1226.3868      	1226.3795      	1226.3463      	1226.406       	1226.3928      	1226.483       	1225.8674      	1226.1068      	1226.1255      	1226.1864      	1226.3506      	1226.3387      	1226.3717      	1226.3354      	1226.3478      	1226.3751      	1226.3464      	1226.3695      	1226.3486      	1226.3282      	1226.3286      	1226.4001      	1226.3882      	1226.383       	1226.4081      	1226.3696      	1226.4082      	1226.2987      	1226.4227      	1226.3518      	1226.3687      	1226.331       	1226.4032      	1226.3954      	1226.371       	1226.3118      	1226.4187      	1226.3265      	1226.4382      	1226.3225      	1226.3292      	1226.383       	1226.4265      	1226.4653      	1226.5673      	1226.7072      	1226.5938      	1226.354       	1226.295       	1226.3241      	1226.3188      	1226.3002      	1226.2489      	1226.304       	1226.2665      	1226.2725      	1226.2339      	1226.2534      	1226.2802      	1226.2131      	1226.1814      	1226.1938      	1226.1749      	1226.2183      	1226.2023      	1226.168       	1226.1804      	1226.2063      	1226.1997      	1226.0542      	1226.2474      	1226.1295      	1226.1426      	1226.0105      	1226.1456      	1226.1619      	1226.1545      	1226.179       	1226.1163      	1226.1024      	1226.1746      	1226.1666      	1226.1439      	1226.1926      	1226.2218      	1226.1011      	1226.1184      	
1226.3064      	1226.3047      	1226.3243      	1226.2946      	1226.2888      	1226.3314      	1226.4575      	1226.365       	1226.3995      	1226.3816      	1226.4562      	1226.4435      	1226.382       	1226.3999      	1226.4097      	1226.4343      	1226.3717      	1226.4481      	1226.5281      	1225.7759      	1226.148       	1226.19        	1226.2333      	1226.3059      	1226.4053      	1226.3953      	1226.3804      	1226.36        	1226.3801      	1226.379       	1226.3755      	1226.3324      	1226.3806      	1226.3123      	1226.3579      	1226.3798      	1226.367       	1226.4006      	1226.3085      	1226.3511      	1226.4318      	1226.3782      	1226.3458      	1226.3049      	1226.3556      	1226.4458      	1226.3049      	1226.2919      	1226.3427      	1226.3446      	1226.2925      	1226.379       	1226.33        	1226.2843      	1226.3026      	1226.357       	1226.4679      	1226.5505      	1226.6055      	1226.5944      	1226.2217      	1226.259       	1226.2908      	1226.2336      	1226.2745      	1226.2352      	1226.2725      	1226.2479      	1226.186       	1226.2224      	1226.2151      	1226.1857      	1226.1483      	1226.1741      	1226.1736      	1226.1179      	1226.1714      	1226.1517      	1226.1389      	1226.1509      	1226.1327      	1226.1042      	1226.1069      	1226.1545      	1226.102       	1226.1599      	1226.1344      	1226.1647      	1226.0907      	1226.1604      	1226.1066      	1226.1482      	1226.1106      	1226.244       	1226.1643      	1226.1764      	1226.201       	1226.164       	1226.0836      	1226.2566      	
1226.287       	1226.2916      	1226.2472      	1226.255       	1226.313       	1226.2882      	1226.2684      	1226.2756      	1226.2264      	1226.4221      	1226.2909      	1226.3607      	1226.2865      	1226.3396      	1226.305       	1226.3641      	1226.2876      	1226.3416      	1226.4208      	1225.7936      	1225.9298      	1226.0083      	1226.0831      	1226.2463      	1226.2142      	1226.3434      	1226.2844      	1226.2102      	1226.2495      	1226.2144      	1226.2473      	1226.2179      	1226.2765      	1226.2468      	1226.344       	1226.2639      	1226.3109      	1226.2926      	1226.2838      	1226.2854      	1226.3074      	1226.3042      	1226.3129      	1226.3137      	1226.3408      	1226.263       	1226.3584      	1226.2355      	1226.2625      	1226.3745      	1226.238       	1226.3378      	1226.2537      	1226.2186      	1226.2775      	1226.1946      	1226.345       	1226.4941      	1226.589       	1226.6299      	1226.3389      	1226.2316      	1226.2108      	1226.2548      	1226.2375      	1226.166       	1226.2029      	1226.1973      	1226.1799      	1226.1854      	1226.1167      	1226.2023      	1226.1638      	1226.1687      	1226.1017      	1226.1204      	1226.1472      	1226.1079      	1226.1493      	1226.1285      	1226.1323      	1226.117       	1226.1062      	1226.0933      	1226.0767      	1226.114       	1226.0404      	1226.1514      	1226.136       	1226.1233      	1226.1411      	1226.0812      	1226.1462      	1226.1672      	1226.2412      	1226.1681      	1226.2552      	1226.039       	1226.0948      	1226.2756      	
1226.4972      	1226.5188      	1226.5566      	1226.6149      	1226.5266      	1226.5941      	1226.5695      	1226.5679      	1226.6128      	1226.6252      	1226.5936      	1226.6257      	1226.5995      	1226.5974      	1226.5831      	1226.5037      	1226.5715      	1226.599       	1226.6912      	1226.0375      	1226.2786      	1226.3191      	1226.4154      	1226.37        	1226.554       	1226.4962      	1226.5422      	1226.5458      	1226.4796      	1226.5193      	1226.6235      	1226.5408      	1226.5691      	1226.5492      	1226.5105      	1226.5491      	1226.4937      	1226.5396      	1226.4976      	1226.5278      	1226.5366      	1226.5273      	1226.5369      	1226.5634      	1226.5         	1226.532       	1226.4941      	1226.4478      	1226.5348      	1226.564       	1226.5109      	1226.4963      	1226.5104      	1226.5288      	1226.4441      	1226.4967      	1226.5444      	1226.6014      	1226.6733      	1226.8085      	1226.657       	1226.3665      	1226.4408      	1226.3502      	1226.4032      	1226.4253      	1226.4127      	1226.3909      	1226.3527      	1226.3619      	1226.3043      	1226.3789      	1226.2987      	1226.3069      	1226.2924      	1226.309       	1226.2684      	1226.3058      	1226.2622      	1226.2908      	1226.2987      	1226.3296      	1226.2736      	1226.269       	1226.2352      	1226.311       	1226.1802      	1226.262       	1226.3008      	1226.285       	1226.3121      	1226.2556      	1226.2622      	1226.2352      	1226.2623      	1226.3499      	1226.4534      	1226.1902      	1226.1355      	1226.3195      	
1226.8046      	1226.8069      	1226.7932      	1226.8049      	1226.8217      	1226.778       	1226.8196      	1226.843       	1226.8348      	1226.836       	1226.8267      	1226.8098      	1226.8394      	1226.796       	1226.8467      	1226.8293      	1226.7548      	1226.7795      	1226.8784      	1226.648       	1226.3347      	1226.5364      	1226.565       	1226.6171      	1226.6892      	1226.8163      	1226.7389      	1226.7295      	1226.7892      	1226.7239      	1226.7078      	1226.7341      	1226.7749      	1226.7551      	1226.7024      	1226.7765      	1226.7006      	1226.7733      	1226.7627      	1226.7533      	1226.7659      	1226.7249      	1226.7628      	1226.7128      	1226.7435      	1226.7112      	1226.7433      	1226.7101      	1226.7128      	1226.7087      	1226.6503      	1226.7084      	1226.6997      	1226.6759      	1226.701       	1226.8231      	1226.6917      	1226.7225      	1226.7655      	1226.836       	1226.9003      	1226.5903      	1226.5581      	1226.5538      	1226.5547      	1226.5604      	1226.5367      	1226.5233      	1226.5077      	1226.5281      	1226.5093      	1226.4768      	1226.5138      	1226.4576      	1226.4829      	1226.5441      	1226.4054      	1226.5092      	1226.5225      	1226.5812      	1226.497       	1226.5278      	1226.5221      	1226.4978      	1226.5165      	1226.5011      	1226.5245      	1226.3889      	1226.4917      	1226.5979      	1226.4629      	1226.56        	1226.5636      	1226.4569      	1226.5901      	1226.6282      	1226.6102      	1226.5917      	1226.5854      	1226.6455      	
1226.9664      	1226.9852      	1226.9949      	1227.046       	1227.0304      	1227.0226      	1227.0782      	1227.115       	1226.9806      	1227.0712      	1227.0565      	1227.0581      	1227.0516      	1227.009       	1227.045       	1227.0669      	1226.9878      	1227.0463      	1226.9686      	1227.0629      	1226.2866      	1226.7534      	1226.6799      	1226.7128      	1226.8335      	1226.921       	1226.9083      	1226.8768      	1226.9287      	1226.8787      	1226.8278      	1227.0017      	1226.9064      	1226.9628      	1226.9083      	1227.0115      	1226.9631      	1226.908       	1226.9543      	1226.9998      	1226.9574      	1226.9133      	1226.9122      	1226.9021      	1226.9393      	1226.9199      	1226.9435      	1226.9279      	1226.8413      	1226.9474      	1226.991       	1226.7999      	1226.945       	1226.994       	1226.7888      	1226.9135      	1226.9547      	1226.9417      	1226.8794      	1226.9327      	1227.0718      	1226.8757      	1226.8444      	1226.7723      	1226.785       	1226.8411      	1226.7804      	1226.8003      	1226.8146      	1226.7268      	1226.7556      	1226.7407      	1226.7462      	1226.6907      	1226.7089      	1226.7594      	1226.7198      	1226.7053      	1226.7192      	1226.7295      	1226.7944      	1226.7473      	1226.6929      	1226.7249      	1226.7196      	1226.7534      	1226.7981      	1226.7664      	1226.8019      	1226.7898      	1226.7092      	1226.793       	1226.7993      	1226.7739      	1226.7844      	1226.8608      	1226.8376      	1226.7993      	1226.787       	1226.8364      	
1226.9495      	1226.9373      	1226.9998      	1226.9825      	1227.0789      	1226.9026      	1227.008       	1226.989       	1227.0159      	1226.9872      	1226.9304      	1227.0276      	1226.966       	1227.0197      	1227.053       	1227.015       	1226.992       	1226.9849      	1226.9935      	1227.04        	1226.477       	1226.654       	1226.7515      	1226.6906      	1226.7902      	1226.9104      	1226.9158      	1226.8188      	1226.8601      	1226.9497      	1226.8647      	1226.9005      	1227.0013      	1226.9285      	1226.9662      	1226.9344      	1226.9568      	1226.9215      	1226.9092      	1226.8823      	1226.9514      	1226.9701      	1226.9595      	1226.9196      	1226.953       	1226.9393      	1226.9354      	1226.9803      	1226.979       	1226.9103      	1226.8483      	1226.8573      	1226.7494      	1226.9796      	1226.9741      	1226.8036      	1226.997       	1226.9124      	1226.8513      	1226.989       	1227.0759      	1226.8313      	1226.8845      	1226.8197      	1226.8044      	1226.8367      	1226.7943      	1226.8102      	1226.7435      	1226.8228      	1226.8158      	1226.8503      	1226.8098      	1226.7994      	1226.8009      	1226.8376      	1226.803       	1226.7938      	1226.7393      	1226.8429      	1226.8245      	1226.8136      	1226.7832      	1226.7893      	1226.8113      	1226.7887      	1226.8007      	1226.7472      	1226.8203      	1226.7784      	1226.8481      	1226.8683      	1226.8389      	1226.8832      	1226.782       	1226.9904      	1226.9641      	1226.9495      	1226.8353      	1226.8835      	
1226.867       	1226.9458      	1226.885       	1226.8647      	1226.8875      	1226.8804      	1226.8733      	1226.9011      	1226.8517      	1226.8978      	1226.8433      	1226.8651      	1226.8696      	1226.8151      	1226.8322      	1226.7936      	1226.8315      	1226.8722      	1226.8234      	1226.8319      	1226.6095      	1226.457       	1226.5302      	1226.5942      	1226.6116      	1226.772       	1226.8589      	1226.7661      	1226.8124      	1226.8215      	1226.8296      	1226.8284      	1226.8359      	1226.7848      	1226.8693      	1226.8645      	1226.8815      	1226.85        	1226.8585      	1226.8995      	1226.827       	1226.9141      	1226.7882      	1226.8544      	1226.9027      	1226.7086      	1226.8463      	1226.8816      	1226.8132      	1226.8684      	1226.805       	1226.7705      	1226.8165      	1226.7433      	1226.6926      	1226.6941      	1226.9058      	1226.8591      	1226.9683      	1226.7742      	1226.7463      	1226.7378      	1226.7661      	1226.7388      	1226.7637      	1226.7203      	1226.7303      	1226.7084      	1226.7332      	1226.7668      	1226.7837      	1226.7717      	1226.7377      	1226.6232      	1226.5792      	1226.5471      	1226.661       	1226.7102      	1226.801       	1226.7078      	1226.7235      	1226.8049      	1226.6804      	1226.8395      	1226.7305      	1226.6952      	1226.813       	1226.7805      	1226.7759      	1226.7966      	1226.8192      	1226.7815      	1226.832       	1226.8788      	1226.8348      	1226.8501      	1227.0063      	1226.836       	1226.7781      	1226.7603      	
1226.7726      	1226.8042      	1226.7251      	1226.7401      	1226.7892      	1226.8411      	1226.7124      	1226.7775      	1226.7588      	1226.7928      	1226.7589      	1226.7222      	1226.7667      	1226.7502      	1226.7444      	1226.7097      	1226.7125      	1226.6965      	1226.6613      	1226.6869      	1226.6833      	1226.2212      	1226.3295      	1226.4681      	1226.5039      	1226.6278      	1226.645       	1226.6995      	1226.6417      	1226.6844      	1226.6835      	1226.6495      	1226.7104      	1226.62        	1226.8557      	1226.6118      	1226.7747      	1226.6705      	1226.6981      	1226.9136      	1226.6217      	1226.6941      	1226.7638      	1226.5936      	1226.7042      	1226.6321      	1226.6588      	1226.6931      	1226.7566      	1226.698       	1226.7257      	1226.7351      	1226.5712      	1226.7401      	1226.5289      	1226.5818      	1226.6372      	1226.6207      	1226.6295      	1226.6274      	1226.531       	1226.5994      	1226.5894      	1226.6074      	1226.6323      	1226.6283      	1226.5812      	1226.6018      	1226.564       	1226.6624      	1226.6099      	1226.564       	1226.618       	1226.587       	1226.5577      	1226.6066      	1226.5942      	1226.5415      	1226.6061      	1226.5756      	1226.6456      	1226.6368      	1226.5332      	1226.679       	1226.6146      	1226.5912      	1226.6962      	1226.6724      	1226.7118      	1226.6688      	1226.724       	1226.7174      	1226.7031      	1226.761       	1226.7115      	1226.771       	1226.8446      	1226.7606      	1226.7545      	1226.787       	
1226.9277      	1226.9288      	1226.9413      	1226.9346      	1226.95        	1227.004       	1226.9004      	1226.9453      	1226.8992      	1226.9677      	1226.9186      	1226.8947      	1226.8679      	1226.9089      	1226.8822      	1226.9316      	1226.933       	1226.8575      	1226.8634      	1226.862       	1226.953       	1226.2688      	1226.5118      	1226.619       	1226.5857      	1226.7606      	1226.8267      	1226.8387      	1226.8615      	1226.7876      	1226.8517      	1226.8718      	1226.8208      	1226.89        	1226.8535      	1226.9727      	1226.8977      	1226.7771      	1226.827       	1226.8807      	1226.9257      	1227.0024      	1226.8687      	1226.7904      	1226.9015      	1226.9094      	1226.91        	1226.862       	1226.9148      	1226.816       	1226.8069      	1226.8009      	1226.7855      	1226.7375      	1226.7433      	1226.8146      	1226.8134      	1226.741       	1226.8113      	1226.8469      	1226.8263      	1226.7788      	1226.8278      	1226.7863      	1226.7736      	1226.7955      	1226.8003      	1226.7881      	1226.7362      	1226.7953      	1226.7539      	1226.7476      	1226.7833      	1226.7216      	1226.7815      	1226.6904      	1226.804       	1226.762       	1226.7744      	1226.7924      	1226.7573      	1226.7905      	1226.7733      	1226.7693      	1226.7722      	1226.766       	1226.8228      	1226.8341      	1226.8038      	1226.8591      	1226.7969      	1226.8679      	1226.8673      	1226.9152      	1226.8247      	1226.8876      	1226.9216      	1226.8862      	1226.8212      	1226.8312      	
1227.0591      	1227.0564      	1227.1997      	1227.171       	1227.12        	1227.1122      	1227.0858      	1227.0583      	1227.1177      	1227.0653      	1227.1072      	1227.0815      	1227.033       	1226.9923      	1227.0858      	1227.0442      	1227.0535      	1226.9993      	1227.1061      	1226.8981      	1227.0398      	1226.4458      	1226.6906      	1226.7681      	1226.81        	1226.9165      	1226.9838      	1227.053       	1226.9971      	1227.0309      	1227.0483      	1227.1204      	1227.0247      	1226.9484      	1227.1102      	1227.0007      	1227.1138      	1226.9755      	1227.0453      	1227.0743      	1227.1443      	1227.1384      	1227.1287      	1227.1354      	1227.0566      	1226.9934      	1227.0194      	1227.0251      	1226.9818      	1227.0046      	1226.969       	1226.9799      	1226.9412      	1226.9923      	1226.8816      	1226.9923      	1227.0052      	1226.9924      	1227.0022      	1227.0842      	1226.9967      	1227.0474      	1227.0253      	1226.9716      	1227.0206      	1227.0089      	1226.9951      	1226.9691      	1226.9895      	1226.9387      	1226.985       	1226.9796      	1226.9711      	1226.9774      	1226.9803      	1226.9122      	1227.0083      	1226.97        	1226.9779      	1226.9589      	1227.0034      	1226.963       	1227.0157      	1226.9752      	1227.0349      	1227.0272      	1227.0281      	1227.0802      	1227.0388      	1227.0793      	1227.0431      	1227.131       	1227.1178      	1227.1285      	1227.1528      	1227.1405      	1227.212       	1227.1765      	1227.1357      	1227.1799      	
1226.9578      	1226.8802      	1226.9121      	1226.9187      	1226.8381      	1226.8865      	1226.8969      	1226.8953      	1226.8479      	1226.8962      	1226.8796      	1226.791       	1226.8438      	1226.8236      	1226.8297      	1226.8204      	1226.8304      	1226.7726      	1226.8362      	1226.7849      	1226.854       	1226.4246      	1226.2743      	1226.6552      	1226.6929      	1226.7654      	1226.7119      	1226.8073      	1226.8622      	1226.6926      	1226.7263      	1226.8497      	1226.8832      	1226.7542      	1226.8246      	1226.8796      	1227.0015      	1226.8088      	1226.8478      	1227.0364      	1226.8956      	1226.8407      	1226.8113      	1226.8098      	1226.7786      	1226.8009      	1226.7931      	1226.8274      	1226.8185      	1226.8022      	1226.801       	1226.8142      	1226.7585      	1226.8748      	1226.7866      	1226.8453      	1226.7986      	1226.8138      	1226.8265      	1226.8428      	1226.8743      	1226.8702      	1226.8824      	1226.8976      	1226.7843      	1226.8208      	1226.8325      	1226.8005      	1226.8281      	1226.7858      	1226.8029      	1226.83        	1226.8043      	1226.812       	1226.8297      	1226.8401      	1226.8572      	1226.8247      	1226.8667      	1226.87        	1226.895       	1226.9111      	1226.8728      	1226.8595      	1226.9146      	1226.921       	1226.8933      	1226.8633      	1226.9001      	1226.9901      	1226.9431      	1226.9835      	1227.0183      	1226.9991      	1227.021       	1227.1171      	1227.0226      	1227.1282      	1227.0409      	1227.0006      	
1226.8982      	1226.9093      	1226.8972      	1226.906       	1226.8767      	1226.8517      	1226.8827      	1226.8733      	1226.8893      	1226.8054      	1226.9099      	1226.8684      	1226.8339      	1226.8732      	1226.8398      	1226.8151      	1226.8734      	1226.8362      	1226.8081      	1226.8416      	1226.8492      	1226.7975      	1226.4584      	1226.7395      	1226.6407      	1226.6755      	1226.6642      	1226.7495      	1226.8015      	1226.8308      	1227.0079      	1226.8513      	1226.8972      	1226.8739      	1226.8899      	1227.0396      	1226.8312      	1226.8744      	1226.809       	1226.788       	1226.8673      	1226.846       	1226.8107      	1226.8082      	1226.7438      	1226.8456      	1226.7299      	1226.7661      	1226.8246      	1226.7362      	1226.7911      	1226.705       	1226.7498      	1226.7728      	1226.6948      	1226.7147      	1226.7261      	1226.8119      	1226.7361      	1226.732       	1226.7778      	1226.7546      	1226.7708      	1226.7324      	1226.715       	1226.7627      	1226.7588      	1226.7664      	1226.7839      	1226.7833      	1226.7727      	1226.7604      	1226.7893      	1226.8308      	1226.7776      	1226.7454      	1226.8053      	1226.7697      	1226.7876      	1226.771       	1226.7703      	1226.8378      	1226.8469      	1226.807       	1226.8765      	1226.8595      	1226.863       	1226.8773      	1226.878       	1226.9199      	1226.9626      	1226.9031      	1226.9584      	1226.9423      	1226.9336      	1226.965       	1226.9347      	1227.021       	1226.9442      	1226.9419      	
1226.6589      	1226.6526      	1226.664       	1226.6649      	1226.6731      	1226.6226      	1226.5946      	1226.655       	1226.6593      	1226.6335      	1226.5903      	1226.6311      	1226.6218      	1226.6322      	1226.5138      	1226.5792      	1226.5442      	1226.5328      	1226.5747      	1226.52        	1226.5289      	1226.5696      	1226.519       	1226.4347      	1226.2942      	1226.4047      	1226.6033      	1226.4828      	1226.6434      	1226.6735      	1226.6875      	1226.6577      	1226.6766      	1226.6177      	1226.657       	1226.661       	1226.5962      	1226.6122      	1226.666       	1226.5803      	1226.6172      	1226.6031      	1226.5675      	1226.5931      	1226.5183      	1226.6505      	1226.5676      	1226.5183      	1226.5706      	1226.5171      	1226.5077      	1226.5916      	1226.5868      	1226.5568      	1226.6069      	1226.5516      	1226.6013      	1226.5923      	1226.5688      	1226.6056      	1226.6156      	1226.5027      	1226.5942      	1226.6776      	1226.5851      	1226.5702      	1226.6721      	1226.6102      	1226.5984      	1226.6478      	1226.6304      	1226.6272      	1226.6847      	1226.6555      	1226.5455      	1226.6755      	1226.7025      	1226.7097      	1226.5875      	1226.8059      	1226.659       	1226.6671      	1226.7003      	1226.8197      	1226.6984      	1226.7633      	1226.7739      	1226.722       	1226.8441      	1226.7317      	1226.8706      	1226.7283      	1226.883       	1226.8905      	1226.834       	1226.9541      	1227.0586      	1226.8356      	1226.6709      	1226.8212      	
1226.6758      	1226.6144      	1226.6274      	1226.5925      	1226.5833      	1226.5793      	1226.584       	1226.5812      	1226.5585      	1226.5886      	1226.5526      	1226.531       	1226.646       	1226.5953      	1226.5503      	1226.5033      	1226.5721      	1226.5063      	1226.5813      	1226.5188      	1226.4958      	1226.546       	1226.5277      	1226.5691      	1226.4323      	1226.4291      	1226.4581      	1226.5452      	1226.4946      	1226.4843      	1226.5813      	1226.5038      	1226.519       	1226.5466      	1226.5369      	1226.5388      	1226.5367      	1226.5809      	1226.5078      	1226.4504      	1226.5349      	1226.5156      	1226.492       	1226.4364      	1226.5807      	1226.4974      	1226.4421      	1226.4353      	1226.4883      	1226.3823      	1226.4988      	1226.4766      	1226.4249      	1226.4327      	1226.5381      	1226.4504      	1226.4568      	1226.4817      	1226.4956      	1226.4854      	1226.5024      	1226.5024      	1226.4792      	1226.5151      	1226.494       	1226.5199      	1226.5331      	1226.5148      	1226.5062      	1226.5402      	1226.5214      	1226.5618      	1226.5249      	1226.4398      	1226.5673      	1226.5405      	1226.5769      	1226.5222      	1226.5652      	1226.6431      	1226.4966      	1226.6144      	1226.522       	1226.6624      	1226.6034      	1226.616       	1226.626       	1226.6228      	1226.6719      	1226.7202      	1226.7065      	1226.7141      	1226.7267      	1226.7317      	1226.7883      	1226.6803      	1226.7938      	1226.7717      	1226.7452      	1226.7118      	
1226.6489      	1226.6841      	1226.6976      	1226.6061      	1226.6018      	1226.6106      	1226.5867      	1226.5631      	1226.6782      	1226.5819      	1226.4978      	1226.5532      	1226.5377      	1226.5736      	1226.5642      	1226.5232      	1226.5417      	1226.4985      	1226.587       	1226.4829      	1226.5663      	1226.4286      	1226.5653      	1226.5217      	1226.4937      	1226.52        	1226.53        	1226.6373      	1226.4558      	1226.5802      	1226.5618      	1226.5444      	1226.5287      	1226.5679      	1226.4536      	1226.6605      	1226.602       	1226.5593      	1226.6         	1226.5385      	1226.5659      	1226.5675      	1226.5447      	1226.5637      	1226.5063      	1226.6034      	1226.5574      	1226.4722      	1226.582       	1226.5287      	1226.5458      	1226.4958      	1226.5154      	1226.546       	1226.4962      	1226.4581      	1226.598       	1226.5282      	1226.5522      	1226.5392      	1226.5873      	1226.5688      	1226.5597      	1226.573       	1226.4979      	1226.5587      	1226.5914      	1226.5845      	1226.5923      	1226.5533      	1226.6233      	1226.569       	1226.6476      	1226.6072      	1226.6464      	1226.566       	1226.6951      	1226.6434      	1226.6453      	1226.6838      	1226.6787      	1226.7344      	1226.6364      	1226.7338      	1226.7258      	1226.6929      	1226.7467      	1226.7596      	1226.7903      	1226.746       	1226.7811      	1226.8054      	1226.7604      	1226.8344      	1226.8308      	1226.8074      	1226.8533      	1226.7932      	1226.7843      	1226.7625      	
1226.8796      	1226.7588      	1226.7814      	1226.7579      	1226.8083      	1226.7131      	1226.7214      	1226.7634      	1226.717       	1226.7279      	1226.6787      	1226.6929      	1226.6937      	1226.6803      	1226.6548      	1226.6823      	1226.7         	1226.6655      	1226.6636      	1226.7198      	1226.6453      	1226.6313      	1226.6683      	1226.6897      	1226.6696      	1226.6799      	1226.6707      	1226.6512      	1226.6051      	1226.7288      	1226.6864      	1226.637       	1226.6005      	1226.693       	1226.6519      	1226.6118      	1226.6208      	1226.6183      	1226.6631      	1226.5874      	1226.6115      	1226.6477      	1226.6316      	1226.6165      	1226.618       	1226.6254      	1226.618       	1226.6105      	1226.6488      	1226.6017      	1226.6678      	1226.6299      	1226.6652      	1226.66        	1226.6011      	1226.5964      	1226.6824      	1226.662       	1226.6703      	1226.6633      	1226.6544      	1226.6322      	1226.703       	1226.6979      	1226.6726      	1226.6683      	1226.696       	1226.6757      	1226.598       	1226.7319      	1226.656       	1226.6831      	1226.7401      	1226.6571      	1226.7089      	1226.7278      	1226.635       	1226.6971      	1226.7156      	1226.7097      	1226.757       	1226.7615      	1226.7007      	1226.7812      	1226.7894      	1226.7896      	1226.8544      	1226.6865      	1226.7817      	1226.8303      	1226.7437      	1226.8899      	1226.863       	1226.909       	1226.9712      	1226.8385      	1226.9678      	1227.0154      	1226.8136      	1226.7239      	
1227.0259      	1226.9333      	1226.9011      	1226.9653      	1226.9058      	1226.8859      	1226.8542      	1226.8757      	1226.8542      	1226.8285      	1226.8345      	1226.8185      	1226.8264      	1226.8104      	1226.8269      	1226.7653      	1226.9152      	1226.8234      	1226.7573      	1226.8926      	1226.7737      	1226.8473      	1226.8373      	1226.8068      	1226.8518      	1226.7904      	1226.8927      	1226.865       	1226.7534      	1226.8986      	1226.8436      	1226.821       	1226.8542      	1226.8533      	1226.852       	1226.8348      	1226.8593      	1226.8278      	1226.794       	1226.8698      	1226.8085      	1226.827       	1226.8317      	1226.8158      	1226.8286      	1226.8577      	1226.83        	1226.8064      	1226.8165      	1226.7825      	1226.8708      	1226.8452      	1226.8771      	1226.9327      	1226.7949      	1226.8821      	1226.8706      	1226.7415      	1226.8754      	1226.9435      	1226.8556      	1226.9412      	1226.8423      	1226.913       	1226.9231      	1226.923       	1226.9082      	1226.8667      	1226.9312      	1226.8453      	1226.9996      	1226.794       	1226.9872      	1226.9376      	1226.8613      	1226.968       	1226.9293      	1226.9386      	1226.9314      	1226.867       	1226.9481      	1226.9487      	1227.0533      	1227.0508      	1226.952       	1226.9741      	1227.0071      	1227.0005      	1226.9727      	1227.0656      	1227.1234      	1227.0789      	1227.066       	1227.0203      	1227.1559      	1227.0729      	1227.2512      	1227.1316      	1226.9022      	1226.8749      	
1227.1587      	1226.9161      	1227.0073      	1226.996       	1226.9851      	1226.8309      	1226.9674      	1226.904       	1226.925       	1226.8699      	1226.8955      	1226.8696      	1226.8672      	1226.8999      	1226.8254      	1226.9038      	1226.8527      	1226.9456      	1226.8014      	1226.8652      	1226.9246      	1226.9204      	1226.8634      	1226.8981      	1226.9314      	1227.0306      	1226.9379      	1226.7605      	1226.824       	1227.0029      	1226.8976      	1226.9448      	1226.878       	1226.9543      	1226.8749      	1226.9537      	1226.9553      	1226.8962      	1226.9379      	1226.942       	1226.9518      	1226.8997      	1226.9117      	1226.9064      	1226.9291      	1226.8947      	1226.9218      	1226.8875      	1226.9288      	1226.8905      	1226.9153      	1226.9142      	1226.9124      	1226.9703      	1226.9752      	1226.922       	1226.9623      	1226.9478      	1227.014       	1226.9633      	1226.9669      	1226.9873      	1227.0034      	1226.9745      	1227.019       	1226.9951      	1227.0352      	1226.9474      	1227.0754      	1227.0286      	1226.9913      	1227.012       	1226.9875      	1227.1204      	1227.0205      	1227.074       	1227.1094      	1227.1083      	1227.0748      	1227.1433      	1227.0177      	1227.0573      	1227.1128      	1227.1008      	1227.0968      	1227.1366      	1227.1122      	1227.1797      	1227.1162      	1227.1268      	1227.1719      	1227.2032      	1227.1661      	1227.2091      	1227.1854      	1227.2446      	1227.1791      	1227.2046      	1227.1649      	1227.1323      	
1227.1163      	1226.9598      	1226.9728      	1226.951       	1226.9393      	1226.8838      	1226.9468      	1226.8705      	1226.9648      	1226.8986      	1226.8549      	1226.8436      	1226.8308      	1226.9221      	1226.8536      	1226.8593      	1226.8345      	1226.8896      	1226.8354      	1226.841       	1226.8501      	1226.8586      	1226.8853      	1226.896       	1226.8534      	1226.8787      	1226.8915      	1226.8042      	1226.9583      	1226.9253      	1226.8817      	1226.9325      	1226.9585      	1226.8842      	1226.978       	1226.9333      	1226.9064      	1226.889       	1226.968       	1226.9763      	1226.8546      	1226.9432      	1226.9255      	1226.8239      	1226.9552      	1226.9188      	1226.927       	1226.7899      	1226.9741      	1226.9204      	1226.9874      	1226.8641      	1226.9094      	1226.9557      	1226.9221      	1226.9581      	1227.062       	1226.969       	1227.03        	1226.9746      	1227.0267      	1227.0305      	1227.0552      	1227.1218      	1226.958       	1227.1487      	1227.0452      	1227.028       	1227.0135      	1227.0468      	1227.062       	1227.0099      	1227.0725      	1227.1279      	1227.084       	1227.0916      	1227.0945      	1227.12        	1227.0942      	1227.0894      	1227.1266      	1227.0222      	1227.1353      	1227.1339      	1227.1184      	1227.2147      	1227.2007      	1227.1295      	1227.1208      	1227.1582      	1227.128       	1227.051       	1227.1311      	1227.1592      	1227.0841      	1227.2031      	1227.1947      	1227.2102      	1227.0593      	1226.9973      	
1227.0243      	1226.883       	1226.8904      	1226.8081      	1226.9086      	1226.8993      	1226.8018      	1226.8239      	1226.847       	1226.738       	1226.7394      	1226.84        	1226.7374      	1226.835       	1226.7522      	1226.7777      	1226.7963      	1226.8286      	1226.8373      	1226.8394      	1226.8171      	1226.8572      	1226.7773      	1226.8419      	1226.7714      	1226.8152      	1226.7914      	1226.8015      	1226.8268      	1226.8108      	1226.8239      	1226.8536      	1226.8252      	1226.799       	1226.8333      	1226.8433      	1226.8456      	1226.8134      	1226.805       	1226.8381      	1226.8154      	1226.8285      	1226.8342      	1226.7675      	1226.8269      	1226.7897      	1226.9266      	1226.7999      	1226.8318      	1226.8472      	1226.8004      	1226.8616      	1226.902       	1226.9032      	1226.904       	1226.9703      	1226.893       	1226.9285      	1227.004       	1226.9048      	1226.9895      	1227.014       	1227.0022      	1226.9913      	1226.961       	1227.0608      	1227.0272      	1226.995       	1226.9973      	1227.0046      	1227.0223      	1227.0593      	1226.9576      	1227.0306      	1227.0115      	1227.0438      	1227.0269      	1227.0085      	1227.0466      	1227.0396      	1227.1406      	1227.039       	1227.1505      	1227.1141      	1227.0875      	1227.2346      	1227.1895      	1227.09        	1227.2499      	1227.1855      	1227.1666      	1227.1686      	1227.0848      	1227.2317      	1227.1174      	1227.1892      	1227.137       	1227.1337      	1227.0988      	1227.134       	
1226.7053      	1226.7589      	1226.6672      	1226.6617      	1226.6827      	1226.6588      	1226.6193      	1226.6055      	1226.6895      	1226.5966      	1226.6046      	1226.672       	1226.6077      	1226.5916      	1226.5272      	1226.6147      	1226.6318      	1226.596       	1226.6749      	1226.6062      	1226.6141      	1226.6903      	1226.6543      	1226.6613      	1226.6593      	1226.6559      	1226.6791      	1226.5895      	1226.6648      	1226.6809      	1226.6857      	1226.6189      	1226.6699      	1226.6731      	1226.6635      	1226.6368      	1226.6489      	1226.6641      	1226.56        	1226.6984      	1226.636       	1226.6418      	1226.6632      	1226.6133      	1226.6356      	1226.6923      	1226.561       	1226.6965      	1226.7834      	1226.7977      	1226.4983      	1226.5564      	1226.8063      	1226.7545      	1226.6726      	1226.6831      	1226.7312      	1226.845       	1226.6602      	1226.822       	1226.7345      	1226.7341      	1226.8689      	1226.8115      	1226.7583      	1226.9001      	1226.7781      	1226.8138      	1226.8087      	1226.8282      	1226.8251      	1226.8251      	1226.8251      	1226.8337      	1226.8696      	1226.8746      	1226.8273      	1226.8862      	1226.8496      	1226.8479      	1226.8741      	1226.9175      	1226.8702      	1226.9369      	1226.9602      	1226.9255      	1226.8538      	1227.0044      	1226.9814      	1226.9729      	1226.9781      	1226.9802      	1226.9615      	1227.0132      	1226.9597      	1226.9911      	1226.9778      	1226.9397      	1226.8878      	1226.83        	
1226.9192      	1226.937       	1226.8534      	1226.8737      	1226.8861      	1226.8469      	1226.8488      	1226.8126      	1226.8019      	1226.8243      	1226.8136      	1226.7654      	1226.8245      	1226.8015      	1226.8394      	1226.8083      	1226.8097      	1226.8569      	1226.8423      	1226.7587      	1226.8678      	1226.7871      	1226.7899      	1226.8687      	1226.8259      	1226.8109      	1226.8306      	1226.819       	1226.8351      	1226.7861      	1226.8417      	1226.8186      	1226.7567      	1226.8138      	1226.8834      	1226.8925      	1226.8362      	1226.8357      	1226.8478      	1226.8094      	1226.8411      	1226.7637      	1226.8698      	1226.8411      	1226.7538      	1226.8433      	1226.8304      	1226.7482      	1226.903       	1226.793       	1226.8395      	1226.8058      	1226.8518      	1226.879       	1226.8816      	1226.9198      	1226.937       	1226.9033      	1226.8431      	1226.913       	1226.9531      	1226.988       	1226.8761      	1227.0038      	1226.8733      	1226.9774      	1226.9282      	1226.9928      	1226.909       	1227.011       	1226.9711      	1226.9407      	1226.9872      	1226.9575      	1226.878       	1226.9896      	1226.8882      	1226.9493      	1226.97        	1226.9185      	1226.9813      	1227.0267      	1226.98        	1227.0565      	1227.0184      	1226.9956      	1227.0311      	1227.0377      	1227.031       	1227.0396      	1226.9612      	1227.06        	1226.9055      	1226.9913      	1226.9794      	1227.0616      	1227.0322      	1226.9128      	1226.8694      	1226.9666      	
1227.0466      	1227.1232      	1226.9688      	1227.0522      	1227.0417      	1227.0688      	1227.0021      	1226.9958      	1227.0243      	1226.9534      	1226.9518      	1226.9421      	1227.032       	1226.8801      	1227.0812      	1226.9595      	1226.994       	1227.0057      	1226.9526      	1227.0588      	1226.9979      	1227.062       	1227.0808      	1227.04        	1227.1047      	1227.0569      	1227.0616      	1227.0417      	1227.0737      	1227.044       	1227.0841      	1227.0662      	1227.0021      	1227.0391      	1227.1389      	1227.0093      	1227.0576      	1227.0576      	1227.0679      	1227.0345      	1227.0878      	1227.0663      	1227.0691      	1227.0953      	1227.0994      	1227.0314      	1227.1571      	1227.0931      	1227.12        	1227.152       	1227.1492      	1227.1628      	1227.1528      	1227.1925      	1227.187       	1227.1796      	1227.2078      	1227.2036      	1227.2358      	1227.1807      	1227.2573      	1227.2727      	1227.1912      	1227.2489      	1227.2416      	1227.1907      	1227.2705      	1227.1632      	1227.3053      	1227.1294      	1227.27        	1227.1945      	1227.3533      	1227.1377      	1227.3298      	1227.2697      	1227.1753      	1227.2495      	1227.255       	1227.2306      	1227.3142      	1227.2313      	1227.265       	1227.204       	1227.2827      	1227.2703      	1227.1746      	1227.3035      	1227.2428      	1227.2284      	1227.2289      	1227.2278      	1227.1891      	1227.2651      	1227.2676      	1227.3392      	1227.0475      	1226.7279      	1226.674       	1226.7666      	
1226.8951      	1226.9015      	1226.8771      	1226.8723      	1226.8394      	1226.8716      	1226.913       	1226.8008      	1226.9016      	1226.8276      	1226.8435      	1226.8312      	1226.8511      	1226.9012      	1226.7821      	1226.8601      	1226.8671      	1226.8854      	1226.854       	1226.8899      	1226.8721      	1226.8925      	1226.8767      	1226.8817      	1226.9132      	1226.8497      	1226.8904      	1226.8788      	1226.9241      	1226.8875      	1226.868       	1226.8934      	1226.9694      	1226.8497      	1226.8679      	1226.8566      	1226.8768      	1226.8784      	1226.9816      	1226.9298      	1226.8439      	1226.9752      	1226.9368      	1226.9329      	1226.9218      	1226.9874      	1226.9784      	1226.9982      	1226.9998      	1226.9539      	1226.9752      	1227.0063      	1227.0284      	1227.1304      	1227.0186      	1227.0537      	1227.1821      	1226.9994      	1227.0421      	1227.1849      	1227.1443      	1227.1259      	1227.105       	1227.1353      	1227.1964      	1227.1753      	1227.135       	1227.0321      	1227.1575      	1227.1235      	1227.1667      	1227.1456      	1227.1434      	1227.1624      	1227.133       	1227.1257      	1227.0994      	1227.1542      	1227.1909      	1227.116       	1227.1669      	1227.1794      	1227.2075      	1227.199       	1227.24        	1227.1567      	1227.1741      	1227.2639      	1227.204       	1227.2318      	1227.138       	1227.1681      	1227.3652      	1226.864       	1226.8518      	1226.906       	1226.908       	1226.9124      	1226.8708      	1226.909       	
1226.714       	1226.6919      	1226.6906      	1226.7423      	1226.6307      	1226.6674      	1226.6741      	1226.6493      	1226.6798      	1226.6501      	1226.6675      	1226.6704      	1226.6777      	1226.6813      	1226.6705      	1226.7029      	1226.6243      	1226.7518      	1226.7092      	1226.7212      	1226.7279      	1226.7274      	1226.7446      	1226.7343      	1226.6912      	1226.8184      	1226.6952      	1226.759       	1226.7219      	1226.7482      	1226.7565      	1226.7798      	1226.6823      	1226.8354      	1226.804       	1226.7131      	1226.8862      	1226.8163      	1226.8536      	1226.8367      	1226.7502      	1226.8569      	1226.8152      	1226.8313      	1226.8322      	1226.8586      	1226.8339      	1226.8743      	1226.8198      	1226.8752      	1226.9047      	1226.8727      	1226.9263      	1226.9135      	1226.9396      	1226.952       	1226.9335      	1226.8774      	1226.9677      	1226.9374      	1227.0708      	1226.8816      	1226.9681      	1226.9473      	1226.9435      	1226.9991      	1227.0963      	1226.8737      	1227.0742      	1227.0653      	1227.0085      	1226.9407      	1227.0681      	1226.992       	1226.9636      	1226.9431      	1227.0358      	1226.9807      	1227.1101      	1226.9545      	1227.0784      	1226.9633      	1227.053       	1227.0638      	1226.9846      	1226.9785      	1227.0419      	1227.0181      	1226.9435      	1227.0458      	1227.2084      	1226.7943      	1226.4541      	1226.7073      	1226.8693      	1226.9012      	1226.8802      	1226.869       	1226.9268      	1226.9542      	
