# www.neaspec.com
# Scan:	 	AFM
# Project:	 	20251007_PS
# Description:	 	
# Date:	 	10/07/2025 14:36:28
# Scanner Center Position (X, Y):	[µm]	49.66	48.17	 
# Rotation:	[°]	0	 	 
# Scan Area (X, Y, Z):	[µm]	5.000	5.000	0.000
# Pixel Area (X, Y, Z):	[px]	100	100	1
# Averaging:	 	1	 	 
# Integration time:	[ms]	5	 	 
# Laser Source:	 	4.5-15 µm nano-FTIR laser
# Detector:	 	R
# Target Wavelength:	[µm]	10.000	 	 
# Demodulation Mode:	 	Fourier
# Tip Frequency:	[Hz]	241,340.500	 	 
# Tip Amplitude:	[mV]	45.700	 	 
# Tapping Amplitude:	[nm]	74.418	 	 
# Modulation Frequency:	[Hz]	0.000	 	 
# Modulation Amplitude:	[mV]	0.000	 	 
# Modulation Offset:	[mV]	0.000	 	 
# Setpoint:	[%]	79.75	 	 
# Regulator (P, I, D):	 	4.206850	8.625812	1.000000
# Tip Potential:	[mV]	0.000	 	 
# M1A Scaling:	[nm/V]	0.426	 	 
# M1A Cantilever Factor:	 	1,000	 	 
# Q-Factor:	 	487.4	 	 
# Version:	 	2.1.11536.0
93.97558       	93.54265       	93.15173       	92.97901       	93.3097        	93.20686       	93.00077       	93.260124      	93.1089        	93.09569       	92.95916       	93.3957        	93.33342       	93.69995       	93.83438       	93.89917       	93.26603       	93.22184       	93.37317       	93.395134      	93.63496       	93.34582       	93.56447       	94.16541       	93.95532       	93.74065       	93.609634      	93.589714      	93.2636        	93.404366      	93.74308       	93.48666       	93.76363       	93.92522       	93.73278       	93.61931       	93.22722       	92.94722       	93.00507       	92.93602       	93.059586      	93.504395      	93.37511       	93.53974       	93.78075       	93.97177       	93.944565      	93.559525      	94.282684      	94.28435       	94.11628       	94.53154       	94.01168       	94.110214      	94.474396      	94.4026        	94.11068       	94.092575      	94.591415      	94.74342       	94.6737        	94.58934       	94.57451       	94.9661        	94.71392       	94.20799       	94.103966      	93.967606      	93.75382       	93.295         	93.174995      	93.653305      	93.76562       	93.84315       	94.05781       	93.91931       	94.066284      	94.00224       	93.808105      	93.92424       	93.67817       	93.75567       	93.85528       	93.555016      	93.43959       	93.304085      	93.872955      	93.7327        	93.9351        	94.10576       	93.63923       	94.12447       	94.242874      	94.11251       	94.09876       	94.078476      	94.052536      	93.953964      	93.83501       	93.88966       	
93.61991       	92.84029       	92.730255      	92.73292       	92.401566      	92.54659       	92.42597       	92.61056       	92.500015      	92.55684       	93.05402       	93.59549       	93.30119       	93.53006       	93.32024       	93.52413       	93.22602       	93.32507       	93.124756      	93.181244      	93.43754       	93.80216       	93.76962       	94.02572       	93.65317       	93.475334      	93.01061       	93.268486      	93.611404      	94.13398       	93.49417       	92.85727       	93.068436      	92.94367       	92.93537       	93.229744      	93.0256        	92.65758       	93.00473       	93.17024       	93.26275       	94.04015       	94.00971       	93.984245      	94.19881       	94.33056       	93.63477       	93.49855       	93.620255      	93.757935      	93.660965      	93.920845      	93.66072       	94.20491       	94.082085      	93.73699       	94.49452       	93.86842       	93.77359       	94.48141       	94.98202       	95.03545       	94.635704      	94.67362       	94.272385      	93.81839       	93.93089       	93.60356       	93.29505       	93.077934      	93.552155      	93.58056       	93.57343       	93.949295      	93.72864       	93.48801       	93.16801       	93.17297       	93.645096      	93.33723       	93.407486      	94.110306      	94.142586      	93.80627       	94.12359       	94.15717       	93.59192       	93.686325      	94.06324       	93.93208       	94.05301       	93.44964       	93.58344       	93.824104      	93.649734      	93.420654      	93.75569       	93.87582       	93.78647       	93.79689       	
93.86093       	93.60558       	93.66735       	93.40431       	93.019356      	92.600464      	92.912445      	92.59328       	92.29572       	93.12987       	93.275604      	92.66777       	92.51643       	92.75221       	92.93281       	92.70128       	93.49117       	93.51566       	93.37839       	93.47778       	93.934814      	93.97046       	93.836044      	93.697426      	93.67114       	93.51514       	93.35202       	93.52222       	93.851494      	93.97713       	93.432205      	93.15608       	92.95924       	93.27836       	93.20654       	92.92644       	92.73368       	92.81312       	92.637955      	93.23662       	93.362755      	93.86285       	94.02828       	93.98889       	93.73296       	93.52124       	93.8794        	94.09268       	93.81957       	93.710365      	93.76686       	94.07789       	94.42607       	94.79738       	94.356865      	94.53358       	94.55344       	94.47054       	94.17838       	94.500656      	94.583855      	94.54036       	94.318344      	94.55534       	94.36702       	94.10759       	93.63774       	93.50998       	93.127754      	93.16612       	93.70213       	93.42894       	93.43521       	93.67956       	93.67394       	94.11211       	93.65195       	93.58672       	93.51409       	93.399956      	93.36732       	93.56639       	93.50484       	93.58952       	93.23725       	93.302315      	93.2206        	93.40621       	93.631744      	92.95387       	93.017914      	92.94603       	93.201324      	93.07378       	93.281204      	93.39467       	93.515656      	93.603546      	93.58614       	93.51866       	
93.63201       	93.97318       	93.79499       	93.44616       	93.44954       	93.171455      	93.15353       	93.446045      	93.377716      	93.23336       	93.52087       	94.15001       	94.01366       	93.75256       	93.80053       	93.64113       	93.54309       	93.048355      	93.46634       	92.99751       	93.193405      	93.0983        	93.11909       	93.56788       	93.643684      	93.5714        	93.771614      	93.893585      	93.822296      	93.5764        	93.307014      	93.25785       	93.11378       	93.10612       	93.25558       	93.1656        	93.316864      	93.76085       	93.440445      	93.75341       	94.147064      	94.036026      	93.953735      	93.85985       	93.74965       	93.72902       	94.035446      	94.03337       	94.33245       	94.28221       	93.6102        	93.67677       	93.53954       	93.74146       	93.853676      	94.07453       	93.90876       	93.93812       	93.59501       	93.949844      	93.98931       	93.91469       	93.977036      	94.6106        	94.56989       	94.32209       	93.55367       	93.73819       	93.76176       	93.94573       	93.73233       	94.20824       	94.290405      	94.22311       	94.08714       	94.04923       	93.88222       	93.67064       	93.65886       	93.22574       	93.35353       	93.33586       	93.017204      	93.68745       	93.61312       	94.042046      	93.81617       	94.01431       	93.96695       	93.23702       	93.11413       	93.49332       	93.45175       	93.3982        	93.659615      	93.87296       	93.549614      	93.32201       	93.14781       	92.99323       	
93.378         	93.57071       	93.10384       	92.83683       	93.17448       	93.17095       	92.721634      	92.47928       	93.12415       	92.95905       	93.57548       	93.67973       	93.88842       	93.74914       	93.64645       	93.55543       	93.78658       	94.05974       	93.496544      	93.38498       	93.51249       	93.324615      	93.80866       	94.0044        	93.69381       	93.7993        	93.63182       	93.7264        	93.69458       	93.75211       	93.455795      	93.751205      	93.69374       	93.17353       	93.39218       	93.36879       	93.1565        	92.91626       	92.73347       	93.06786       	93.34185       	94.014275      	94.27373       	94.2659        	94.26925       	94.25443       	94.67375       	93.99322       	93.75248       	93.755684      	93.97981       	93.728134      	93.75078       	93.53962       	93.99071       	94.21831       	94.19913       	94.233         	94.24463       	94.37218       	94.506805      	94.38675       	94.60169       	94.508224      	94.80485       	94.381424      	94.40787       	94.02237       	94.56139       	94.20674       	93.76469       	94.040115      	93.99341       	94.09108       	94.04009       	93.72323       	93.5623        	93.54515       	93.75227       	93.72428       	93.86282       	93.71329       	93.66045       	93.92497       	93.79522       	94.02877       	94.387856      	94.073074      	93.75795       	93.59494       	93.709885      	93.46252       	94.06334       	93.747635      	93.351425      	93.375275      	93.20117       	92.9201        	92.69608       	92.85974       	
94.57148       	94.22557       	94.014854      	93.72208       	93.11274       	93.15832       	93.13074       	93.06186       	93.30681       	93.609146      	92.93273       	93.15747       	93.46477       	93.129265      	93.0674        	92.77223       	92.85803       	92.86817       	92.67517       	92.791756      	93.27741       	92.96585       	93.483116      	93.35315       	93.37562       	93.36944       	93.768814      	93.548164      	93.110634      	93.81235       	93.32874       	93.5959        	93.9558        	93.28692       	93.1171        	93.19069       	92.76704       	92.69545       	93.63203       	93.50382       	93.4951        	93.68086       	94.03089       	94.09486       	94.200615      	93.921005      	94.0442        	94.047066      	93.922005      	94.06706       	94.78833       	94.38868       	94.135345      	93.96464       	93.66959       	94.131424      	94.53864       	94.48782       	94.02121       	94.180504      	94.120964      	93.954155      	94.22215       	94.3787        	94.274445      	94.0555        	93.8481        	94.05012       	94.205574      	93.44589       	93.47885       	93.96843       	93.78822       	93.601425      	93.8578        	93.897255      	93.3524        	93.35886       	93.64144       	93.371574      	93.77308       	94.01506       	93.67423       	93.5476        	93.63358       	93.486465      	93.345375      	93.04218       	92.92339       	93.257904      	93.07867       	93.28666       	93.402985      	93.413376      	92.809654      	93.43011       	93.86945       	93.44329       	93.436226      	93.354866      	
93.53178       	93.3239        	92.95607       	92.88379       	92.72623       	92.39501       	93.09009       	92.953545      	92.81547       	92.62407       	93.27409       	93.45726       	93.37272       	93.7478        	93.43609       	93.618935      	93.716324      	94.037         	93.51269       	93.14684       	93.57683       	93.51153       	93.01298       	93.600296      	93.67094       	93.265175      	92.937675      	93.1645        	93.41248       	93.07985       	92.73274       	92.921646      	93.14527       	92.73206       	92.545944      	92.32274       	92.386345      	92.67965       	92.99899       	93.29088       	93.778854      	93.81116       	93.92038       	93.43184       	93.18343       	93.095985      	93.402504      	93.488655      	93.61453       	93.4251        	93.42367       	93.47619       	94.061066      	94.09897       	93.7263        	94.54058       	94.450966      	94.13977       	94.33358       	94.19218       	94.471016      	94.25745       	94.63909       	94.32478       	94.309975      	94.89026       	94.90909       	94.30664       	93.78665       	93.72737       	93.04631       	93.29491       	93.25839       	93.405846      	93.31457       	93.73603       	93.93811       	94.08512       	94.10091       	93.302246      	93.52828       	93.534744      	93.243416      	93.2755        	93.590546      	93.22328       	93.41073       	93.5376        	93.40417       	93.826645      	93.38574       	93.417145      	93.15609       	92.912384      	92.58874       	93.308235      	93.656075      	93.44303       	93.33681       	93.293335      	
94.50739       	94.0371        	93.990364      	93.73168       	93.439804      	93.64818       	93.11714       	93.528336      	93.38498       	93.14317       	93.319466      	93.524864      	93.47701       	93.159096      	93.380486      	93.00017       	93.369804      	93.51127       	93.266         	93.28007       	93.625885      	93.9524        	93.65003       	93.48302       	93.237625      	92.7749        	93.17479       	92.91361       	93.051605      	93.23926       	93.26865       	92.90522       	93.09429       	92.818954      	93.09185       	92.89735       	92.681305      	92.27093       	92.840294      	92.57036       	92.13486       	92.80298       	93.32443       	93.7184        	93.442535      	94.005325      	93.813         	93.71752       	93.9133        	94.18891       	93.68021       	94.1205        	94.2316        	93.56772       	94.06821       	94.13216       	93.82096       	94.16485       	93.96935       	93.95041       	93.50491       	93.63793       	94.10716       	94.51362       	94.314575      	94.30099       	94.07849       	93.6174        	92.93875       	93.86351       	94.084305      	93.71634       	93.808266      	93.33271       	93.40519       	93.56514       	93.67841       	93.62062       	93.28141       	93.539215      	93.37488       	93.20357       	93.151726      	93.1919        	93.23619       	93.34639       	93.64025       	93.50752       	93.9672        	93.64064       	93.57466       	93.57054       	93.8794        	93.73226       	93.862144      	94.0234        	93.91369       	94.06616       	94.08731       	93.86977       	
94.28703       	94.72095       	94.65905       	94.00204       	93.71432       	93.93151       	93.4355        	93.53532       	93.25906       	93.11719       	93.27787       	93.18363       	93.380974      	93.27552       	93.40683       	93.040474      	92.983536      	92.94313       	93.16564       	92.79858       	93.00373       	93.521935      	93.169174      	93.38453       	93.568275      	93.50955       	93.443634      	93.298515      	93.516594      	92.91284       	93.12801       	93.694855      	93.32787       	93.35932       	93.20921       	93.19838       	93.7032        	93.04212       	92.95707       	92.92562       	92.90976       	93.183365      	93.766525      	93.69962       	93.59716       	93.34273       	93.980415      	94.027534      	93.9322        	94.20383       	93.94083       	94.08183       	94.26751       	94.27075       	94.39366       	94.18879       	93.58941       	94.19817       	94.40719       	94.16469       	94.303825      	94.67407       	94.53244       	94.69095       	94.05233       	93.95131       	94.07915       	93.84715       	93.60499       	93.17493       	92.94002       	92.96542       	92.99566       	93.34126       	93.70675       	93.571304      	93.62923       	93.25777       	93.39368       	93.313126      	92.899         	93.33544       	93.52199       	93.54324       	93.58732       	94.409546      	93.66256       	93.63874       	93.47379       	92.78464       	92.88266       	92.82274       	93.01724       	93.34159       	93.11987       	93.20686       	93.49649       	93.75309       	93.763214      	93.55408       	
94.45731       	94.71392       	94.299736      	94.046234      	93.75831       	93.44353       	93.29741       	93.4277        	93.51918       	93.65815       	93.64969       	93.607056      	93.47408       	93.8321        	93.42906       	93.38696       	94.30429       	94.17003       	93.71915       	93.80599       	93.784134      	93.76299       	93.93856       	93.88864       	94.04166       	94.36902       	93.91932       	93.6362        	93.860916      	93.82099       	93.675446      	93.83231       	93.872154      	93.43379       	93.90103       	93.719925      	93.475174      	93.33833       	93.38032       	92.89721       	93.49712       	93.11955       	93.202835      	94.129654      	93.78048       	93.8744        	94.06883       	93.95258       	93.87455       	93.43047       	93.88285       	93.816414      	94.149055      	93.70602       	94.07081       	94.43257       	93.88529       	93.83953       	94.108154      	94.45108       	94.330765      	95.01604       	94.44524       	94.52261       	94.78376       	94.94132       	94.074776      	93.63069       	93.72812       	93.11386       	93.2495        	93.32096       	93.08397       	93.04968       	92.95027       	92.79077       	93.05525       	92.75432       	92.65268       	92.70729       	92.596565      	93.71485       	93.48722       	93.07923       	93.77534       	94.10468       	93.594406      	93.61649       	93.31718       	92.96381       	93.59078       	93.83423       	93.2529        	93.61872       	93.397995      	92.831474      	93.14229       	93.363815      	93.25209       	93.17346       	
93.89294       	93.99251       	94.54481       	93.759285      	93.518974      	93.3791        	92.95112       	93.29187       	93.60684       	92.97131       	93.23222       	92.99105       	93.385056      	92.67672       	93.416046      	93.38541       	92.80513       	93.38536       	93.698814      	93.84628       	93.61376       	93.514046      	93.44923       	93.81059       	93.184944      	93.288155      	93.41243       	93.27897       	93.0411        	93.479866      	93.272705      	93.280426      	93.561966      	93.525215      	93.404976      	92.9259        	93.174034      	92.93608       	92.74467       	92.81896       	92.920845      	92.65824       	93.452156      	94.1234        	94.18129       	93.96814       	93.853035      	94.21106       	93.96884       	93.76108       	94.21663       	94.39422       	93.36299       	93.55302       	94.1401        	94.221954      	94.02247       	93.72082       	93.617836      	93.652054      	93.56209       	94.02945       	93.74112       	93.81848       	93.68567       	94.0289        	94.15135       	93.55851       	93.38915       	94.00175       	93.657295      	93.23759       	93.18295       	93.24594       	93.36238       	93.36054       	93.38559       	93.17541       	93.39104       	93.33337       	93.34579       	93.61818       	93.54456       	93.23265       	92.87744       	92.87586       	92.636154      	93.33004       	93.12694       	92.621544      	92.88403       	92.87471       	92.8529        	92.94203       	93.333244      	93.38864       	93.2246        	93.2666        	93.672646      	93.896614      	
94.33583       	94.703384      	94.38534       	94.063934      	93.871086      	93.05277       	92.92701       	93.160286      	92.90992       	92.97348       	92.34191       	92.722206      	92.99899       	93.41602       	93.06334       	93.399765      	93.35849       	93.014565      	93.240814      	93.234085      	93.227615      	93.32867       	93.054825      	92.98553       	93.07032       	92.785385      	92.91736       	93.1101        	93.11071       	92.923546      	92.79443       	92.85373       	92.5188        	92.82222       	92.5142        	92.52998       	92.22766       	92.411674      	92.17321       	92.39273       	92.50745       	92.909874      	92.84867       	93.11813       	93.15009       	93.121086      	93.83524       	93.5297        	93.508194      	93.309235      	93.31759       	93.2993        	93.758         	93.47814       	93.18736       	93.29508       	93.38238       	93.66915       	93.500244      	93.81007       	93.40518       	93.853745      	93.89722       	93.593315      	94.077965      	94.38461       	94.28568       	93.77417       	93.559654      	93.59989       	93.815216      	93.441666      	93.08339       	92.94011       	93.12292       	93.03914       	92.90882       	92.952644      	93.24952       	93.34513       	93.17687       	93.468506      	93.192276      	93.22          	93.171646      	93.21949       	93.61715       	93.94728       	93.91802       	93.504166      	93.57054       	93.96093       	93.9075        	93.96927       	93.90626       	94.099434      	93.80513       	93.72472       	93.585785      	93.437256      	
94.563446      	94.29981       	94.72816       	94.65718       	93.728386      	93.75172       	93.223404      	93.13387       	93.211105      	93.39748       	93.024605      	93.203156      	93.454185      	93.61154       	93.82915       	93.69595       	93.38246       	93.898796      	93.89807       	93.76161       	93.81706       	93.815506      	93.41061       	93.01647       	92.75609       	92.362175      	92.71492       	93.17794       	93.163124      	93.423935      	93.43851       	93.20308       	92.93149       	92.75709       	93.162         	93.22893       	93.076675      	92.84578       	92.5809        	92.76505       	92.837845      	93.187546      	93.62793       	93.613396      	94.279594      	93.95863       	93.63644       	93.81047       	93.12302       	93.24987       	93.49657       	93.748726      	93.435555      	93.610214      	93.81078       	93.26061       	93.68227       	93.21221       	93.516464      	94.058556      	94.08298       	93.756485      	94.12313       	94.075066      	94.251915      	94.626205      	94.73558       	93.88382       	93.66185       	93.402016      	93.47857       	93.056435      	92.95658       	93.151375      	92.820206      	93.15081       	92.86303       	93.517685      	93.43908       	93.41386       	93.51234       	93.52535       	93.64706       	93.34599       	93.16684       	93.67851       	93.95336       	94.08147       	94.28894       	93.67555       	93.77565       	94.14791       	94.09112       	93.71922       	93.420784      	93.4189        	93.87279       	93.77258       	93.63051       	93.50054       	
93.46912       	94.28482       	94.1801        	93.8463        	93.858734      	93.43412       	93.203445      	93.36485       	93.60753       	93.30071       	93.414215      	93.306854      	93.484604      	93.47107       	93.043045      	93.19746       	93.32167       	92.73071       	92.94385       	93.56641       	93.24344       	92.86714       	93.1014        	93.35107       	93.23021       	93.552155      	93.44089       	93.02851       	93.1279        	93.262         	92.88615       	93.019775      	92.88009       	93.2186        	93.13695       	92.934364      	93.57621       	93.420906      	93.15231       	93.68023       	92.7857        	92.99594       	93.12154       	93.23369       	93.5306        	93.27592       	93.497185      	93.661674      	93.26569       	93.34717       	93.635574      	93.93692       	93.895355      	93.66442       	93.60141       	93.3503        	93.329605      	93.44947       	93.57939       	93.758705      	93.32643       	93.55187       	93.95423       	93.64428       	93.93194       	94.03732       	94.39026       	93.651665      	93.665054      	93.49442       	93.74519       	93.75996       	93.170074      	93.62802       	93.25713       	93.32091       	93.294556      	93.43887       	93.144905      	93.22768       	93.4867        	93.77471       	93.63493       	93.72906       	94.22859       	93.647095      	93.49617       	93.3058        	93.55786       	93.74091       	93.38701       	93.26254       	93.89832       	93.70859       	93.212555      	93.720184      	93.52117       	93.14799       	92.931854      	92.96603       	
94.0562        	94.16558       	94.26043       	94.359985      	94.163445      	93.67845       	93.44493       	93.23072       	92.92135       	92.829834      	93.187775      	93.018364      	93.12663       	93.82011       	93.451126      	93.66731       	94.01149       	94.09921       	94.28658       	93.76718       	93.64653       	93.27283       	93.85502       	93.65484       	93.75583       	93.3369        	93.63229       	93.930595      	93.43659       	93.76482       	93.509224      	93.29573       	93.24847       	93.410576      	93.233635      	93.14511       	93.38566       	93.25203       	93.71022       	92.869064      	92.693565      	93.002914      	93.113045      	92.86803       	93.30633       	93.39078       	93.2671        	93.378494      	93.67968       	93.26961       	93.315056      	93.20501       	93.54272       	93.61947       	93.31843       	92.84345       	93.26088       	93.157455      	93.13888       	93.362045      	93.28397       	92.700264      	93.30274       	93.50121       	93.14235       	93.50015       	93.71038       	93.76393       	93.47543       	93.01514       	92.80134       	93.15364       	93.13869       	92.69278       	92.66225       	92.66756       	92.83355       	92.67037       	92.696335      	93.06468       	92.97164       	93.16561       	93.86276       	93.4877        	93.25044       	93.450066      	93.67521       	93.79123       	93.413994      	93.63007       	93.81892       	93.734375      	93.77962       	93.679405      	94.09576       	94.03935       	93.77918       	93.48796       	93.42683       	93.567986      	
93.643364      	93.84696       	94.16134       	94.13029       	93.60917       	93.67196       	93.28498       	93.10355       	93.13204       	93.121         	93.196014      	93.74462       	93.497345      	93.76436       	93.750725      	93.11035       	93.35094       	93.43896       	93.23441       	93.06196       	93.230225      	93.531975      	93.3545        	93.19764       	93.486984      	93.177536      	93.67911       	93.47804       	93.012115      	93.35746       	93.85616       	93.20553       	93.251274      	93.36093       	93.78836       	93.24632       	92.65113       	92.63765       	92.817924      	92.30702       	92.55854       	92.35957       	92.66399       	92.85646       	93.9198        	93.83052       	93.2868        	93.6185        	93.64502       	93.50788       	93.652374      	93.458115      	93.3874        	93.606186      	93.69352       	93.20429       	93.53084       	93.37619       	93.613754      	93.147125      	93.31832       	93.3333        	92.89638       	92.96551       	93.413246      	93.43803       	93.45006       	93.709015      	94.08253       	93.65248       	93.34591       	93.10559       	93.42814       	93.32297       	93.63608       	94.13001       	93.91086       	93.357124      	93.857666      	93.83728       	93.72895       	93.66585       	93.36036       	93.51202       	93.740814      	93.299         	93.21117       	93.72862       	93.95125       	93.6984        	94.08285       	93.76202       	93.579765      	94.02649       	94.060715      	93.92875       	93.78718       	93.78581       	93.85792       	94.029175      	
94.063126      	94.09232       	94.41442       	94.54241       	93.69673       	93.243935      	93.23026       	93.58524       	93.31079       	93.217964      	93.64791       	92.97063       	93.40355       	93.03011       	92.72028       	92.96607       	93.272064      	93.33333       	93.74134       	94.163315      	93.807045      	93.587364      	93.56714       	93.37553       	92.910034      	93.147064      	93.16548       	93.10505       	93.15514       	93.40267       	92.98969       	92.96329       	92.77841       	93.25227       	92.8114        	93.20674       	93.52025       	93.03563       	92.505936      	92.948814      	92.71159       	92.611115      	93.03632       	93.193886      	93.78753       	93.88463       	93.46114       	93.1942        	93.18969       	93.15733       	93.26551       	93.917206      	93.840126      	93.42296       	93.40118       	93.44119       	93.18335       	93.50278       	93.342636      	93.78631       	93.779625      	93.72058       	93.41419       	93.71207       	93.161705      	93.02292       	93.24594       	93.305595      	93.38077       	93.47639       	93.34783       	93.07394       	93.56603       	93.59467       	93.67644       	93.52768       	93.79677       	94.09254       	93.68502       	93.67193       	93.65413       	93.13561       	93.72199       	93.173096      	93.34635       	93.609344      	93.45673       	93.58316       	94.00263       	94.15715       	93.54408       	93.47124       	93.74738       	93.58707       	93.64198       	93.701775      	93.88194       	94.02927       	94.23976       	94.32726       	
94.18593       	94.56386       	94.24128       	94.45976       	94.46767       	94.26714       	93.57641       	93.519745      	92.94493       	93.34429       	93.28344       	93.02873       	93.44894       	93.004         	93.41879       	93.56462       	93.25614       	93.186554      	93.29198       	93.1964        	93.42582       	92.70263       	92.86105       	92.15445       	93.39937       	93.33873       	93.0144        	93.43785       	92.985504      	92.87094       	93.37904       	93.69992       	93.28209       	93.25611       	92.8237        	92.967094      	92.880135      	92.38869       	92.34383       	92.57823       	92.32366       	92.398026      	92.88925       	92.81405       	93.625626      	93.8423        	94.14387       	93.76462       	93.54656       	93.22823       	93.47807       	93.743515      	93.92114       	93.44585       	93.28162       	93.20073       	93.21925       	93.645096      	93.12582       	93.34417       	93.647736      	93.8742        	94.08351       	93.60949       	93.92485       	94.0528        	93.738396      	94.36016       	94.15231       	93.59748       	94.06326       	94.29157       	93.98709       	93.94105       	94.04452       	94.182755      	94.15421       	93.485855      	93.48155       	94.36083       	94.3285        	93.69271       	93.694824      	93.88256       	93.98681       	93.96971       	93.74688       	93.795685      	93.60188       	93.88917       	93.29323       	93.39091       	93.57348       	93.76413       	93.89103       	93.80405       	93.96428       	94.22552       	94.07076       	93.96094       	
94.455025      	94.73587       	94.64133       	95.072334      	95.21028       	94.35692       	93.67529       	93.09936       	93.47633       	93.44043       	93.46915       	93.36531       	93.034775      	93.34514       	93.510376      	93.64438       	94.07802       	93.951996      	93.65257       	93.85424       	93.851715      	93.354614      	93.33326       	93.781364      	93.656204      	93.56757       	93.79041       	94.25571       	93.80742       	93.41021       	93.933136      	93.72691       	93.886444      	93.60045       	93.037125      	93.41179       	93.18201       	93.384224      	93.7616        	93.00334       	92.88631       	92.75435       	93.07853       	93.26513       	93.36677       	93.27445       	93.665634      	93.58367       	93.76507       	93.94215       	93.95122       	93.65674       	94.38615       	94.74765       	94.26496       	94.11452       	93.511604      	93.54366       	93.66345       	93.6825        	93.79396       	93.764565      	93.72767       	93.35084       	93.81474       	94.10274       	93.88451       	93.56715       	93.46687       	93.11734       	93.87901       	93.83916       	93.599236      	93.63481       	93.9143        	94.09947       	94.233475      	94.45775       	94.567375      	94.38563       	94.29707       	94.48786       	94.364         	94.57576       	93.98404       	93.79036       	93.81825       	94.058464      	93.90492       	94.04594       	93.83553       	94.28828       	94.51834       	94.493004      	94.48454       	94.32962       	94.568886      	94.36931       	94.2883        	94.232216      	
93.57308       	94.175446      	94.39655       	94.036575      	93.99027       	93.34579       	93.20805       	93.20923       	92.80498       	92.63823       	92.604095      	92.99544       	93.478874      	93.319595      	93.39478       	93.48158       	93.43917       	93.042656      	93.17995       	93.43331       	93.45844       	93.15638       	93.20886       	93.557495      	93.25801       	93.28722       	93.84855       	93.88994       	93.09036       	93.18937       	93.162346      	93.34136       	93.370636      	93.19661       	93.591095      	93.53707       	93.248726      	93.51148       	93.38697       	93.254524      	93.06939       	93.56978       	93.036575      	93.30192       	93.27121       	93.59101       	93.56044       	93.34242       	93.86999       	94.151764      	94.72951       	94.092636      	94.37115       	94.19804       	94.4528        	94.02713       	94.16566       	93.808464      	93.5861        	93.85096       	93.846115      	93.93529       	93.86873       	93.70031       	93.37285       	93.34877       	93.217896      	93.17757       	93.42953       	93.76704       	93.57991       	93.69229       	93.35731       	93.44804       	93.56404       	93.7008        	93.78675       	93.48721       	93.77735       	94.240555      	94.362885      	94.41762       	94.27437       	94.57818       	94.62382       	94.27128       	94.12468       	94.093735      	94.03895       	93.92453       	93.882         	94.20551       	93.80452       	93.74825       	94.16861       	93.83029       	93.93106       	93.86063       	93.79          	93.986946      	
94.31364       	94.19746       	94.11694       	94.30423       	94.809326      	94.25414       	94.195755      	93.8048        	93.36988       	93.4649        	93.633224      	93.7233        	93.29557       	93.643196      	93.26344       	93.17538       	93.6195        	93.64815       	93.67378       	93.82174       	93.95882       	93.74447       	93.75211       	93.61618       	93.72571       	93.57558       	93.64901       	93.538345      	93.34394       	93.38684       	93.304085      	93.72868       	93.282394      	93.06323       	93.21598       	93.17557       	92.750496      	92.69544       	92.829094      	92.74829       	92.101364      	92.244316      	92.50954       	92.196655      	92.38237       	93.14352       	93.07469       	93.143105      	93.36545       	94.008835      	93.37656       	93.56653       	94.11559       	94.001015      	93.94552       	94.137         	93.733894      	93.82736       	93.654625      	93.72273       	93.76906       	94.33261       	94.2399        	94.08435       	93.98317       	94.24073       	94.07588       	93.791016      	93.86656       	93.90727       	93.674835      	93.95417       	93.774704      	93.5968        	93.69878       	93.96403       	93.43258       	93.46121       	93.90246       	93.45964       	93.348305      	93.30226       	93.43515       	93.252884      	93.61483       	93.45801       	93.44842       	93.699875      	93.46391       	94.02326       	93.79325       	93.79349       	94.0769        	94.10221       	93.878716      	93.625565      	93.723434      	93.61882       	93.42764       	93.48439       	
94.14881       	94.27398       	94.39102       	94.12297       	94.32553       	94.01922       	93.63334       	93.69348       	93.27221       	93.26481       	93.64601       	93.24321       	93.46753       	94.10127       	93.47189       	93.98858       	93.87233       	93.7111        	93.34282       	93.65292       	93.421074      	93.47673       	93.503334      	93.83745       	93.84466       	93.12601       	92.65915       	92.76252       	93.00312       	92.18295       	92.626114      	92.44058       	92.56258       	92.48876       	92.99539       	93.05519       	93.2673        	92.86902       	92.44691       	92.99682       	92.99093       	92.66516       	93.11829       	93.11406       	92.55681       	92.771675      	93.03763       	93.18426       	92.95698       	92.77239       	93.08365       	93.11131       	93.25896       	93.17411       	93.225655      	93.48205       	93.861725      	94.12265       	94.07452       	93.79813       	93.6965        	94.04195       	93.64486       	94.00117       	93.58812       	93.43876       	93.532585      	93.90443       	93.87956       	93.70462       	93.73678       	93.33416       	93.23568       	93.12895       	93.40301       	93.5728        	93.39564       	92.989624      	93.3045        	93.466805      	93.55632       	93.279625      	93.34206       	93.46905       	93.35949       	93.277756      	93.52063       	93.33885       	93.5378        	93.48572       	93.713486      	93.65593       	93.789604      	93.834915      	93.62385       	93.24508       	92.98813       	93.207954      	93.61565       	93.82066       	
93.72686       	93.78393       	94.25635       	93.99322       	94.53512       	94.37331       	94.227425      	93.89426       	93.70137       	93.36816       	93.22142       	93.42559       	93.620575      	93.529045      	93.84315       	93.68595       	93.052124      	93.01875       	93.50196       	92.96622       	93.48097       	93.02406       	92.859726      	92.87652       	92.578156      	93.17592       	92.86593       	92.61581       	92.781204      	92.76263       	92.78666       	93.0682        	93.11051       	93.2994        	93.05157       	92.92974       	93.03105       	93.1252        	93.204414      	93.5175        	93.2454        	93.414444      	93.13745       	93.16059       	93.74671       	93.83729       	93.60872       	93.66259       	93.41828       	93.26987       	93.707535      	93.96693       	93.55397       	92.88008       	93.46821       	93.81444       	93.06754       	92.651115      	93.22972       	93.49028       	93.43705       	93.228165      	92.64952       	92.955414      	92.85998       	93.03087       	93.11149       	92.75501       	93.05994       	93.21347       	93.18017       	93.282394      	92.956184      	93.34949       	93.118744      	92.942764      	93.24367       	93.2028        	93.474106      	92.87715       	93.15648       	93.276375      	93.03718       	92.86426       	93.350945      	93.19858       	92.917595      	93.03956       	93.6211        	93.35466       	93.2519        	93.58109       	93.69903       	93.38917       	93.554596      	93.589035      	93.229004      	93.16912       	93.476234      	93.70716       	
93.90195       	93.72607       	94.38376       	93.78864       	94.83681       	94.90016       	94.199295      	94.08766       	93.59392       	93.122955      	93.09379       	93.65983       	93.330635      	93.26868       	93.50229       	93.24632       	92.83419       	93.5046        	93.15427       	93.96341       	93.53887       	93.44533       	93.81048       	93.86607       	93.56381       	93.13823       	93.37115       	93.521774      	93.94296       	93.94397       	93.61423       	93.223724      	93.59797       	93.753456      	93.25141       	93.053314      	93.43007       	93.157524      	93.54257       	93.28924       	93.47525       	92.906746      	92.954796      	93.17777       	93.04745       	93.26652       	93.46227       	93.57899       	93.563126      	93.74313       	93.49377       	94.08812       	93.781654      	93.51268       	93.30432       	93.26771       	92.90674       	92.90442       	93.23648       	93.22811       	93.20611       	93.23722       	93.22832       	93.24437       	93.75572       	93.557076      	93.55437       	93.274666      	92.99703       	93.11418       	93.330025      	93.18574       	93.40111       	93.50013       	93.62188       	93.69222       	93.69694       	93.34984       	93.76286       	93.74014       	93.42811       	93.69381       	93.42191       	93.36506       	94.01169       	94.23825       	93.730515      	93.76903       	93.80721       	93.76384       	93.80781       	93.73938       	93.93563       	93.80551       	93.59775       	93.945145      	93.82238       	93.95656       	93.99384       	94.068695      	
93.93213       	94.11923       	94.232544      	93.843704      	93.96333       	94.25005       	93.60362       	93.0588        	93.24393       	92.70028       	92.71304       	92.782875      	92.755196      	92.803955      	93.17537       	93.458755      	93.61613       	93.36867       	93.45097       	93.761154      	93.01431       	93.11763       	93.09745       	93.3531        	92.901665      	93.02235       	93.28544       	93.59676       	93.42553       	93.69632       	93.428345      	93.25739       	93.32988       	93.285126      	93.613235      	93.88237       	93.762955      	94.42974       	93.608315      	93.77689       	93.70226       	93.938484      	93.741905      	94.012535      	93.64867       	93.568985      	93.962204      	93.81129       	93.27172       	93.25077       	93.30616       	93.43575       	93.9997        	94.193695      	93.73215       	93.44108       	93.41804       	93.88524       	93.98221       	94.272934      	93.55439       	93.739944      	93.81694       	93.98841       	94.59484       	94.1378        	93.76362       	94.02616       	93.93559       	93.8903        	93.820526      	93.87385       	93.46187       	93.94547       	93.99317       	93.945404      	94.04817       	94.08361       	93.61341       	93.83475       	93.3658        	93.387505      	93.64483       	93.81164       	93.18579       	93.84814       	93.85412       	93.3263        	93.596725      	93.89379       	93.96129       	93.767426      	93.892494      	94.42622       	94.283676      	94.20633       	93.70383       	93.65462       	93.55177       	93.79711       	
94.62776       	94.156746      	94.35165       	94.97395       	94.6185        	94.66285       	94.5778        	94.51452       	94.037506      	93.85735       	93.45499       	93.527214      	93.506256      	93.495476      	93.557076      	93.46106       	92.9246        	92.72722       	92.78992       	92.9147        	92.876495      	93.20443       	93.35689       	93.28932       	93.52849       	93.86839       	93.7729        	93.24157       	93.961624      	93.59546       	93.52049       	93.866905      	93.832855      	93.79732       	93.27542       	93.62764       	93.87287       	94.10946       	94.20443       	94.310715      	94.35985       	93.76514       	93.7747        	93.90988       	93.93825       	94.00392       	93.79907       	93.94687       	93.6727        	93.13782       	92.888756      	93.11967       	92.90747       	92.84457       	92.701         	92.75021       	92.998886      	93.37118       	93.05714       	93.159004      	93.00354       	92.91391       	93.079506      	93.28326       	93.48213       	93.25115       	93.01897       	92.813034      	93.37023       	93.741165      	93.63595       	93.22608       	93.239334      	93.19107       	93.5557        	93.4981        	93.5644        	93.598305      	93.711876      	93.29164       	93.73122       	93.23636       	93.00494       	93.484116      	92.847466      	92.48353       	92.589424      	93.23076       	93.04036       	92.95491       	93.68437       	94.04512       	93.64685       	93.77796       	93.29405       	93.297775      	93.61707       	93.7273        	93.66336       	93.59222       	
94.02393       	94.36646       	94.6453        	94.462         	94.15382       	94.35979       	94.29915       	93.8248        	93.62807       	93.39273       	93.49564       	93.33046       	93.117294      	93.305534      	93.37718       	93.6445        	93.511284      	93.35238       	93.48744       	93.91484       	93.39251       	93.62593       	93.91996       	93.72692       	93.79353       	93.969124      	93.70201       	93.63475       	94.20104       	93.99348       	93.688934      	93.89229       	93.72613       	93.91435       	93.83886       	93.36949       	93.78763       	93.94481       	93.420364      	93.66767       	93.288284      	93.16424       	92.93316       	93.52794       	93.39513       	93.47204       	93.626144      	93.834755      	93.55608       	93.13982       	93.38292       	93.666794      	93.993454      	93.56993       	93.73459       	93.87111       	94.21126       	94.26922       	94.48829       	94.58297       	94.14202       	93.69901       	94.14997       	94.29284       	93.97149       	93.876335      	94.3707        	94.175446      	93.81658       	93.91186       	94.12531       	94.28129       	93.4322        	93.8977        	94.35747       	93.85246       	93.61187       	93.55156       	93.93935       	94.04439       	93.95053       	94.22679       	94.21053       	94.00426       	94.26401       	93.60965       	93.372604      	93.649765      	93.925156      	93.78878       	93.81975       	93.983086      	93.572685      	93.232376      	92.92384       	93.412315      	93.385666      	93.21544       	93.007805      	92.80095       	
94.0901        	94.833244      	94.52941       	94.08573       	94.40348       	94.28447       	94.28885       	94.107376      	93.68395       	93.342255      	93.19462       	93.60191       	93.033394      	93.253944      	93.02861       	93.12207       	93.43825       	93.46077       	94.017006      	93.943726      	93.822174      	93.35057       	93.697556      	93.55994       	93.45889       	93.59032       	93.208855      	93.42351       	93.877686      	93.159386      	93.26441       	93.82512       	93.55263       	93.7132        	93.29894       	93.05897       	93.37535       	92.76891       	92.898285      	93.320114      	93.68792       	93.42456       	93.12172       	93.179         	92.93709       	93.42437       	93.03283       	93.10409       	93.185776      	93.31241       	93.184296      	93.68722       	93.176865      	92.884445      	93.49781       	93.176636      	92.74621       	93.310875      	92.919395      	92.99669       	93.06928       	92.851234      	93.477745      	93.392204      	93.3251        	94.040695      	93.59096       	93.413895      	93.4877        	93.57036       	93.31048       	93.39645       	93.9665        	93.73943       	93.71783       	93.63782       	93.62859       	93.59703       	93.951675      	93.96708       	93.429756      	93.74478       	94.00952       	93.809494      	93.95866       	93.438324      	93.117935      	93.647064      	93.33383       	93.685555      	94.087036      	93.70219       	93.49523       	93.92732       	94.013016      	93.825195      	93.571976      	93.661         	93.92961       	93.85268       	
93.71571       	93.736984      	93.80675       	93.94251       	94.28439       	94.49388       	94.42252       	94.167305      	94.18421       	93.93457       	94.05849       	93.93746       	93.772385      	94.01604       	93.68356       	93.55905       	93.24631       	93.83587       	93.90175       	93.836266      	93.85247       	94.03722       	94.244965      	94.0168        	94.13681       	94.088486      	94.464615      	94.033806      	93.74646       	93.99826       	93.93352       	93.93757       	94.15695       	93.840225      	93.619385      	93.62859       	93.59317       	93.38004       	93.56824       	93.21032       	93.91863       	93.56639       	93.74506       	93.563446      	93.83592       	93.6392        	93.6407        	93.79813       	93.88433       	93.72136       	93.299225      	93.54114       	93.63154       	93.64525       	93.43409       	93.74327       	93.31822       	93.65264       	93.72278       	93.516846      	93.892715      	94.2598        	93.924484      	93.84278       	93.69926       	93.82824       	94.01494       	94.06867       	93.56513       	93.63567       	93.930984      	93.56422       	93.42948       	93.48087       	93.060425      	93.5191        	93.602905      	93.58219       	94.523964      	94.14922       	93.90766       	94.25692       	94.18529       	93.84974       	94.325005      	94.66272       	94.47712       	94.32944       	94.87548       	94.32022       	93.77174       	93.55993       	93.58168       	94.004425      	93.743515      	93.83412       	93.7544        	93.72226       	93.61633       	93.55614       	
94.12176       	93.98244       	94.30929       	93.9659        	93.97685       	94.32133       	94.33886       	93.94618       	94.03923       	93.56372       	93.406975      	93.405075      	93.538376      	93.327225      	93.273186      	94.03552       	93.82201       	93.6137        	93.64523       	93.77387       	93.51674       	93.73886       	93.69174       	93.509346      	93.4655        	93.6396        	93.75986       	93.47026       	92.69028       	92.963745      	92.9004        	92.93306       	93.454025      	93.51965       	93.42229       	93.31689       	93.378         	93.20539       	93.45778       	93.02526       	93.22102       	93.9447        	93.83483       	94.17929       	94.01803       	94.06373       	93.845345      	93.98519       	93.562256      	93.43246       	94.27979       	94.1226        	94.07803       	94.169716      	94.274216      	94.05388       	93.85784       	94.005264      	93.91032       	93.673706      	94.15581       	94.64479       	94.36378       	94.06756       	94.084114      	94.12996       	93.8888        	94.26317       	94.38655       	93.46318       	93.68343       	94.27152       	93.34813       	93.612274      	93.25815       	93.8297        	94.104706      	93.48514       	93.92054       	93.8309        	93.49095       	94.04569       	93.92105       	93.4935        	93.371254      	93.99989       	93.66875       	93.52159       	93.87593       	93.330315      	93.657265      	93.97436       	93.76016       	93.843636      	94.00081       	93.998825      	93.817345      	93.75688       	93.845474      	93.94677       	
93.73326       	93.66418       	93.80737       	93.77209       	93.63395       	93.5076        	93.86488       	93.96695       	93.73288       	93.659164      	93.38555       	93.61547       	93.7425        	93.502594      	93.659195      	93.8003        	93.60479       	93.49          	93.72926       	93.80698       	93.71795       	93.78162       	93.781204      	93.75289       	94.034294      	93.54354       	93.884155      	93.46864       	93.76866       	94.054276      	94.16462       	93.76013       	94.01          	94.02007       	93.8973        	94.1841        	94.16672       	94.0143        	93.88574       	93.55519       	93.589836      	93.35189       	93.25099       	93.03349       	93.98265       	93.751915      	93.80844       	94.0735        	94.38856       	94.448105      	94.00461       	94.00084       	94.118614      	94.42799       	94.22863       	93.80157       	93.75678       	93.485306      	94.241615      	94.088005      	93.40932       	93.58312       	93.1058        	93.36689       	93.51686       	93.677376      	93.65589       	93.465904      	93.25152       	93.337494      	93.64328       	93.26196       	93.25251       	93.65795       	93.462         	93.69915       	93.4138        	93.91048       	93.833         	93.96414       	93.63421       	93.98974       	93.560234      	93.80146       	94.01861       	93.81761       	94.12928       	94.106026      	93.9747        	93.77475       	93.69637       	93.66855       	94.01966       	93.89054       	93.93855       	93.676346      	93.993904      	94.166595      	94.18437       	94.10666       	
93.77663       	93.75782       	93.49571       	93.52867       	93.11023       	93.29911       	93.979034      	93.8105        	93.64461       	94.23404       	93.395645      	93.535934      	93.40721       	93.49327       	93.094894      	93.53162       	93.2592        	93.64535       	93.61417       	93.29385       	93.91788       	93.7897        	93.05368       	93.47297       	93.53492       	93.256546      	93.7345        	93.83199       	93.600494      	93.858406      	93.7954        	93.45247       	93.842125      	94.16431       	93.7688        	93.51871       	93.74892       	93.95673       	94.11424       	94.57854       	93.70778       	93.87901       	94.03488       	93.99002       	94.56977       	94.233284      	94.05177       	94.27189       	94.059395      	93.78714       	93.87407       	94.04528       	93.74926       	94.12778       	93.61307       	94.201904      	94.04964       	93.44849       	93.36242       	93.347206      	93.269394      	93.91851       	93.46152       	93.3851        	93.39477       	93.966064      	94.0276        	93.985596      	93.699326      	93.735825      	93.763275      	93.236176      	93.27251       	92.92541       	92.71955       	93.28368       	93.47435       	93.27159       	93.44539       	93.33297       	93.21114       	93.20048       	93.39444       	93.35467       	93.41906       	93.63004       	93.74771       	93.5207        	94.07002       	93.783165      	93.89015       	93.8227        	93.686844      	93.8992        	93.56796       	93.412         	93.58566       	93.579025      	93.5651        	93.65295       	
93.43745       	93.14143       	93.126625      	93.37805       	93.56807       	93.94569       	93.71568       	93.47154       	93.69799       	93.488396      	93.39145       	93.67065       	93.353935      	93.45857       	93.66646       	93.45259       	93.31432       	93.216866      	93.64671       	93.553986      	94.220634      	94.089424      	93.87041       	94.06773       	94.07313       	93.749146      	93.83238       	94.339485      	94.217545      	93.783615      	93.80305       	93.38238       	93.48215       	93.7707        	93.733185      	93.27067       	93.10555       	92.6877        	92.63496       	93.046875      	93.1864        	92.81616       	92.963776      	93.15862       	93.3074        	93.02025       	93.287025      	92.814575      	93.03769       	93.37785       	93.34404       	93.03788       	93.02021       	93.17311       	93.284195      	93.09349       	93.23819       	93.173355      	93.5565        	93.3416        	93.5899        	93.575615      	93.79919       	94.01458       	93.84006       	93.8927        	93.85982       	93.17027       	93.17078       	93.67901       	93.26083       	92.93213       	93.34764       	93.772835      	93.35353       	93.4987        	93.40901       	93.80326       	93.454094      	93.23754       	93.386795      	93.456894      	93.16968       	93.55832       	93.770515      	93.77589       	93.78584       	94.03859       	94.04347       	94.11259       	94.247925      	94.204704      	93.911095      	93.78862       	93.41148       	93.48738       	93.44868       	93.40291       	93.35803       	93.266914      	
93.24435       	93.1034        	93.52288       	93.81251       	92.7924        	93.34406       	93.57764       	93.30972       	92.9978        	93.259995      	93.60823       	93.34713       	93.78854       	93.187294      	92.91578       	93.14432       	93.321045      	92.96109       	92.930595      	92.94198       	93.359055      	93.282455      	93.12203       	92.75241       	93.08796       	93.22502       	93.88114       	93.905685      	94.078545      	93.36302       	93.59208       	93.516365      	93.0162        	93.23446       	93.60802       	93.44713       	93.57313       	93.7544        	93.22025       	93.70323       	94.01734       	93.644775      	93.44491       	93.316895      	93.62565       	93.030594      	92.678764      	93.07702       	93.660416      	93.6036        	93.53549       	93.93607       	93.77796       	93.960785      	94.173965      	93.5724        	93.21456       	93.72469       	93.807365      	93.415054      	93.89723       	93.89778       	93.364204      	93.46915       	93.30147       	93.438065      	93.48526       	93.496216      	93.37147       	93.68427       	93.51469       	93.12839       	93.40351       	93.49864       	93.645294      	93.72917       	93.40404       	93.089355      	93.18632       	93.698074      	93.856865      	94.01872       	93.95602       	93.73387       	93.97769       	93.85924       	94.07506       	94.169815      	94.09415       	93.88155       	93.67418       	93.54909       	93.30307       	93.150024      	93.40874       	93.06944       	93.16358       	93.32715       	93.540405      	93.74507       	
94.25607       	93.90955       	94.224785      	94.150955      	93.42404       	93.299484      	93.67656       	93.476776      	93.96044       	93.668205      	93.6113        	93.70383       	94.001816      	93.81034       	94.303764      	93.90035       	93.85863       	94.213425      	93.89133       	93.358696      	93.64071       	94.44975       	94.192276      	94.02613       	93.799736      	93.83306       	93.776245      	93.8309        	93.93571       	93.63318       	93.09608       	93.30985       	93.622         	93.12899       	93.21569       	92.88179       	93.26863       	93.602936      	93.37006       	93.77938       	93.81755       	93.71298       	93.7023        	94.18294       	94.34178       	93.922035      	94.24          	94.18778       	93.722694      	93.66947       	94.05925       	93.94072       	93.90689       	94.01599       	93.81693       	93.04228       	93.21021       	93.63221       	93.574066      	93.46394       	94.04528       	93.77021       	93.498116      	93.933266      	93.84859       	93.94929       	94.01553       	93.943344      	93.91777       	93.86821       	93.83634       	94.063995      	93.930824      	93.94344       	93.894905      	93.361374      	93.48406       	93.46192       	93.52846       	93.5302        	93.396034      	93.37619       	93.55394       	93.50495       	93.23263       	93.59119       	94.14287       	94.39163       	93.9026        	94.40118       	94.19951       	94.25778       	94.367424      	94.16801       	94.09697       	93.74797       	94.04715       	94.06843       	93.79135       	93.67561       	
93.35767       	93.832146      	93.9508        	94.55985       	94.04168       	93.87281       	93.94251       	94.02927       	93.63164       	93.89072       	94.27967       	93.75432       	93.470825      	93.55429       	93.72198       	93.31404       	92.98063       	93.03629       	93.159225      	93.28291       	93.22433       	93.41686       	93.39922       	93.510414      	93.95495       	93.80035       	93.98445       	93.68564       	93.676476      	93.59473       	93.717155      	93.69706       	93.89408       	93.73043       	93.641396      	93.31163       	93.83983       	93.6374        	93.559685      	93.2957        	93.57284       	93.60765       	93.63624       	94.232666      	94.02742       	93.70182       	93.7837        	94.00145       	93.8929        	94.223526      	93.72172       	93.57343       	93.46343       	93.64613       	93.67034       	93.34205       	93.50168       	93.304405      	93.437004      	93.90964       	93.40917       	93.66393       	93.55252       	93.35787       	93.86267       	93.79716       	93.489         	93.71537       	93.76323       	93.93782       	93.706215      	94.12342       	93.88994       	94.025894      	94.170494      	93.65909       	93.589806      	93.78          	92.95097       	93.263756      	93.44267       	93.3273        	93.05413       	93.47613       	93.822174      	93.91597       	93.445404      	93.16493       	93.57636       	93.71011       	93.88722       	94.028275      	93.57056       	93.57681       	93.77127       	93.80246       	93.54053       	93.6303        	93.85484       	93.853035      	
93.695114      	93.40523       	93.619965      	93.59225       	93.38492       	93.25359       	93.93403       	93.41792       	93.32112       	93.515465      	93.7482        	93.13388       	93.00954       	93.13669       	92.909065      	93.150024      	93.52963       	93.85128       	93.56926       	93.220055      	93.35653       	93.35076       	93.64802       	93.12984       	93.30583       	93.66674       	93.28014       	93.34268       	93.37514       	93.25858       	93.267914      	93.133995      	93.29738       	93.45232       	93.36389       	93.43568       	93.77471       	93.8223        	93.584785      	93.849045      	93.58308       	93.66174       	93.96773       	93.92953       	93.4499        	93.6363        	93.69393       	93.39472       	93.728714      	93.63954       	93.82104       	93.82472       	93.72531       	93.88083       	93.94972       	93.821465      	93.80832       	93.823746      	93.662964      	93.46967       	93.721016      	93.09096       	93.45007       	93.69118       	93.61418       	93.78474       	93.67026       	93.93389       	94.09498       	94.02375       	93.88466       	94.407875      	94.080246      	94.09832       	94.14517       	94.32063       	94.134155      	94.415085      	94.19744       	94.09049       	93.75655       	93.67126       	94.360565      	93.91381       	94.06332       	94.434135      	94.56551       	94.05014       	93.55401       	93.72559       	93.173965      	93.21184       	93.223274      	93.43251       	93.72216       	93.71526       	93.256714      	92.812515      	92.76417       	92.7613        	
93.23282       	93.68672       	93.961395      	93.89639       	93.549835      	93.411545      	93.561676      	93.2629        	93.41063       	93.570915      	93.52089       	94.07645       	93.95934       	93.950424      	93.268585      	93.641426      	93.79261       	93.6971        	94.01435       	93.58574       	93.83339       	94.28566       	94.12227       	94.013435      	94.506134      	94.30697       	94.170425      	93.8847        	93.85356       	93.942665      	94.19404       	94.238785      	93.73959       	93.8741        	93.668465      	93.38164       	93.673904      	93.381905      	93.54089       	93.95912       	93.33627       	93.426765      	93.39763       	93.3519        	93.247185      	93.68889       	94.11801       	93.72712       	93.55448       	93.512245      	93.71565       	93.78049       	93.82007       	93.77251       	94.04903       	94.01721       	93.71125       	93.190674      	93.15181       	93.37635       	93.54346       	93.252846      	93.88041       	93.65979       	93.023445      	92.765175      	93.57394       	93.43027       	93.25773       	93.81962       	94.014175      	93.92962       	93.40144       	93.04723       	93.37453       	93.52181       	93.56209       	93.67118       	93.819565      	93.47879       	93.61815       	93.53429       	94.02665       	94.164276      	94.25888       	94.85593       	94.64692       	94.27157       	94.32012       	93.86491       	93.96015       	93.8543        	93.579384      	93.49747       	93.62855       	93.58202       	93.26815       	93.336075      	93.3877        	93.40968       	
93.53531       	92.75316       	92.976616      	93.19438       	93.373856      	93.63036       	93.30885       	93.69071       	93.846405      	93.84802       	93.94595       	93.66419       	93.46022       	93.710556      	93.7788        	93.50712       	93.23072       	93.551865      	93.26805       	93.35275       	93.12071       	93.30269       	93.75235       	93.21556       	92.95101       	93.349525      	93.244736      	93.50888       	93.3778        	93.70373       	93.880646      	93.887314      	93.57508       	93.13779       	93.95337       	93.70794       	93.0836        	92.87161       	93.22282       	93.76828       	93.66247       	93.83961       	93.38227       	93.44411       	93.04115       	92.840775      	93.4462        	93.59042       	93.77431       	94.03065       	93.852295      	93.66889       	93.57497       	93.42484       	93.89925       	94.066475      	93.96688       	94.27459       	93.9203        	94.007484      	94.229256      	94.4898        	94.25623       	94.00028       	94.41037       	94.29933       	94.21477       	94.086136      	93.92773       	93.74367       	93.94153       	94.19304       	94.18095       	94.216606      	94.66473       	94.27679       	94.41809       	94.32194       	93.74105       	94.17159       	94.58552       	94.71866       	94.56583       	94.59441       	94.50867       	94.32312       	94.2092        	93.82865       	93.02115       	93.257866      	92.88074       	92.804146      	92.57911       	92.83126       	93.095215      	92.950005      	92.97684       	92.88904       	93.11229       	93.60486       	
94.13671       	93.73827       	93.50965       	94.19965       	93.756676      	93.8927        	93.968925      	93.81691       	93.41501       	93.99863       	94.48454       	94.00883       	94.17547       	94.16047       	93.97673       	94.096054      	93.674805      	93.51138       	93.59604       	93.363754      	93.93811       	93.84531       	93.826904      	93.87181       	93.938736      	93.55258       	93.4559        	93.50896       	93.382095      	93.326584      	93.6347        	93.06259       	93.19217       	93.229454      	92.993256      	93.04799       	93.321915      	93.193474      	93.05543       	93.380775      	93.18161       	93.06303       	93.8169        	93.53545       	93.06554       	93.55455       	94.125084      	93.66361       	93.912094      	93.73036       	93.8752        	93.95682       	93.93733       	93.47077       	93.06989       	93.5185        	93.429214      	93.61344       	93.56914       	93.5159        	94.09321       	94.15197       	94.1815        	93.513115      	93.40105       	94.07421       	94.18019       	94.07288       	93.85507       	94.303696      	94.49834       	94.36089       	94.24403       	94.33361       	93.89632       	94.149         	93.99916       	93.83945       	94.10917       	94.27669       	94.18919       	94.24438       	94.44389       	94.19815       	93.87386       	93.61726       	93.336555      	93.018196      	93.5854        	93.0852        	93.396126      	93.60515       	93.63187       	93.427666      	93.41737       	93.166626      	93.09606       	93.32466       	93.1936        	93.140335      	
93.174576      	92.81802       	93.02565       	93.30627       	93.06342       	93.274216      	93.382164      	93.148315      	93.41638       	93.40658       	93.03281       	93.27797       	93.61275       	93.37505       	93.62407       	93.575         	93.43692       	93.70428       	93.36844       	93.30876       	93.45597       	93.29406       	93.744255      	93.713425      	93.59797       	93.279976      	93.62565       	93.37528       	93.09982       	93.273994      	93.666245      	93.55974       	93.6567        	93.71424       	94.08086       	93.76216       	93.71903       	93.76242       	93.865395      	94.24824       	93.76244       	93.264946      	93.58049       	93.878456      	94.28893       	93.916695      	93.73206       	94.0757        	93.95014       	93.63178       	93.83477       	93.8545        	93.763596      	93.32857       	94.104195      	93.958305      	94.05298       	93.79973       	94.06356       	93.67956       	93.79728       	93.42364       	93.81774       	93.54529       	93.72541       	94.271675      	94.18847       	94.21814       	94.052124      	94.08223       	94.10079       	94.04855       	94.24806       	94.35316       	93.6628        	94.11427       	94.23601       	94.3516        	94.253555      	94.22929       	93.72029       	93.24376       	92.96244       	93.427826      	94.103325      	93.741264      	93.684494      	94.35739       	94.478645      	94.31816       	94.24824       	94.20961       	94.137115      	94.17929       	93.94084       	93.94152       	94.013145      	93.753174      	93.74952       	93.59317       	
93.75599       	93.20965       	93.09758       	93.46351       	93.43258       	93.39595       	93.54694       	93.41427       	93.18592       	92.87207       	93.576645      	93.55391       	93.57474       	93.44699       	93.54616       	93.22606       	93.58925       	94.15427       	93.30895       	93.74106       	93.705734      	93.5653        	93.672905      	93.85806       	93.82447       	93.394165      	93.35587       	93.266304      	93.7334        	93.57052       	93.10711       	93.01652       	93.24104       	93.725266      	93.739136      	93.385635      	93.7093        	94.03671       	93.76987       	93.68581       	93.88942       	94.15746       	93.84534       	93.629845      	93.84698       	93.65238       	93.42418       	93.78449       	94.41127       	94.13948       	93.52631       	93.271835      	93.31396       	93.42505       	93.50992       	93.685104      	93.92746       	93.63932       	93.874146      	94.163506      	94.25809       	93.85811       	94.05562       	94.01978       	93.88654       	94.200966      	93.99975       	93.897934      	94.00627       	94.09201       	93.90728       	93.936386      	93.95344       	93.83365       	93.89023       	93.776276      	93.96742       	93.79408       	92.939316      	93.51701       	93.189095      	93.04354       	93.13935       	93.16687       	92.91145       	93.36629       	93.76032       	93.49385       	93.74059       	93.63302       	93.27038       	93.24189       	93.47723       	92.924934      	93.29694       	93.516525      	93.42289       	93.45242       	93.38175       	93.25451       	
93.55436       	93.65093       	93.80945       	93.978485      	93.64791       	93.68648       	93.66629       	93.629524      	93.836494      	94.0374        	94.198135      	93.86772       	93.912094      	94.52546       	93.81889       	93.789276      	94.06795       	94.28476       	93.59464       	93.83062       	93.92726       	93.68908       	93.85505       	93.67277       	93.78262       	93.94674       	94.123535      	93.91472       	93.74134       	93.37193       	93.45021       	93.58004       	93.721085      	93.169365      	93.30927       	93.86623       	93.739365      	93.8437        	93.87069       	93.90321       	93.92871       	93.81128       	94.46457       	94.82777       	94.353645      	93.71959       	93.754196      	93.93525       	94.3095        	94.83904       	94.31494       	94.759384      	94.67139       	94.93961       	94.47787       	93.9462        	94.25406       	94.1398        	93.9608        	94.51789       	94.17217       	93.67181       	93.81633       	94.04398       	93.88099       	94.08835       	93.93916       	94.22066       	94.48047       	93.94482       	93.84998       	94.290764      	93.95784       	93.94629       	94.519394      	94.16053       	93.51233       	92.832115      	93.204475      	93.265045      	92.70594       	92.896935      	93.54968       	93.06784       	92.54593       	92.79598       	92.937065      	92.989624      	92.98841       	92.80273       	93.40527       	93.44148       	93.33017       	93.101105      	93.03096       	92.85987       	92.898224      	93.04131       	93.01018       	93.09835       	
93.418365      	93.14155       	93.06054       	93.685074      	93.270256      	93.45703       	93.72375       	93.578354      	93.17705       	93.78337       	94.07478       	93.98734       	93.85831       	94.01692       	93.79126       	93.1106        	93.43962       	93.27028       	93.486626      	93.119705      	93.31425       	93.19056       	93.35494       	93.45661       	93.75015       	93.702545      	93.22423       	93.65917       	93.26355       	93.49828       	93.44872       	93.14771       	93.71924       	93.566925      	93.37359       	93.24163       	93.5775        	93.407486      	93.57443       	94.40564       	93.91562       	93.32982       	93.203316      	93.04633       	92.92266       	93.20391       	93.01491       	92.92872       	93.259575      	93.35257       	93.38609       	93.62972       	93.298065      	93.07636       	93.43645       	93.504654      	92.909805      	92.85444       	93.09915       	93.27103       	93.68417       	93.196         	92.96928       	93.822464      	93.36413       	93.50231       	93.945206      	94.30603       	93.989006      	94.48278       	94.09163       	94.28387       	94.71254       	94.25108       	94.58855       	94.19704       	93.67965       	93.159164      	94.05807       	93.99269       	93.317924      	93.4107        	93.43841       	93.547165      	93.712616      	93.86317       	94.14638       	93.857185      	93.807846      	93.66298       	93.92028       	93.262505      	93.06914       	93.70895       	93.169075      	93.44786       	93.65782       	93.96579       	93.9642        	93.88886       	
93.840225      	94.254585      	94.00026       	93.94013       	94.094406      	94.0408        	93.753525      	93.93286       	93.79333       	93.56625       	93.58852       	93.72241       	93.50504       	93.57818       	93.53146       	93.848755      	93.95329       	93.62973       	93.355576      	93.63874       	92.793045      	93.446945      	93.7108        	93.50737       	93.9357        	94.19475       	93.71048       	93.507355      	93.12151       	93.40942       	93.572266      	93.34743       	93.94904       	93.85983       	93.74418       	93.43103       	94.03096       	94.12648       	94.327484      	93.7           	94.161934      	94.01607       	93.790726      	93.58135       	93.83586       	93.516525      	93.20059       	93.79435       	93.65311       	93.44445       	93.53719       	93.88696       	93.86439       	93.72377       	92.89748       	93.30713       	93.31778       	92.87984       	93.32997       	93.66556       	93.177155      	93.48361       	93.9453        	93.84497       	93.95202       	93.75949       	94.3795        	94.38146       	93.95516       	94.02319       	93.93883       	94.02511       	93.90285       	93.99086       	94.44543       	93.76066       	93.39861       	93.15524       	93.18885       	93.19059       	92.87149       	93.27876       	93.31723       	93.097084      	93.530235      	93.547295      	93.88294       	93.81324       	93.908516      	94.099594      	93.97708       	93.968765      	94.22834       	94.04682       	93.82726       	94.182846      	94.03726       	94.009384      	94.01208       	94.05725       	
93.38485       	93.861946      	93.73491       	93.68417       	93.665764      	93.516846      	93.619194      	93.4055        	94.094185      	93.790085      	94.45434       	93.916954      	93.77287       	93.67348       	93.96049       	93.766655      	93.70122       	93.99262       	93.62211       	93.94442       	94.093925      	93.93168       	93.87997       	93.836075      	93.68043       	93.76844       	93.37683       	93.9861        	93.04414       	93.57145       	93.71976       	93.63326       	93.484406      	93.371086      	93.33452       	93.51063       	93.44641       	93.48321       	93.25091       	93.24456       	93.3958        	93.63409       	93.156136      	93.62321       	93.60944       	93.55468       	93.817184      	94.09201       	93.55017       	93.63851       	93.54532       	93.382454      	94.01489       	93.63393       	93.05974       	93.797714      	93.85423       	93.57851       	93.44601       	93.24273       	93.35641       	93.60562       	93.64526       	93.4612        	93.47588       	93.11175       	92.885956      	93.15949       	93.59095       	93.61195       	93.96474       	93.81388       	93.68364       	93.817276      	94.3294        	93.688614      	93.5017        	93.419136      	93.253136      	93.31092       	93.42978       	93.34457       	93.13839       	93.19896       	93.29927       	93.386894      	93.23573       	92.94362       	93.104546      	93.39973       	93.38029       	93.71488       	93.538345      	93.68188       	93.29695       	93.38297       	93.10616       	93.15008       	93.33825       	93.08273       	
93.46935       	93.28735       	93.475845      	93.90874       	93.58769       	93.54951       	93.653915      	93.63135       	93.69089       	94.11865       	93.98162       	93.451096      	93.221         	93.15613       	93.53643       	93.74649       	94.04426       	93.8659        	93.91133       	93.59496       	93.402374      	93.49987       	93.55546       	93.31092       	93.007095      	93.52471       	93.69892       	93.71339       	93.81025       	94.25705       	93.84698       	93.377335      	93.40385       	93.5087        	93.94946       	93.968704      	93.508         	94.20924       	94.06401       	93.834785      	93.90081       	93.85311       	93.84394       	94.0692        	94.006836      	93.97934       	94.41003       	94.37346       	94.30413       	94.3603        	94.49386       	94.28348       	94.71518       	94.80202       	94.7063        	94.29493       	94.399284      	94.35538       	94.022         	94.403046      	94.35075       	94.2976        	94.74283       	94.216064      	94.343155      	94.13099       	94.43785       	94.15592       	94.40743       	94.26237       	93.87818       	94.28358       	94.14818       	93.82881       	94.25319       	93.771255      	93.555336      	93.714096      	93.28594       	93.14365       	93.04735       	93.01253       	93.11602       	93.60958       	93.7865        	93.50748       	93.422844      	93.6257        	93.8485        	93.34839       	93.27422       	93.21298       	93.28952       	93.38237       	93.84648       	93.12331       	93.341545      	93.530205      	93.39547       	93.13576       	
93.497284      	93.77176       	93.754585      	93.77486       	94.20409       	93.78415       	93.69638       	93.91271       	94.12753       	93.14118       	93.32679       	93.24203       	93.3573        	93.2494        	93.51771       	93.686516      	93.206955      	93.34911       	93.71019       	93.4617        	93.23752       	93.871956      	93.961296      	93.09453       	93.363556      	93.21197       	93.25094       	93.58839       	93.45223       	93.49306       	94.35816       	93.990265      	93.58329       	94.10545       	94.00143       	93.864395      	93.91613       	93.808136      	94.04927       	93.95353       	94.02531       	93.81876       	93.986725      	94.21664       	94.366585      	94.40834       	94.21106       	93.785225      	93.63615       	93.5923        	93.728546      	93.7106        	93.8621        	94.07591       	93.95643       	94.09708       	93.707794      	93.90458       	93.788086      	94.21595       	93.70865       	93.85336       	94.11751       	93.81082       	93.54515       	94.25489       	93.639046      	94.093735      	94.422646      	94.07024       	93.90471       	94.19465       	94.2196        	94.19971       	94.142105      	94.36803       	93.846344      	93.97908       	93.751015      	93.31772       	93.44458       	93.01013       	92.88505       	93.486275      	93.41857       	93.5016        	94.13188       	93.79898       	93.30024       	93.5775        	93.609184      	93.24682       	92.82519       	92.79439       	92.973175      	93.57268       	93.368164      	93.194016      	93.03427       	92.989456      	
93.80168       	93.3695        	93.51074       	93.51583       	93.690544      	93.82796       	93.61069       	93.553696      	93.58587       	93.17113       	93.44637       	93.34651       	93.23488       	93.54909       	93.32674       	93.5311        	93.70998       	93.37171       	93.03987       	93.42297       	93.615875      	93.48531       	93.40978       	93.78141       	93.068855      	93.364204      	93.715576      	93.909355      	93.64472       	93.773735      	93.573685      	93.52745       	93.6687        	93.42403       	93.82669       	93.61606       	93.298775      	93.913925      	93.652885      	93.48239       	93.35689       	93.36706       	93.22768       	93.11358       	93.48975       	93.31241       	93.299385      	92.83998       	92.74444       	93.32846       	93.50848       	93.67416       	94.22944       	94.28879       	94.392105      	94.1422        	93.98498       	93.45914       	93.793526      	93.9664        	93.95614       	93.511955      	93.8271        	94.090416      	93.425674      	93.7517        	93.78907       	93.575775      	93.27893       	93.7319        	94.180374      	93.92034       	94.1215        	94.28479       	94.77587       	94.74991       	94.62174       	93.99149       	93.97794       	93.651825      	93.53531       	93.8462        	93.39562       	93.38368       	93.97435       	93.762245      	93.60442       	93.90907       	93.69474       	93.2851        	93.55514       	93.57873       	93.85218       	93.88676       	93.35796       	93.75546       	94.07589       	93.967636      	93.731735      	93.38231       	
93.4886        	93.649826      	93.82104       	93.43985       	93.32653       	94.02459       	94.16039       	94.001785      	93.9819        	94.02799       	93.806015      	93.686485      	93.359795      	93.08459       	93.26142       	93.17396       	92.94583       	93.47904       	93.72802       	93.73699       	93.67659       	93.551346      	93.34821       	93.346405      	93.90552       	93.741264      	93.762566      	93.87515       	93.84494       	93.74759       	94.11442       	94.19697       	93.76024       	94.1548        	93.98737       	93.86879       	94.056854      	94.24519       	94.38687       	94.76583       	94.314804      	94.43446       	94.40904       	93.89645       	93.31219       	93.50255       	92.97497       	93.40921       	92.36918       	92.39904       	92.42732       	92.88827       	93.020645      	93.687485      	93.426025      	93.21552       	93.39299       	93.53706       	93.70206       	93.529976      	93.613396      	93.82576       	94.20204       	94.12914       	93.60194       	94.02575       	94.09713       	94.028755      	93.55392       	93.15108       	93.37587       	93.52471       	93.811676      	93.9284        	93.59303       	94.0629        	93.41014       	93.19645       	92.962456      	92.58953       	92.38818       	92.41891       	92.322235      	92.39254       	92.69255       	92.988686      	93.613655      	93.44543       	93.36221       	93.15518       	93.271904      	93.40321       	93.615585      	93.215004      	93.07348       	93.11634       	93.120735      	93.21448       	93.30856       	93.51566       	
93.05025       	93.81695       	93.60601       	93.01842       	93.372574      	93.315475      	93.41468       	93.48885       	93.334         	93.78767       	93.91023       	93.76836       	93.4169        	93.68253       	93.525635      	93.46339       	93.69655       	93.55114       	93.382034      	93.10457       	93.49677       	93.57626       	93.84764       	93.90522       	93.45214       	93.637375      	93.80082       	93.99693       	94.2371        	93.967316      	94.22831       	94.6284        	94.20291       	94.2087        	94.298744      	94.797134      	94.49846       	94.14067       	93.489716      	93.38985       	92.76491       	92.46214       	92.82409       	92.65858       	92.24932       	92.31548       	92.378174      	92.32332       	92.97945       	92.48366       	92.59583       	93.113396      	93.14821       	94.10037       	94.38449       	93.8483        	94.218094      	93.990105      	93.71467       	93.99169       	93.89141       	94.02347       	94.091354      	94.33131       	94.53039       	94.48713       	94.67516       	94.45629       	94.407684      	94.96293       	94.54036       	94.328926      	94.646225      	95.12301       	95.00375       	94.83895       	94.45352       	93.50049       	93.7674        	93.64061       	93.045616      	92.85377       	92.84777       	92.95827       	93.41872       	93.465866      	93.09329       	93.52384       	93.6942        	93.656075      	93.802605      	93.999756      	93.717865      	93.61129       	93.75943       	93.84905       	93.878815      	94.1537        	94.05702       	94.03407       	
93.746544      	93.4684        	93.64367       	93.7644        	93.45967       	93.292755      	93.49642       	93.827446      	94.1172        	94.05608       	94.0311        	93.66825       	94.0807        	94.204865      	93.829994      	94.22755       	94.15438       	93.71285       	94.16199       	94.290886      	94.35612       	94.58995       	94.55626       	94.37931       	94.36978       	94.054245      	94.099335      	94.548416      	94.322014      	94.59151       	94.861374      	94.52511       	94.102         	94.34004       	94.06424       	93.95415       	94.08072       	94.01527       	93.896065      	93.623         	93.74793       	93.51378       	93.77487       	93.68041       	93.7286        	93.41047       	93.00501       	93.29831       	93.270065      	93.01558       	93.09982       	93.04241       	93.04728       	93.822945      	93.900345      	93.337654      	93.497314      	93.63091       	93.49096       	93.97655       	93.95566       	93.93295       	93.95581       	93.96701       	94.19774       	94.25056       	94.22336       	94.0211        	94.52023       	94.682846      	93.92201       	94.63033       	94.69249       	94.031944      	94.73567       	95.30263       	95.12475       	94.75676       	94.82885       	94.13516       	93.906456      	93.986206      	93.98381       	93.58836       	93.56973       	92.909904      	93.04374       	93.07191       	93.221054      	93.522446      	93.69019       	93.50618       	93.10046       	93.26008       	93.01683       	92.444466      	92.63006       	92.870476      	92.93776       	93.036514      	
93.77946       	93.416145      	93.07722       	93.793625      	93.76465       	93.99843       	93.9716        	93.954254      	93.68669       	93.59294       	93.70749       	93.15454       	93.23283       	93.832726      	93.68169       	93.53895       	93.62143       	93.745575      	93.50929       	93.4963        	93.80488       	93.94997       	93.7417        	93.914566      	94.26568       	94.076935      	94.146965      	94.615585      	94.21256       	93.85852       	94.131714      	93.62975       	93.1975        	93.5031        	93.240585      	92.93722       	93.30655       	92.64299       	93.17066       	93.19858       	93.11649       	93.3553        	93.939095      	93.59278       	93.700226      	93.79362       	93.301445      	92.83834       	93.44373       	92.968834      	93.184456      	93.2697        	93.017685      	93.489456      	93.412         	93.31759       	93.41973       	93.696304      	93.34807       	93.29957       	93.994965      	93.56721       	93.43722       	93.70802       	93.96508       	93.4113        	93.92463       	94.10411       	94.153275      	94.40295       	93.98128       	93.9476        	94.22566       	93.92334       	94.25529       	94.3977        	94.41816       	93.909294      	93.839615      	93.53287       	93.413956      	93.556015      	93.80696       	93.82479       	93.95045       	94.061516      	94.12963       	93.99353       	94.11006       	94.15561       	94.22668       	94.07696       	93.77772       	93.99852       	93.87216       	93.94772       	93.93012       	93.57894       	93.74073       	93.92266       	
93.430016      	93.505844      	93.53205       	93.723755      	93.73366       	93.9688        	94.01478       	93.743355      	93.80261       	94.51175       	94.33695       	94.13709       	93.919464      	93.78829       	93.87613       	94.353         	94.75507       	93.78995       	94.03521       	94.213104      	94.23632       	94.542145      	94.98054       	95.29554       	94.75887       	94.48353       	93.91068       	94.13566       	94.05676       	94.22122       	93.49676       	93.678474      	93.747604      	93.78336       	93.23348       	93.402306      	93.4355        	93.408         	93.579094      	93.78109       	93.522675      	93.45735       	93.36332       	93.589485      	92.94725       	93.05944       	92.85629       	92.87166       	92.78309       	92.80905       	92.97026       	93.12021       	93.08499       	93.641846      	94.073006      	94.326416      	94.48383       	94.57767       	94.21117       	93.44766       	93.45865       	93.66117       	94.095406      	93.81022       	94.34045       	94.35941       	94.41834       	94.09709       	94.18597       	93.93796       	94.33881       	95.22431       	94.890495      	94.81465       	94.60605       	94.6584        	94.66916       	94.20625       	93.666466      	93.875114      	93.14706       	92.90943       	92.958694      	93.150764      	93.068924      	93.57292       	93.39029       	93.40617       	94.11572       	94.049065      	93.346756      	93.64925       	93.95174       	93.46626       	93.5009        	93.6246        	93.25111       	93.221664      	93.47928       	93.776665      	
94.18566       	93.74913       	94.16773       	94.005196      	94.220146      	94.09205       	93.94442       	93.68681       	93.9247        	93.70145       	93.46312       	93.885086      	93.8676        	94.493744      	94.516914      	94.30645       	94.79497       	94.597336      	94.13107       	94.648796      	94.90135       	94.463295      	94.28404       	94.1307        	93.45927       	93.263054      	93.708916      	93.33147       	93.57197       	93.500626      	93.09972       	93.351204      	93.202965      	92.71022       	93.05711       	93.23101       	92.68859       	93.30419       	93.277916      	92.965096      	93.28849       	92.88932       	93.16086       	93.128876      	93.02013       	93.05595       	93.45943       	92.99096       	92.95048       	92.95415       	92.658516      	92.662506      	93.77889       	93.66439       	93.92065       	94.41188       	94.31673       	94.41597       	94.07788       	94.25489       	94.54728       	94.77186       	94.31961       	94.51079       	94.33109       	94.538765      	94.59178       	94.50933       	94.37011       	94.39471       	94.67906       	94.60026       	94.5841        	94.12725       	94.501915      	94.66009       	94.42212       	94.160324      	93.726814      	93.1171        	92.98721       	93.2434        	93.293594      	93.66137       	93.492516      	93.690544      	93.51156       	93.23486       	93.84578       	93.517136      	92.96513       	93.0539        	93.35648       	93.420906      	93.53024       	93.18665       	93.21176       	93.500946      	93.528564      	93.44413       	
93.948715      	94.11037       	93.848305      	94.00652       	93.840256      	93.679924      	93.934746      	94.114655      	94.342094      	94.87709       	94.5809        	94.352455      	94.43701       	94.48638       	94.0345        	94.8558        	94.644165      	94.15715       	94.22572       	93.96655       	93.71684       	93.52077       	93.53852       	93.46223       	93.66115       	93.46464       	93.519424      	93.55102       	93.83764       	93.22514       	93.25969       	93.30403       	93.05822       	93.117256      	92.96365       	93.152306      	93.0123        	92.915596      	92.97656       	93.32197       	92.94084       	92.79493       	93.081894      	93.3908        	93.17258       	93.070786      	93.696655      	93.40221       	93.13008       	93.11176       	93.21334       	92.639595      	92.61036       	92.587814      	93.28714       	93.40109       	93.10201       	93.403725      	93.81906       	93.60467       	93.34321       	93.63555       	93.23466       	93.04433       	93.85807       	93.801216      	93.29872       	93.43922       	93.67834       	93.49535       	93.8155        	94.11901       	93.816986      	94.0003        	93.899376      	93.744064      	93.87691       	94.46127       	94.0026        	93.429535      	93.38045       	93.00373       	93.39906       	93.36632       	93.199356      	93.49437       	93.7341        	93.543076      	93.12896       	93.079956      	93.63128       	93.558624      	93.48012       	93.66316       	93.49692       	94.13504       	94.29457       	94.32492       	94.30497       	94.170044      	
94.30708       	93.833         	94.00561       	93.70201       	93.49003       	93.248245      	93.59199       	93.93929       	93.50492       	93.67567       	93.73046       	93.58444       	93.660995      	93.619965      	93.7795        	93.79048       	93.35989       	92.93227       	92.624916      	92.584175      	92.65302       	92.80774       	92.881744      	93.29288       	93.19999       	93.562706      	93.305046      	93.377914      	93.336235      	92.93102       	93.71734       	93.142166      	92.55485       	93.07742       	93.45703       	93.21849       	93.5809        	93.144135      	92.979034      	92.984055      	93.3787        	93.75143       	93.417564      	93.35625       	93.04848       	93.57984       	93.640045      	93.21059       	93.21375       	93.21068       	92.736046      	92.4989        	92.69732       	93.20044       	93.44479       	93.20093       	93.48276       	93.56384       	93.84767       	94.106316      	94.206314      	94.04773       	93.91688       	94.01168       	94.3359        	93.94275       	94.24267       	94.36787       	94.333496      	94.29117       	94.00943       	93.99983       	93.86473       	94.23691       	93.79285       	94.189606      	94.41329       	94.16345       	93.815765      	93.58219       	93.36          	93.38831       	93.002846      	92.8717        	92.840485      	92.89879       	92.7639        	92.73535       	93.20289       	92.786674      	93.0582        	93.06957       	92.8881        	93.08853       	93.06963       	93.18814       	92.9767        	93.01192       	93.0618        	93.096054      	
94.336754      	94.2153        	94.24159       	94.34533       	94.482025      	94.39165       	94.24533       	94.14522       	94.17195       	94.71765       	94.49161       	94.326225      	94.73968       	94.649765      	94.650475      	93.805336      	93.26908       	93.02771       	93.50793       	92.97702       	93.521255      	93.8165        	93.28289       	93.17919       	93.563484      	93.34935       	93.556         	93.44195       	93.75439       	94.08419       	93.88278       	94.02888       	94.329575      	94.32579       	94.33857       	93.68443       	93.72222       	93.68332       	93.821884      	93.287         	92.97122       	93.15356       	92.84086       	93.005875      	93.35673       	93.05412       	92.912766      	93.27361       	93.27669       	93.262245      	92.91719       	92.75361       	92.78795       	93.15527       	93.21424       	93.09758       	93.64774       	93.37065       	93.65724       	94.30838       	93.46273       	93.60529       	93.65054       	93.764404      	93.5562        	94.166176      	93.78092       	93.64331       	93.54757       	93.52123       	94.06428       	93.90364       	93.87322       	94.036255      	94.11459       	94.14914       	94.133995      	94.494514      	93.78524       	93.51079       	93.652664      	93.01008       	93.28234       	93.521675      	93.20492       	92.93208       	93.26025       	93.18249       	93.509         	93.5619        	93.421135      	93.53874       	93.920395      	93.68047       	93.863         	93.96936       	93.45744       	93.55754       	93.56352       	93.572784      	
94.268486      	94.39156       	94.78018       	94.97197       	94.74296       	94.32032       	94.09537       	94.52209       	94.67988       	94.722206      	95.08809       	94.71351       	95.12651       	95.475784      	95.032684      	94.6327        	94.44992       	93.94008       	94.012085      	93.62623       	93.50517       	93.409256      	93.21388       	92.64764       	93.659706      	93.50899       	93.253586      	93.07984       	93.03307       	92.968956      	93.18078       	93.3299        	93.65284       	93.87884       	93.87496       	94.29644       	94.285164      	93.84439       	93.46871       	93.46821       	93.07796       	93.56127       	93.37634       	93.19991       	93.41785       	93.35811       	93.1679        	93.65357       	93.979996      	93.28769       	93.5902        	93.749664      	93.9048        	93.56104       	93.76169       	94.24745       	94.318924      	94.35686       	94.23858       	94.18962       	94.041466      	93.95143       	94.31109       	94.29361       	93.91132       	93.79448       	93.648834      	93.91823       	94.01786       	93.91332       	94.36406       	94.156906      	94.186966      	94.098114      	94.32722       	94.14672       	94.655655      	94.908165      	94.848724      	93.9769        	94.00477       	93.36998       	93.295235      	93.0042        	93.46765       	93.28868       	94.09415       	93.677216      	93.697624      	93.73266       	93.498245      	93.29588       	93.446175      	93.52877       	93.56434       	93.52404       	93.14916       	93.12074       	93.43334       	93.59696       	
93.73157       	94.078354      	93.56276       	93.95267       	94.08166       	94.099846      	94.10816       	94.31519       	94.41356       	93.89238       	94.314865      	94.51529       	94.291374      	94.31984       	94.33337       	93.934204      	93.35829       	93.09813       	93.65429       	93.659195      	93.531944      	93.374016      	93.59534       	93.33069       	92.97554       	93.090004      	92.86116       	93.03073       	93.308395      	92.922         	93.01195       	93.19584       	92.91166       	92.932816      	92.76159       	93.2537        	93.60988       	93.04609       	93.76957       	93.377235      	93.44605       	93.51928       	93.354645      	92.929756      	93.50565       	93.20679       	92.623505      	92.82471       	92.561005      	92.56344       	92.658966      	92.89589       	92.38559       	92.125824      	93.27559       	93.09846       	93.77446       	94.00734       	93.750725      	93.78962       	94.13562       	93.92726       	94.20854       	94.05293       	93.87162       	93.713875      	93.65107       	93.822395      	93.76393       	93.48831       	93.54129       	93.4976        	93.249466      	93.517685      	93.71509       	93.68555       	93.73595       	94.10641       	94.18978       	93.63452       	93.68782       	93.19934       	93.100914      	93.350006      	92.98046       	93.13102       	93.35291       	93.4561        	93.06824       	93.29298       	92.691826      	93.265594      	93.128044      	93.25258       	92.95777       	92.73223       	93.03472       	93.1571        	93.27607       	93.21498       	
94.27971       	94.09099       	94.01717       	94.6327        	94.44267       	94.3704        	94.29977       	94.24478       	94.23518       	94.04086       	93.973625      	94.2018        	94.25729       	94.343216      	94.46921       	94.53638       	93.96512       	93.13793       	92.994316      	93.06815       	93.29236       	93.12059       	93.19628       	93.371056      	93.53011       	93.2539        	93.44776       	93.18828       	93.4096        	93.968956      	93.87709       	94.04304       	93.71867       	93.6868        	93.44972       	93.68132       	94.29179       	94.16582       	94.239296      	93.62387       	94.05275       	93.819374      	93.76899       	93.55938       	93.30816       	93.13579       	93.09733       	93.63394       	93.14925       	93.02546       	93.2778        	93.157295      	93.00086       	93.43233       	93.61622       	94.40315       	94.20899       	94.158295      	94.17608       	94.110405      	93.8055        	94.24834       	94.345         	93.823906      	93.773766      	94.27508       	94.316315      	94.5723        	94.72546       	94.62547       	94.00501       	94.64774       	94.781136      	94.30987       	94.48021       	94.49348       	94.41253       	95.055         	95.01724       	94.56849       	94.39794       	94.479195      	93.72185       	94.2243        	93.909096      	93.56159       	93.30721       	93.349724      	94.03426       	94.11391       	93.98396       	93.880165      	93.78283       	93.87524       	93.78277       	93.975136      	93.89586       	93.78825       	93.87294       	93.89916       	
93.514725      	93.863075      	93.4332        	93.7131        	93.91573       	93.88508       	93.90288       	94.40465       	94.25601       	94.27579       	93.9395        	94.10717       	93.93112       	94.71826       	94.431526      	93.83923       	94.065834      	93.57543       	93.48551       	93.15142       	93.29251       	93.407906      	93.795685      	93.15679       	93.12047       	93.474594      	92.75965       	93.155235      	93.20414       	93.27054       	93.99963       	93.80388       	93.82124       	93.62243       	93.41          	93.47949       	93.33836       	93.54671       	93.3486        	93.39653       	93.40333       	93.54759       	93.26508       	93.48035       	93.665054      	93.39064       	93.310616      	93.006294      	93.272026      	92.95914       	92.768585      	92.77978       	92.76869       	92.857925      	93.42749       	93.91553       	94.01745       	93.96931       	94.27194       	94.119545      	93.898926      	93.856575      	93.85155       	94.01524       	94.10035       	93.79851       	93.8731        	93.963936      	93.89409       	94.059944      	93.58656       	93.65373       	93.378876      	93.59056       	94.242546      	94.18822       	93.95387       	94.17757       	94.298454      	94.07741       	94.00485       	93.12533       	92.91827       	93.111565      	93.20782       	93.71722       	93.403275      	93.666046      	93.73125       	93.57996       	93.13817       	93.43212       	93.92297       	93.62389       	93.42538       	93.14701       	92.64963       	92.979126      	93.54122       	93.8181        	
93.58595       	93.70422       	93.57055       	93.63051       	94.34621       	93.86145       	93.61458       	93.637535      	93.514244      	93.953995      	93.43188       	93.66246       	93.60941       	93.26586       	93.57364       	94.22881       	93.78386       	93.086235      	93.14376       	93.19221       	93.49667       	93.61255       	93.47269       	93.68522       	93.29904       	93.50862       	93.45724       	93.49688       	93.60367       	93.7543        	93.36809       	93.30578       	93.60519       	93.280815      	93.05409       	93.2439        	93.00085       	93.29564       	93.18885       	92.759186      	93.28398       	93.29912       	92.97839       	93.2224        	93.195854      	93.241714      	93.35977       	93.474724      	93.53808       	93.36323       	93.70257       	93.80038       	93.27267       	93.03471       	93.3241        	93.922226      	93.84478       	93.56489       	93.8399        	93.4823        	93.11018       	93.59396       	94.07783       	93.8286        	93.62207       	93.54776       	93.56921       	93.97099       	93.62153       	93.84215       	94.04182       	94.06932       	94.17148       	94.51607       	94.55293       	94.13512       	94.35406       	94.37709       	94.52846       	94.501236      	93.89655       	93.74328       	93.55127       	93.24631       	93.166985      	93.15215       	93.14159       	93.710396      	93.76653       	93.23146       	93.21342       	93.45485       	93.33314       	93.41896       	93.53262       	93.52145       	93.45752       	93.52184       	93.387856      	93.38635       	
94.26046       	93.92148       	93.98565       	93.879234      	93.73824       	93.9899        	94.2036        	94.01572       	93.79239       	94.2116        	94.16429       	94.04628       	94.3239        	94.92464       	94.345024      	94.81139       	94.16792       	94.0756        	93.70149       	93.44261       	93.300735      	92.91778       	93.00011       	93.21956       	93.035515      	93.23076       	93.32673       	93.52738       	93.63675       	93.85509       	93.93103       	93.907486      	94.52538       	93.89601       	93.686         	93.81051       	93.5773        	93.39345       	93.06914       	93.499626      	93.67168       	93.41638       	93.13052       	92.92974       	93.0904        	93.137436      	93.333824      	93.334236      	93.131836      	93.00035       	92.56529       	92.09663       	92.39776       	92.445885      	92.5568        	92.6713        	93.44945       	93.29212       	93.53491       	93.60356       	93.70161       	93.8092        	93.97984       	93.97473       	94.01803       	94.39322       	93.85945       	93.805984      	93.563286      	93.740234      	93.56371       	93.64371       	94.036285      	93.64119       	94.22716       	94.480484      	94.37597       	93.926994      	93.57742       	94.24655       	93.93089       	93.52984       	93.36372       	93.21691       	93.065056      	93.199356      	93.53797       	93.51526       	93.35141       	93.41025       	93.425674      	93.284584      	93.1768        	93.09942       	93.62477       	93.70235       	93.51241       	93.21154       	93.20576       	93.25072       	
93.99588       	93.631485      	93.67657       	94.02974       	93.69198       	93.64735       	93.66149       	93.40015       	93.488396      	93.739876      	93.597946      	93.43108       	93.53763       	94.25309       	94.59981       	94.64204       	94.184586      	93.48373       	93.20419       	93.11161       	93.169815      	93.56623       	93.23771       	93.37172       	93.94655       	93.92158       	94.041466      	93.79802       	93.25764       	93.16753       	93.20525       	93.56849       	93.44336       	93.309456      	93.435074      	93.11058       	93.0872        	93.24085       	92.81767       	93.30272       	93.05095       	93.20288       	93.364334      	93.3368        	93.57459       	93.99006       	93.82315       	93.427895      	93.519295      	93.58333       	93.55201       	93.60295       	93.65011       	93.216705      	93.11498       	94.00985       	93.98156       	93.96884       	93.79118       	94.13747       	94.404915      	94.43004       	94.63585       	94.99877       	94.531136      	94.51634       	94.52376       	94.05687       	93.52222       	93.36305       	93.6752        	93.430214      	94.24231       	94.29455       	94.12687       	94.212975      	94.35418       	94.27443       	94.32962       	94.1422        	93.47636       	93.50919       	93.31747       	92.48889       	92.83578       	92.94276       	92.80647       	93.14147       	92.88797       	93.15892       	92.99818       	93.43881       	93.367874      	93.36382       	93.438095      	93.336624      	93.766685      	93.84776       	93.483955      	93.38107       	
94.16288       	94.194336      	94.33949       	94.469185      	94.22126       	94.300705      	94.05246       	93.78931       	93.94752       	93.98847       	93.67626       	93.856514      	94.00445       	93.84565       	93.9958        	94.41293       	93.902954      	93.275635      	93.01205       	93.17258       	92.97245       	92.89072       	93.19362       	93.06641       	93.18199       	92.93761       	93.86431       	93.954834      	93.12756       	92.81862       	93.02078       	93.031494      	93.28927       	93.46484       	93.23889       	93.466675      	93.17533       	93.75664       	93.33664       	93.11439       	92.83793       	92.680824      	92.92548       	92.81185       	93.16108       	93.4908        	92.7137        	92.98983       	93.44002       	92.943985      	92.97757       	92.833405      	92.99975       	93.2319        	93.47326       	93.643814      	93.713554      	93.63795       	93.46444       	93.94922       	94.33554       	93.75353       	93.74954       	93.673836      	93.37769       	93.70496       	94.17595       	93.63747       	93.336105      	93.8259        	93.66904       	93.664505      	94.10572       	93.78371       	93.852264      	94.21028       	93.7725        	93.54461       	94.051544      	94.35715       	93.4767        	93.37587       	93.0419        	93.050095      	92.9406        	92.48691       	92.95068       	93.13367       	93.31233       	93.61581       	93.410736      	92.92388       	93.27044       	93.144165      	92.92399       	93.426994      	93.66164       	93.6906        	93.551094      	93.32305       	
94.33566       	93.98101       	93.88747       	93.85225       	93.75248       	93.59781       	93.74096       	93.59321       	93.92744       	93.85804       	93.70982       	93.68897       	94.59211       	94.314926      	93.926956      	94.59451       	94.38664       	93.83088       	93.623184      	93.549805      	93.73448       	93.33993       	93.56407       	93.80722       	93.78944       	93.674965      	94.11268       	93.63395       	93.46883       	93.878204      	93.46131       	93.37531       	93.30096       	93.261826      	93.68021       	93.292076      	93.143425      	93.95061       	93.56342       	94.012566      	93.76628       	93.62222       	93.65719       	93.59941       	93.55025       	93.87931       	92.93255       	93.06117       	93.19817       	93.04969       	93.09115       	92.6837        	92.83936       	92.72432       	92.914276      	92.86884       	93.44483       	93.72672       	93.81774       	94.61869       	94.551636      	93.792305      	94.49069       	94.31178       	94.15218       	94.22938       	94.13963       	93.85249       	93.88946       	93.74076       	93.53307       	94.136734      	94.09892       	94.08664       	94.13811       	94.423775      	94.20848       	94.475945      	94.68506       	94.582115      	94.36206       	93.9732        	93.952995      	93.97492       	93.89654       	93.57898       	93.872734      	93.721054      	93.49608       	93.73331       	93.48816       	93.10571       	93.804436      	93.58049       	93.57352       	93.299644      	93.61685       	93.03959       	92.834175      	92.9248        	
93.86419       	94.09416       	93.42525       	93.77056       	94.14019       	93.76647       	94.01515       	93.88913       	94.14526       	94.249985      	94.15939       	94.560005      	94.70991       	94.269806      	94.144615      	93.94133       	94.46629       	93.67835       	93.96163       	93.47862       	93.58043       	93.64843       	93.94857       	93.181465      	93.69605       	93.99751       	94.03667       	94.429405      	93.60873       	93.72489       	93.57243       	93.716255      	93.84905       	93.56018       	93.52869       	93.017815      	93.17805       	92.84135       	93.11836       	93.574234      	93.82852       	93.5677        	93.60763       	93.554436      	93.607796      	93.70525       	93.45752       	93.38095       	93.65018       	93.63425       	93.37336       	93.36856       	93.69062       	93.68678       	93.53638       	93.82423       	94.12442       	94.293686      	94.310104      	94.43083       	94.291985      	94.018196      	93.76519       	94.33069       	93.93621       	94.16527       	94.49637       	94.971016      	95.015045      	94.61801       	94.43617       	94.79737       	94.92461       	94.71925       	94.78096       	94.73853       	95.11038       	94.84376       	95.03084       	94.64977       	94.52908       	94.16108       	93.65519       	93.29823       	92.91841       	93.17537       	93.20528       	93.53816       	93.752655      	93.33205       	93.27153       	93.83929       	93.293625      	93.611946      	93.26659       	93.2023        	92.96538       	92.97491       	93.326675      	93.395515      	
93.63342       	93.27335       	93.341835      	93.894356      	93.63305       	93.22771       	93.96235       	93.73617       	93.83603       	93.83594       	94.12906       	93.71929       	94.4925        	94.49023       	94.36909       	94.637115      	95.01867       	94.53968       	94.13978       	94.221306      	93.7685        	93.96672       	93.59412       	93.38688       	94.10506       	93.68746       	93.57743       	93.70325       	93.631096      	93.18898       	93.573654      	93.762314      	93.6389        	93.76789       	93.932045      	94.023735      	93.758385      	93.67464       	93.83764       	93.79534       	93.75786       	93.62577       	93.633736      	93.46973       	93.25306       	92.93483       	93.475655      	93.3995        	93.106445      	93.033844      	93.30871       	93.193924      	92.9871        	93.13091       	92.87818       	93.04064       	93.44015       	93.457085      	93.67363       	93.67565       	93.35658       	93.55172       	93.61344       	93.732544      	93.94873       	93.76446       	93.31772       	93.4368        	93.459526      	93.92973       	93.64552       	93.47969       	93.70179       	93.66893       	94.0929        	94.28189       	94.53024       	94.126945      	94.499664      	94.76136       	94.652336      	94.656586      	94.36956       	94.35114       	94.19858       	94.29729       	94.48271       	93.75441       	93.673965      	93.44327       	93.46833       	93.391655      	93.842125      	94.017685      	93.90035       	93.59005       	93.5114        	93.713486      	93.58006       	93.64507       	
94.01257       	93.71394       	93.59652       	93.39294       	93.44059       	93.65828       	93.86647       	93.567184      	93.59476       	93.79904       	93.88509       	93.67565       	94.24752       	93.75548       	93.43534       	94.091194      	94.40163       	94.15917       	93.86902       	93.92304       	93.16039       	93.59399       	93.331245      	93.71244       	93.90405       	93.46837       	93.69563       	93.99248       	93.55412       	93.32806       	93.27222       	93.54143       	93.51447       	93.36213       	93.237595      	93.400055      	93.91829       	94.15475       	94.27929       	93.64108       	93.7327        	93.75219       	93.699585      	93.644         	93.82083       	93.46029       	93.46847       	93.556305      	93.40663       	93.84207       	93.39186       	93.21826       	93.45539       	93.36897       	93.78736       	93.41027       	93.302284      	93.67587       	93.8472        	93.91019       	94.25321       	94.490814      	93.7543        	94.25426       	94.330925      	94.375         	94.56672       	94.78374       	94.696045      	94.703255      	94.34326       	94.33243       	94.373985      	94.10506       	93.83277       	94.49553       	94.13039       	93.780876      	93.72627       	94.16517       	94.02528       	94.24332       	94.007866      	93.99047       	93.961464      	93.147415      	93.048775      	92.94828       	92.56027       	92.68973       	93.05344       	93.27242       	93.25906       	93.093         	93.059586      	93.1877        	93.29035       	93.31322       	93.3759        	93.63775       	
94.10742       	93.864586      	94.05141       	94.35038       	94.53145       	94.4722        	94.47339       	94.698105      	94.17742       	94.07905       	93.66734       	93.75076       	93.7953        	93.22281       	93.809074      	93.80744       	93.8422        	93.8033        	93.48359       	93.265015      	93.330185      	93.03252       	93.317795      	93.53849       	93.86776       	93.44329       	93.80443       	93.705         	93.41675       	93.69034       	93.921295      	93.4325        	93.71648       	93.73085       	93.17876       	92.64716       	93.57373       	93.395454      	93.46577       	93.24193       	93.27611       	92.86597       	92.96261       	93.07358       	93.16633       	92.95988       	93.22621       	93.31888       	93.37979       	93.37403       	93.193306      	93.17339       	93.24169       	93.15842       	93.2609        	93.14771       	93.24128       	93.72587       	93.969025      	93.89357       	93.6545        	93.49625       	94.12118       	93.302055      	93.25952       	93.60833       	94.08922       	93.80673       	93.32933       	93.742195      	93.246666      	93.73377       	93.39064       	93.83597       	93.59599       	93.808426      	94.09069       	94.2712        	93.96429       	94.48399       	94.676186      	94.314095      	93.95113       	93.669136      	93.23015       	93.110825      	93.0099        	92.967636      	93.13777       	93.04455       	93.22191       	93.82848       	93.64945       	93.72609       	93.292656      	93.52687       	93.54542       	93.48036       	93.35937       	93.417076      	
94.14157       	94.22917       	93.727936      	93.8204        	93.80882       	94.20086       	93.69689       	93.31283       	93.3859        	94.18712       	93.99084       	93.81384       	93.88753       	93.86636       	94.45032       	94.46878       	94.687515      	94.858696      	94.08935       	93.78681       	94.39621       	93.89403       	93.10396       	92.9555        	92.87581       	92.96863       	93.039536      	93.09261       	92.94002       	93.3662        	93.147514      	93.03924       	93.48211       	93.053314      	93.27815       	94.06339       	93.629875      	93.36392       	93.779335      	93.543045      	93.38234       	93.406334      	93.16053       	93.350235      	93.1915        	93.75757       	93.53104       	93.01488       	92.69959       	93.340096      	93.46449       	93.24817       	93.0942        	92.75269       	92.80074       	92.97214       	93.244514      	93.283775      	93.647064      	93.66692       	94.04079       	93.86888       	93.54736       	93.71249       	93.78476       	93.85279       	93.44373       	93.59416       	93.621056      	94.01473       	93.950356      	93.41063       	93.020226      	92.8652        	93.48576       	93.70018       	93.66048       	94.082954      	94.12206       	94.2133        	94.03507       	94.27121       	93.93358       	93.703285      	93.83651       	93.57072       	93.842606      	93.26002       	93.08255       	93.12607       	93.435905      	93.353645      	93.87159       	93.63197       	92.937294      	92.81092       	92.937744      	93.04664       	93.2413        	93.56153       	
93.64953       	93.11537       	93.461296      	92.90053       	93.11223       	93.55799       	93.35918       	93.21596       	93.90282       	93.67268       	93.10872       	93.05643       	93.3471        	93.184845      	93.34166       	93.04904       	93.126045      	93.85866       	93.334404      	93.12573       	93.07475       	93.02783       	92.48555       	93.33348       	93.01498       	92.77742       	93.05104       	93.34396       	93.447075      	93.51158       	93.4646        	93.160446      	93.627556      	93.004684      	93.11724       	93.06618       	92.81682       	93.08727       	93.193535      	93.16576       	92.88581       	93.07189       	92.97808       	93.12392       	93.06432       	93.0662        	93.62645       	93.078964      	93.072914      	93.003586      	93.26807       	92.92262       	93.56949       	93.210236      	93.13305       	93.27974       	92.60185       	92.556114      	92.77204       	93.17848       	93.21387       	93.78751       	94.13032       	93.47435       	93.756096      	93.43945       	93.605606      	94.10006       	94.1925        	93.8291        	93.39697       	93.55096       	93.67565       	94.21011       	94.196075      	93.92537       	93.746376      	93.893         	94.46783       	94.55811       	94.59351       	94.74504       	94.01138       	94.15805       	93.37268       	93.631714      	94.10133       	93.60239       	93.58602       	93.80439       	93.56697       	93.40453       	93.78902       	93.87394       	93.90665       	94.09351       	94.761734      	94.58825       	94.37607       	94.4283        	
93.30549       	93.22999       	93.49577       	93.59814       	93.44762       	93.794586      	94.17512       	93.673676      	93.83232       	93.742714      	93.3986        	93.55237       	93.96772       	93.865524      	94.09313       	94.069214      	93.6363        	94.5118        	94.444145      	93.64232       	93.82251       	93.22808       	93.09355       	93.07468       	93.09045       	92.889824      	93.28606       	93.14718       	92.963585      	93.342026      	93.4415        	93.16337       	93.58129       	93.18895       	92.953255      	93.333176      	93.09044       	93.11933       	93.47137       	93.90163       	93.775604      	93.67326       	93.31567       	93.16162       	93.538925      	93.48241       	93.61999       	93.224045      	93.189316      	93.06995       	93.18246       	93.010506      	92.66899       	92.141205      	92.29667       	92.3941        	92.70293       	92.97511       	93.30726       	93.78897       	93.18658       	93.390015      	93.31412       	93.14462       	93.05905       	93.15129       	93.062874      	93.086464      	93.1242        	93.13824       	93.01032       	93.21849       	93.6934        	93.1455        	93.23954       	92.92944       	92.818726      	93.39542       	92.74948       	92.902626      	93.11877       	93.46005       	93.4668        	94.03465       	93.36602       	92.80529       	93.17525       	92.89345       	92.88409       	92.510376      	93.013756      	93.072136      	93.1984        	93.1591        	93.27592       	93.292076      	93.449104      	93.553154      	93.376884      	93.42871       	
93.63183       	93.323685      	93.458626      	93.50408       	93.99367       	94.04903       	93.955826      	94.185196      	94.12492       	93.83179       	93.915665      	94.042145      	94.00992       	93.68352       	94.35066       	94.504135      	94.25802       	94.235886      	94.32057       	93.98063       	93.90736       	93.406746      	93.132126      	92.970375      	92.842896      	92.9095        	93.72175       	92.87064       	93.101166      	93.584854      	93.1396        	93.40826       	93.30348       	93.13738       	93.05122       	93.471146      	93.69695       	93.61527       	93.44606       	93.085785      	93.294014      	93.46164       	93.56208       	93.87196       	93.80339       	93.55257       	93.53114       	93.88509       	93.30228       	93.03887       	93.23001       	92.8601        	93.03296       	92.81299       	92.53629       	92.4711        	92.56497       	92.31421       	92.72171       	93.368706      	93.02369       	93.585655      	93.56139       	93.01966       	93.39909       	93.862114      	93.561386      	93.67623       	93.691864      	93.17463       	93.34268       	93.6194        	93.51221       	93.328415      	93.38912       	93.150154      	93.696846      	93.55937       	93.21351       	93.465195      	93.72415       	93.62516       	93.356766      	93.676605      	93.753105      	93.88166       	93.93149       	93.91932       	93.97232       	93.86101       	94.05742       	93.51092       	94.19335       	94.13148       	93.84052       	93.83652       	93.89595       	93.584175      	93.44573       	93.41256       	
93.88841       	94.06486       	94.0818        	94.068405      	94.344475      	94.463554      	94.54594       	94.359726      	94.137856      	94.15873       	94.21585       	94.41097       	94.65195       	94.35763       	94.32769       	94.32763       	94.49346       	94.34978       	94.42056       	94.23975       	93.67195       	93.24572       	93.294205      	92.75044       	93.11815       	93.24967       	93.48238       	93.57459       	93.74024       	93.61063       	93.825775      	93.70598       	93.53433       	93.37208       	93.54488       	93.51193       	93.33983       	93.14903       	93.03081       	92.86778       	93.07523       	92.44628       	92.41171       	92.36239       	92.00587       	92.52511       	92.50134       	92.63753       	92.78654       	93.00884       	92.74065       	92.99837       	92.70521       	92.40733       	92.671844      	92.293015      	92.683754      	92.80431       	92.75147       	93.40775       	93.27429       	92.98332       	93.432945      	93.45602       	93.231476      	93.41094       	93.75723       	94.00096       	93.56189       	93.85865       	94.20834       	93.64938       	93.63443       	93.65568       	93.750626      	93.77553       	93.95873       	94.47212       	93.93443       	94.081924      	94.23927       	93.71781       	93.493744      	93.435165      	93.715805      	93.44467       	93.72892       	93.75255       	93.506065      	93.59996       	93.7802        	93.79854       	93.090454      	93.57841       	93.69911       	93.6022        	93.846146      	93.9469        	94.00419       	93.81738       	
93.95478       	94.01496       	93.7057        	93.99829       	93.741165      	93.75451       	93.856895      	93.3073        	93.146         	93.68281       	93.32635       	93.24338       	93.711876      	93.79382       	93.70778       	93.87623       	94.32451       	94.00814       	94.19676       	94.25374       	94.1903        	93.93199       	93.4421        	93.31266       	93.43059       	93.46582       	92.93632       	93.46068       	93.12442       	93.02206       	93.34029       	93.5083        	93.86221       	94.251335      	93.61496       	93.29814       	93.55132       	93.37695       	93.60901       	93.891594      	93.283325      	93.468414      	93.92968       	93.65036       	93.24716       	93.667564      	93.42657       	93.89024       	93.700066      	92.932205      	92.67098       	92.49788       	93.08578       	92.7459        	92.63953       	92.51709       	92.62944       	92.78163       	92.82703       	93.12309       	93.89549       	93.73731       	93.41942       	93.46237       	93.49853       	93.468376      	93.76254       	93.59531       	93.67313       	93.642914      	93.5606        	93.416664      	93.44919       	93.305954      	93.08085       	93.23587       	92.79522       	92.95653       	93.156075      	93.131226      	93.29688       	92.80223       	92.692184      	93.250435      	93.47741       	93.29481       	93.127686      	93.28312       	93.330765      	93.0942        	93.11446       	93.50871       	93.329315      	93.14507       	93.20328       	93.61935       	93.55912       	93.314316      	93.17258       	93.23223       	
94.147835      	94.89489       	94.35947       	94.25586       	93.7868        	93.15543       	93.31755       	93.49122       	93.20157       	93.7891        	93.920494      	93.92387       	93.52076       	93.24333       	93.561966      	93.728134      	93.18355       	93.05668       	93.91943       	93.80179       	93.66969       	93.549126      	93.632324      	93.09657       	93.17387       	93.02355       	92.88504       	93.40252       	93.56119       	93.93564       	94.152794      	93.678955      	93.56339       	93.70043       	93.85096       	93.511345      	93.76051       	93.64005       	93.05278       	93.39669       	93.45112       	93.42443       	93.284515      	93.09896       	93.25373       	93.28881       	92.74437       	93.23254       	93.71797       	93.33263       	93.31763       	93.2859        	93.08224       	93.35578       	93.16398       	92.9611        	92.57712       	92.81996       	92.878876      	93.224846      	93.46219       	93.411606      	93.473404      	93.68106       	93.4471        	93.62363       	94.01878       	93.356285      	93.56017       	93.91265       	93.39305       	94.03392       	93.88023       	94.15288       	94.165535      	93.74463       	93.74072       	93.90187       	93.61673       	93.21358       	93.202545      	93.791016      	93.460434      	93.44146       	93.86209       	93.72163       	93.90674       	94.535385      	93.593216      	93.74863       	93.94798       	94.34183       	94.49847       	94.20993       	93.994995      	93.95118       	94.31637       	94.192856      	93.985596      	93.78598       	
93.49236       	93.4818        	93.5785        	93.35013       	93.42982       	93.74809       	93.692795      	93.67873       	93.81618       	93.91122       	94.15114       	93.60832       	94.24292       	94.29677       	94.12009       	94.264206      	94.627495      	94.292885      	94.685715      	94.69804       	94.476875      	94.49616       	93.6935        	93.32907       	93.59858       	93.46795       	93.65145       	93.50879       	93.7519        	93.58663       	93.48963       	93.75139       	93.833954      	93.3091        	93.3274        	93.487625      	93.22307       	93.40507       	93.48503       	93.57952       	93.615234      	93.75582       	93.60038       	93.54419       	93.42099       	93.096         	92.7539        	93.31287       	92.92709       	92.61885       	92.77783       	92.90922       	92.85335       	93.28585       	93.05985       	93.04526       	92.92122       	93.12955       	93.26669       	93.524864      	93.99889       	93.97115       	93.81783       	94.02611       	94.21536       	94.196724      	93.89584       	93.61567       	93.2443        	93.1106        	93.27467       	93.86665       	93.96475       	93.6384        	94.017624      	94.04468       	93.9019        	94.04728       	93.81774       	93.52227       	93.89069       	93.66578       	93.77846       	94.32255       	93.97999       	93.99388       	93.63697       	93.59013       	93.636116      	94.03504       	93.70101       	93.4672        	93.95513       	93.521965      	93.48523       	93.761345      	94.20637       	94.0529        	93.88054       	94.0099        	
93.06794       	93.57384       	93.19118       	93.1757        	93.19133       	92.98954       	93.15963       	94.154526      	94.29147       	94.19919       	93.74915       	93.78768       	94.37993       	94.34639       	94.56055       	94.81285       	94.90795       	94.609726      	94.68051       	95.06701       	94.79808       	94.348434      	93.88482       	93.71708       	94.06271       	93.598076      	93.59453       	93.57065       	93.38304       	93.40348       	94.08613       	93.66968       	93.16741       	93.32061       	93.31523       	93.39258       	93.84786       	93.3156        	93.80852       	94.04809       	93.91922       	93.72188       	93.73622       	94.08635       	93.624664      	93.84637       	93.76915       	93.423294      	93.42195       	93.234184      	92.9879        	93.64184       	93.418335      	93.44904       	92.92359       	92.54921       	92.789635      	92.52701       	92.92259       	92.8878        	93.30514       	93.578384      	93.98741       	94.00582       	93.22054       	93.58025       	93.85064       	93.67017       	93.71924       	93.39803       	93.07366       	93.19589       	93.35102       	93.14677       	92.98831       	93.08204       	92.958466      	93.05431       	93.56685       	93.2717        	93.53097       	93.27156       	93.62838       	93.784134      	93.93192       	93.67204       	93.479904      	93.24051       	93.50557       	93.186295      	93.20386       	93.62634       	93.88881       	93.27128       	93.589554      	93.717964      	93.6031        	93.22753       	93.13764       	93.11279       	
93.62304       	93.69797       	93.880035      	94.00541       	93.72655       	94.10661       	94.18086       	93.67284       	94.09139       	94.359085      	94.35429       	94.50884       	94.41136       	94.2658        	94.8275        	95.2836        	94.175835      	94.15467       	94.54908       	94.50587       	94.41687       	94.45072       	93.88532       	93.59199       	93.702835      	94.01043       	94.19783       	94.29724       	93.82465       	94.07398       	93.97985       	94.20552       	94.12996       	93.70329       	93.513756      	93.57394       	93.53235       	93.14945       	93.399124      	93.27988       	93.392525      	93.43354       	93.46167       	92.676994      	92.77211       	93.543045      	93.33815       	92.848495      	93.20403       	93.514984      	93.900764      	93.73836       	93.76346       	93.8039        	93.43432       	93.51042       	93.79387       	93.52131       	93.00398       	93.74704       	93.716446      	93.34852       	93.03639       	93.17212       	93.45106       	93.34683       	93.30734       	93.55628       	93.43904       	93.60013       	93.27811       	93.71673       	93.46184       	93.379974      	93.98363       	94.037285      	93.8402        	93.91619       	93.43314       	94.13944       	94.0665        	93.47228       	93.59335       	93.72979       	93.657364      	93.39214       	93.384674      	93.57772       	93.30748       	93.36031       	94.001945      	93.502975      	93.184         	93.54122       	93.70727       	93.75968       	94.07176       	94.0712        	94.108734      	94.15286       	
94.25459       	94.63819       	94.774124      	94.7301        	94.88386       	94.53753       	94.604614      	94.61302       	94.15055       	94.591515      	94.43226       	94.37489       	94.12186       	94.2015        	94.14218       	94.120605      	94.03033       	94.576225      	94.769005      	94.854126      	94.67216       	93.76994       	93.47612       	93.32287       	93.107666      	93.04265       	93.183         	93.51069       	93.80664       	93.56529       	93.778206      	93.88114       	93.34998       	93.77284       	93.86015       	93.722664      	93.52092       	93.80252       	93.854164      	93.921875      	93.902824      	93.62637       	93.50265       	93.74158       	93.65479       	93.84687       	93.988884      	93.48405       	93.61812       	93.673965      	93.3975        	93.457306      	93.83578       	93.94849       	93.66793       	93.74472       	93.18253       	93.07015       	93.649414      	94.01387       	94.44751       	94.54176       	94.15087       	94.104095      	93.70263       	93.60697       	93.69136       	93.80619       	93.65712       	93.273315      	93.562775      	93.48914       	93.41076       	93.69473       	93.99306       	93.87528       	93.32403       	93.43956       	93.80021       	94.27702       	93.90222       	94.043045      	94.11473       	93.9681        	93.73302       	93.571205      	93.620834      	93.91207       	94.37784       	93.72794       	94.033066      	93.64702       	93.55866       	93.91336       	93.20003       	93.454636      	93.70222       	93.48154       	93.3064        	93.006226      	
94.14916       	94.01884       	93.89012       	93.92697       	94.346725      	94.07476       	94.09086       	94.130745      	93.96681       	94.23213       	93.65913       	93.705376      	93.59765       	93.92762       	94.01298       	93.44129       	93.71927       	93.966034      	94.1477        	94.16504       	94.33074       	93.825226      	93.60204       	92.86665       	93.009384      	93.4395        	93.66283       	93.550186      	93.410065      	93.69568       	93.47252       	93.67443       	93.706894      	93.41764       	93.33559       	93.31286       	93.07545       	92.89259       	93.19056       	92.943375      	93.211006      	93.113335      	93.08241       	93.00699       	92.85454       	93.02367       	92.62003       	93.05209       	93.062         	93.50556       	93.4868        	93.507614      	93.80003       	93.760574      	93.48003       	93.5995        	93.43123       	93.20273       	93.57445       	93.481255      	93.545456      	93.474045      	93.5456        	93.02092       	93.207436      	93.45075       	93.305145      	94.02544       	93.714035      	93.431244      	93.78447       	93.743454      	93.301285      	93.85323       	93.55448       	93.369644      	93.78465       	93.96861       	93.65416       	93.77235       	93.45646       	93.59584       	94.2544        	93.82246       	93.96901       	93.53272       	93.49869       	93.34234       	93.99944       	93.7581        	94.148155      	94.03988       	93.52248       	93.57619       	92.82864       	93.01645       	93.23345       	93.60172       	93.816666      	93.62383       	
93.3453        	93.8269        	92.94493       	93.513565      	93.52202       	93.614044      	93.44181       	93.47937       	93.62425       	93.41127       	93.14445       	93.36218       	93.446335      	93.60509       	93.19011       	93.370735      	93.512695      	93.99891       	93.47758       	93.43556       	93.4899        	93.26492       	92.91832       	93.26466       	92.932724      	92.79273       	92.785         	92.92241       	93.177246      	93.31664       	92.80192       	93.2706        	93.16825       	93.00529       	93.25494       	93.25441       	92.86979       	92.83913       	93.368965      	93.013115      	92.89909       	93.19412       	93.548676      	93.53301       	93.35291       	93.4394        	93.64925       	93.52432       	93.53215       	93.54008       	93.05488       	92.91207       	93.2801        	93.22005       	93.493965      	93.40306       	93.27286       	93.11341       	93.035675      	93.1175        	93.35263       	93.18279       	93.44231       	93.59643       	93.37399       	93.23498       	92.874626      	93.15495       	93.46127       	93.66797       	93.62043       	93.47339       	93.46534       	93.90074       	93.988434      	94.54557       	94.09425       	93.88414       	93.83658       	93.39531       	93.54454       	93.89525       	93.66822       	93.63972       	93.35472       	93.54659       	93.72027       	93.73891       	93.23722       	93.44487       	93.89238       	93.93124       	93.57133       	93.99794       	93.55711       	92.94508       	93.48853       	93.66007       	93.59075       	93.5516        	
93.41516       	93.876785      	93.26433       	93.4176        	94.11506       	94.49045       	94.17026       	94.18782       	94.05933       	93.85507       	93.65657       	93.991905      	93.89757       	93.81062       	93.56497       	93.60449       	93.934006      	93.95445       	94.113075      	94.08664       	94.654915      	93.87721       	93.58031       	93.54138       	93.56428       	93.0268        	93.392654      	93.64054       	93.5877        	93.28381       	93.662346      	93.573395      	93.57014       	93.502335      	93.49985       	93.28221       	93.5762        	93.66634       	93.604416      	93.608         	93.33172       	93.20778       	94.11453       	94.44617       	93.87011       	93.76335       	93.92396       	93.493484      	93.72214       	93.91389       	93.597015      	93.964         	93.798096      	93.20195       	93.05434       	93.20203       	93.40885       	93.74019       	93.93713       	93.85416       	93.865326      	94.0985        	93.56932       	93.09319       	93.37019       	93.405716      	93.701         	93.605156      	93.92856       	94.17669       	94.13273       	94.32439       	94.21347       	94.160065      	93.76142       	93.729576      	93.69383       	93.9576        	92.99321       	93.55818       	93.99291       	93.86183       	93.79261       	93.97243       	93.938896      	93.84337       	93.70158       	93.79549       	93.329506      	94.00445       	93.215324      	93.78259       	94.371475      	93.92565       	94.0467        	94.02832       	93.87914       	93.589         	93.53972       	93.68306       	
93.98852       	94.07431       	93.968155      	93.75052       	93.38675       	93.56449       	93.34392       	93.63004       	93.38162       	93.69044       	93.61019       	93.79585       	94.08424       	93.81744       	93.51534       	93.676895      	93.5963        	94.13722       	93.97232       	94.508804      	94.88691       	94.44005       	93.34293       	93.89836       	93.48544       	92.67216       	92.586494      	93.23373       	92.80913       	93.016975      	93.53358       	93.40116       	93.40944       	93.05249       	92.98389       	93.33421       	93.379395      	92.768585      	93.51047       	93.845024      	93.3398        	93.51302       	93.40217       	93.27039       	93.85475       	93.398186      	93.15511       	93.57731       	93.60896       	93.37843       	93.5579        	93.6893        	93.594086      	93.32902       	93.659775      	93.68346       	93.58229       	93.78874       	93.80573       	93.58397       	93.85088       	93.30232       	94.07783       	93.91198       	93.4203        	93.08496       	93.71495       	93.61663       	93.03914       	93.56176       	93.76554       	94.294716      	93.84643       	93.42497       	93.031235      	92.967514      	93.03331       	93.00839       	93.02994       	93.06343       	93.33743       	93.285194      	93.56685       	93.07007       	93.33469       	93.68959       	93.2716        	93.43114       	93.23101       	93.28336       	93.53805       	93.39378       	93.401764      	93.81982       	93.50114       	93.424034      	93.49251       	93.80192       	93.919075      	93.67835       	
93.51949       	93.735466      	93.27428       	92.9967        	93.172005      	93.02336       	93.25131       	93.26017       	93.500114      	93.31098       	93.4012        	93.38167       	93.903496      	93.86009       	93.70308       	93.92045       	93.56358       	93.72525       	93.60985       	94.2235        	94.25156       	93.59148       	93.70834       	94.05143       	93.829666      	93.43456       	93.27945       	92.828705      	93.39521       	93.03925       	93.50314       	93.339966      	93.211716      	93.58916       	93.6644        	94.00288       	94.06605       	93.743965      	94.112236      	93.97069       	93.72087       	93.65648       	93.80864       	93.47106       	93.38073       	93.40687       	92.855354      	93.250984      	93.48198       	93.609375      	93.27583       	93.72351       	93.676895      	94.17707       	93.95253       	93.95741       	93.86491       	94.06715       	93.68167       	93.92067       	93.938805      	94.084305      	94.07883       	94.27011       	93.74739       	94.3269        	93.83598       	93.76225       	94.14339       	93.83198       	93.85281       	94.04385       	93.670395      	93.42174       	93.57003       	94.04585       	93.832924      	93.916664      	94.178825      	93.65971       	93.90886       	93.72082       	93.79541       	94.342514      	94.51213       	94.16984       	94.32662       	94.06512       	93.90986       	94.21431       	94.01981       	94.06137       	93.51835       	93.41561       	93.13301       	93.674446      	93.84254       	93.20977       	92.8065        	92.90027       	
93.520355      	93.56166       	93.11023       	93.16788       	94.05249       	93.94206       	93.41284       	93.70967       	93.180664      	93.50863       	93.83852       	93.48023       	93.384964      	93.59758       	93.68426       	93.87049       	93.55908       	93.490326      	93.70515       	93.81755       	94.09257       	94.4167        	94.344345      	94.47841       	94.22895       	94.20604       	93.8205        	93.52013       	93.75382       	94.16541       	93.90119       	94.35469       	94.672485      	94.266594      	93.841034      	93.57743       	93.67415       	93.31862       	93.3709        	93.74208       	93.81515       	93.41985       	93.19402       	93.467636      	94.06175       	93.93339       	93.56844       	93.34851       	93.617744      	93.87021       	93.631134      	93.70032       	93.959335      	94.058685      	93.79471       	93.801346      	93.86409       	93.85715       	93.728645      	93.316315      	93.75776       	93.5079        	93.27035       	93.64269       	93.68831       	93.43377       	93.60233       	93.577354      	93.75591       	93.7415        	93.77735       	93.01038       	92.703804      	93.24491       	93.98088       	93.73759       	93.79195       	93.769905      	94.09091       	93.954025      	93.87236       	94.12224       	93.55034       	93.32967       	93.296455      	93.741295      	93.66866       	93.6628        	93.75134       	93.56951       	93.63105       	94.2309        	94.011475      	94.09087       	93.833786      	93.75935       	93.990654      	94.3728        	94.40186       	94.11422       	
93.54765       	93.82133       	93.861694      	94.05675       	93.811676      	94.258965      	93.762375      	93.61809       	93.532425      	93.6519        	93.77878       	93.823105      	93.42027       	93.49952       	93.24215       	93.26232       	93.51907       	93.638535      	93.76363       	93.92638       	93.44071       	93.436874      	93.52848       	94.022255      	93.65784       	93.48589       	93.835464      	93.68226       	93.34893       	94.189896      	94.05488       	94.10542       	94.51525       	94.40935       	94.242546      	94.11323       	93.615555      	93.80148       	94.07691       	94.0137        	93.763756      	93.77319       	93.510826      	93.51407       	93.65287       	93.54061       	93.395096      	93.615425      	93.38554       	93.03437       	93.54133       	93.71469       	93.57596       	93.775955      	93.51128       	93.184296      	93.47658       	93.749626      	93.608246      	93.452774      	93.38497       	93.57692       	93.75477       	94.07539       	93.550285      	94.145744      	93.5955        	93.21074       	93.54145       	93.4181        	93.47995       	93.581955      	93.68786       	93.86988       	93.62464       	93.349014      	93.85875       	93.70137       	93.527534      	93.90703       	93.80668       	93.54079       	93.769905      	94.04811       	93.68965       	93.46863       	93.368454      	94.11292       	94.29548       	94.18472       	94.03548       	94.04084       	93.669525      	93.66572       	93.183624      	93.17094       	93.276886      	93.31945       	93.32883       	93.40292       	
93.54072       	94.29509       	93.94042       	93.91157       	94.270966      	93.91711       	93.491         	93.936104      	93.99754       	94.03621       	93.22611       	93.27546       	92.99368       	93.26904       	93.24264       	93.773674      	93.68196       	93.5923        	93.558365      	93.76038       	93.46183       	93.560844      	93.578255      	93.15556       	93.28612       	93.52592       	93.67493       	93.89749       	93.35585       	92.858894      	93.59086       	93.16431       	93.214714      	93.30812       	92.99702       	93.833206      	93.24676       	93.42754       	93.32997       	93.58398       	93.975845      	93.66215       	93.362015      	93.391         	93.83188       	93.12332       	93.63225       	93.64657       	93.43995       	93.35572       	93.84289       	93.76294       	93.51861       	93.45302       	93.527306      	93.14566       	93.14071       	93.10438       	93.22384       	93.2439        	93.14244       	93.03986       	93.48554       	93.7205        	93.98092       	93.70267       	93.72892       	93.4911        	93.23109       	93.11581       	93.1306        	93.35688       	93.147514      	93.1787        	93.58074       	93.2433        	92.80574       	93.12298       	93.188835      	93.11656       	93.148         	93.03409       	92.83221       	93.42582       	93.86877       	93.90822       	93.80647       	93.42762       	93.800606      	93.91691       	93.77113       	93.44557       	93.17247       	93.544174      	93.796394      	93.6842        	94.28307       	94.37513       	94.2471        	94.09681       	
93.96009       	94.31437       	93.91308       	94.125946      	94.482506      	94.28105       	93.73917       	93.81072       	93.931625      	93.801056      	93.08359       	93.58705       	93.55545       	93.214485      	93.44031       	94.10936       	93.6998        	93.747444      	93.48129       	93.062065      	93.057625      	92.909706      	92.86623       	93.62728       	93.62532       	93.59044       	93.94624       	94.121864      	93.08737       	93.520195      	93.68465       	93.02849       	93.63382       	93.58367       	93.3516        	93.84347       	93.49695       	93.33016       	93.87774       	93.528885      	93.84551       	94.26135       	93.667114      	93.58698       	93.90174       	94.15536       	94.03409       	93.82376       	93.47492       	93.62744       	94.109825      	94.56593       	94.15137       	94.11417       	94.26668       	93.774345      	93.992325      	93.691124      	93.88272       	93.461624      	93.91558       	93.75049       	93.315445      	93.44954       	93.50951       	93.635086      	93.643036      	93.6287        	93.496704      	93.87146       	93.55495       	93.390816      	94.13326       	94.172905      	94.15236       	94.325676      	94.1768        	93.66956       	93.884         	93.84388       	93.835556      	93.76454       	93.638664      	93.62476       	93.58587       	93.45379       	93.61682       	93.66532       	93.945915      	93.5378        	93.595955      	93.11324       	93.5498        	93.951416      	94.41475       	94.011475      	93.83737       	93.78321       	94.05999       	94.13561       	
93.868805      	93.68515       	93.065506      	93.405876      	93.62611       	93.82499       	93.85411       	93.97848       	93.77746       	93.82616       	93.57315       	94.05106       	94.0061        	93.723015      	93.93445       	93.93077       	94.044846      	93.83067       	93.976395      	93.56265       	94.06067       	93.84151       	93.714325      	93.84494       	93.915245      	93.97413       	93.99242       	93.36485       	93.345215      	93.56531       	93.53006       	93.63567       	94.04023       	94.228355      	93.77229       	93.93652       	94.35015       	94.13195       	93.79806       	94.33378       	94.0367        	93.88778       	93.66545       	93.58939       	93.245804      	93.33025       	93.13394       	93.70464       	93.43138       	93.41694       	93.53515       	93.724625      	93.77497       	93.7546        	93.85275       	93.574936      	93.62477       	93.71939       	93.53974       	93.51995       	93.24064       	93.46695       	93.91518       	93.953896      	93.8249        	93.9045        	94.28494       	94.14195       	94.01093       	94.22535       	93.92585       	94.09527       	94.36717       	93.90278       	93.9944        	94.17509       	94.03976       	94.243645      	93.88261       	94.01791       	94.17402       	93.78325       	94.10066       	94.24533       	94.30355       	93.757744      	94.02124       	94.14584       	94.10279       	93.68861       	93.65024       	93.39696       	93.136154      	93.97644       	93.59103       	93.32528       	93.888985      	93.88622       	93.82331       	93.66792       	
93.549835      	93.41167       	93.31042       	93.155754      	92.9254        	92.91161       	92.91944       	93.19604       	93.22852       	93.30583       	93.17121       	93.0924        	93.06917       	93.68568       	93.20116       	93.093834      	92.97628       	93.0719        	93.066086      	93.182465      	93.65695       	93.301094      	93.412674      	93.2198        	93.49915       	93.39015       	93.311775      	93.38347       	93.07734       	92.97557       	93.64059       	94.00042       	94.103         	94.36867       	93.519936      	93.19888       	93.26137       	92.85726       	93.36356       	93.93684       	93.79658       	94.273796      	94.335724      	94.17128       	94.10036       	93.45958       	93.3538        	93.3278        	93.53935       	93.86888       	93.69279       	93.52992       	93.53635       	93.96547       	93.59541       	93.28516       	93.83679       	93.82577       	93.53212       	93.71285       	93.07341       	93.70163       	93.58922       	93.33684       	93.84352       	94.029106      	94.051926      	93.92481       	93.680984      	93.31977       	93.2766        	93.807816      	93.92967       	93.988266      	93.973625      	93.61112       	93.68705       	93.272835      	93.76216       	93.73249       	93.697266      	93.7426        	93.49264       	93.69243       	93.92602       	93.7221        	93.41979       	94.03181       	93.827644      	93.60636       	93.81773       	94.18791       	93.897064      	94.131424      	94.2762        	94.280556      	94.34478       	94.44148       	94.51854       	94.51199       	
93.551605      	93.594345      	93.59345       	93.643074      	93.60933       	93.230354      	93.27502       	93.02117       	93.57034       	93.387436      	93.02504       	93.52467       	93.62329       	93.41922       	93.27326       	93.37139       	92.921585      	92.668785      	93.265945      	92.994835      	92.914215      	92.938805      	92.96326       	93.45027       	93.156044      	92.756546      	92.98181       	93.3807        	93.403114      	93.50911       	92.818405      	92.94125       	92.81528       	93.1008        	93.48239       	93.66092       	93.35864       	93.76567       	93.520035      	93.65207       	93.65962       	93.63388       	93.795654      	93.57238       	93.361046      	93.40107       	93.53117       	93.47863       	93.23811       	93.30795       	93.58178       	93.51027       	93.94127       	94.118515      	94.331085      	94.45067       	94.11232       	94.35315       	93.56005       	93.781265      	94.20812       	93.79329       	93.38362       	93.884224      	93.936295      	93.714096      	94.38557       	94.404015      	93.9261        	93.80572       	93.37012       	93.34942       	93.622314      	93.57973       	93.778366      	94.15043       	93.923676      	94.163864      	94.15728       	94.488434      	94.431465      	94.26347       	94.48798       	94.49611       	94.12459       	93.655         	94.42662       	94.098236      	93.55653       	93.56078       	93.48837       	93.93822       	93.692665      	93.600044      	93.8829        	94.24275       	94.29492       	94.82591       	94.963715      	94.897125      	
93.503426      	93.405205      	93.529785      	93.95686       	94.19739       	94.1988        	94.0485        	93.76086       	94.18206       	93.846886      	93.775024      	94.06081       	94.22209       	93.78365       	93.72647       	93.90804       	94.11339       	93.94091       	94.0175        	93.83602       	93.70029       	93.86439       	94.381546      	94.22321       	94.05617       	94.08337       	93.963776      	93.42592       	93.5046        	93.520424      	94.30773       	94.30865       	93.634575      	93.909004      	93.70151       	93.85627       	93.896324      	94.15803       	93.99726       	94.11178       	94.0383        	93.79618       	94.10074       	93.93521       	93.37056       	93.55799       	93.97065       	93.753624      	94.29579       	94.02448       	93.77837       	93.96388       	94.04957       	94.03695       	93.86187       	93.58586       	93.38563       	93.399254      	93.59465       	93.404106      	93.63155       	93.543915      	93.65222       	93.742386      	93.61613       	93.13428       	94.50589       	94.30062       	93.94728       	94.27638       	93.94066       	94.383545      	94.1764        	93.84001       	94.290115      	94.38954       	93.81261       	93.11658       	93.032455      	93.18521       	93.499405      	93.81848       	93.56677       	93.64952       	93.474525      	94.10941       	93.99732       	93.52241       	93.53499       	93.547905      	93.60246       	93.80891       	93.78931       	93.73511       	93.85735       	93.998604      	94.18056       	94.21304       	94.171745      	94.08796       	
93.48869       	93.71093       	94.0441        	93.63652       	93.8358        	93.58332       	93.295654      	93.57502       	93.48934       	93.40853       	93.1171        	92.75826       	92.804565      	93.184166      	93.0179        	93.14392       	93.22243       	93.073074      	93.215256      	93.331184      	93.71474       	93.96716       	93.682526      	93.78329       	93.25414       	93.5882        	93.768745      	93.74305       	93.80179       	93.728264      	94.26664       	93.92553       	94.01456       	93.55423       	93.72458       	94.09671       	94.15368       	93.67876       	93.714355      	93.624954      	93.91633       	93.85715       	93.60661       	93.664665      	94.067055      	94.005165      	93.898315      	94.389366      	94.18354       	94.23206       	94.25956       	94.64498       	94.60231       	94.51604       	94.381905      	94.632         	94.14291       	94.567154      	94.27463       	93.973885      	94.07777       	94.13771       	94.4453        	94.00538       	93.81276       	93.657845      	94.05472       	94.34317       	94.04769       	93.854164      	93.68985       	93.538574      	93.78785       	94.11998       	93.45544       	93.822914      	94.237564      	93.889336      	93.563385      	93.9309        	93.615204      	93.51187       	93.544685      	93.62011       	93.71834       	93.66722       	93.70589       	93.712         	93.90288       	93.952034      	93.94231       	93.51884       	93.952225      	93.81059       	93.54957       	92.94489       	92.96424       	93.42091       	93.58178       	93.426765      	
93.64204       	93.58199       	93.40081       	93.39275       	93.91126       	93.38105       	93.41813       	93.68149       	93.280594      	93.11527       	93.43314       	93.62406       	93.656166      	93.60821       	93.765465      	93.60412       	93.92046       	93.5664        	93.99688       	94.24414       	93.68135       	94.19646       	93.340096      	93.77267       	94.04797       	93.68497       	93.90149       	93.96854       	93.83823       	94.37516       	94.403854      	94.32129       	93.81567       	93.841705      	93.791306      	93.812         	93.92115       	93.590256      	93.6442        	93.42879       	93.85692       	93.39613       	93.61185       	93.47497       	93.211945      	93.39877       	93.21147       	92.97346       	93.26847       	93.844345      	93.66577       	93.35839       	93.46921       	93.492584      	93.225624      	93.21955       	93.55077       	93.77051       	93.30509       	93.58766       	94.0514        	94.3827        	93.66952       	93.62948       	94.06185       	93.78802       	93.21627       	92.83702       	93.301476      	92.708244      	93.04605       	93.652985      	93.77966       	93.657394      	93.1575        	93.38103       	93.10544       	93.3072        	93.18306       	93.63196       	93.85123       	93.94528       	93.75816       	93.16297       	93.17229       	92.95686       	93.35107       	92.95729       	92.79618       	93.620865      	93.70097       	92.96619       	93.212654      	93.68392       	93.52763       	93.32374       	93.429535      	93.63046       	93.59818       	93.726875      	
93.619995      	93.89116       	93.52715       	93.105705      	93.09558       	93.07605       	93.48747       	93.776245      	93.70361       	93.40416       	92.98538       	93.13301       	93.391396      	93.52987       	93.41672       	93.16657       	93.07724       	92.78662       	93.112564      	93.34486       	93.521736      	93.61954       	93.39684       	93.600006      	93.2237        	93.22464       	93.57272       	93.22529       	93.73746       	93.63316       	93.82591       	93.71512       	93.558914      	93.47363       	93.9145        	93.7952        	93.69418       	93.71392       	93.6631        	93.98485       	93.874466      	93.56254       	94.06481       	93.663704      	93.88846       	94.18831       	93.81832       	93.90073       	94.25363       	93.99698       	93.571655      	93.72347       	93.92213       	94.0133        	93.80249       	93.706924      	93.73059       	94.030365      	93.717125      	93.66136       	93.95556       	94.17873       	94.03326       	93.639275      	93.60381       	94.11332       	93.923256      	93.743576      	94.13317       	93.66424       	93.99674       	94.331535      	94.34283       	93.705086      	93.82927       	93.953354      	94.10936       	93.9019        	94.11736       	94.31283       	93.99641       	93.86253       	93.73935       	93.79895       	93.76972       	94.19357       	94.12214       	93.9301        	94.15799       	94.18908       	93.95618       	94.00333       	94.41053       	94.223885      	94.12193       	94.10633       	94.036674      	94.00497       	93.77928       	93.4547        	
93.5017        	93.9254        	93.93755       	93.69382       	94.17317       	93.58049       	93.59492       	93.840775      	93.95684       	93.68283       	93.69217       	93.80315       	93.69858       	93.85254       	93.54344       	93.55522       	93.93698       	93.49385       	93.53651       	93.479805      	93.796265      	93.56151       	93.69227       	93.18527       	93.5113        	93.43426       	93.43828       	93.97879       	94.10451       	94.10868       	93.869644      	93.9054        	93.41264       	93.44603       	94.35051       	93.93474       	93.842636      	94.09583       	93.938705      	93.66365       	93.509735      	93.66333       	93.57441       	93.93903       	93.59432       	93.74708       	93.62804       	93.591446      	94.0166        	94.10113       	93.840416      	93.9706        	94.3362        	93.96095       	94.14566       	94.4303        	93.91938       	93.63435       	93.755615      	93.79948       	93.90347       	93.5443        	93.35045       	94.025665      	94.13208       	93.790215      	93.860344      	94.41955       	93.72986       	94.00049       	93.72469       	93.62077       	93.84539       	93.59836       	93.72176       	93.47369       	93.15025       	93.69203       	93.82799       	93.966835      	93.859         	94.25788       	94.046196      	93.62377       	94.128716      	94.14476       	93.96444       	93.684555      	93.86222       	94.0726        	93.76574       	93.87044       	93.87694       	93.91973       	93.34089       	93.31845       	93.40203       	93.30099       	93.03345       	92.62605       	
94.07734       	94.06413       	94.25436       	94.62934       	94.24312       	93.995285      	94.35828       	94.563644      	94.378296      	93.94364       	93.8016        	93.969345      	93.844734      	93.551094      	93.79886       	93.91503       	94.00774       	93.67327       	93.76756       	93.46349       	93.62076       	93.63109       	93.64723       	93.78476       	94.35033       	93.70341       	93.84284       	93.72412       	93.7903        	93.68291       	93.16794       	93.319855      	93.72525       	93.136475      	93.37719       	93.807976      	93.67016       	93.58269       	93.715744      	93.03049       	92.91049       	93.269806      	93.661415      	93.50546       	94.01168       	93.736275      	93.75561       	93.75811       	93.71889       	93.89063       	93.57403       	93.70991       	93.67049       	93.72326       	93.74444       	93.632195      	93.54576       	93.45866       	93.471         	93.19315       	93.5275        	93.33312       	93.441925      	93.25439       	93.437065      	93.30151       	93.780624      	93.957436      	93.75434       	93.87915       	93.53654       	93.42323       	93.411224      	93.58617       	93.81486       	93.721085      	93.984665      	93.90794       	93.66438       	93.94095       	94.02921       	93.888725      	93.94145       	93.9582        	94.1194        	94.33546       	94.00593       	94.25813       	93.748825      	93.67485       	94.18281       	94.190834      	93.37916       	92.98321       	92.84102       	93.051895      	93.16785       	92.99996       	92.79518       	92.78125       	
