# www.neaspec.com
# Scan:	 	Whitelight Imaging
# Project:	 	20251007_PS
# Description:	 	
# Date:	 	10/07/2025 13:44:09
# Scanner Center Position (X, Y):	[µm]	49.99	50.01	 
# Rotation:	[°]	0	 	 
# Scan Area (X, Y, Z):	[µm]	5.000	5.000	0.000
# Pixel Area (X, Y, Z):	[px]	100	100	1
# Interferometer Center/Distance:	[µm]	546.342	0.000	 
# Averaging:	 	1	 	 
# Integration time:	[ms]	5	 	 
# Wavenumber Scaling:	 	1.000000	 	 
# Laser Source:	 	4.5-15 µm nano-FTIR laser
# Detector:	 	R
# Target Wavelength:	[µm]	7.502	 	 
# Demodulation Mode:	 	Fourier
# Tip Frequency:	[Hz]	241,340.500	 	 
# Tip Amplitude:	[mV]	45.700	 	 
# Tapping Amplitude:	[nm]	76.624	 	 
# Modulation Frequency:	[Hz]	0.000	 	 
# Modulation Amplitude:	[mV]	0.000	 	 
# Modulation Offset:	[mV]	0.000	 	 
# Setpoint:	[%]	79.75	 	 
# Regulator (P, I, D):	 	4.206850	8.625812	1.000000
# Tip Potential:	[mV]	0.000	 	 
# M1A Scaling:	[nm/V]	0.426	 	 
# M1A Cantilever Factor:	 	1,000	 	 
# Q-Factor:	 	487.4	 	 
# Version:	 	2.1.11536.0
75.26818       	75.831276      	75.66933       	75.8451        	75.71463       	75.24472       	76.009895      	75.38883       	75.30375       	75.67979       	75.7835        	75.45881       	75.387054      	75.84863       	75.240036      	76.184105      	75.07596       	75.99908       	72.56918       	73.28191       	74.02229       	75.43573       	75.54134       	75.81372       	75.58194       	75.58043       	75.63673       	75.56421       	75.822754      	74.85639       	76.56646       	75.73515       	75.826035      	75.97679       	74.49585       	75.39636       	76.03935       	76.98754       	76.52382       	75.64572       	75.84732       	74.86027       	76.08395       	75.76283       	74.99285       	76.57001       	76.36288       	75.61161       	75.50862       	75.84324       	75.786995      	75.96205       	76.676704      	75.66221       	76.531906      	74.15968       	75.29696       	75.49905       	75.516045      	75.65815       	75.76195       	75.48095       	75.50513       	75.594055      	75.8097        	75.452835      	75.00398       	76.08563       	75.332565      	75.9032        	75.23939       	75.37207       	75.91791       	75.67544       	75.151         	75.907585      	75.269775      	76.483765      	75.1919        	75.4632        	75.68265       	75.29501       	75.33785       	75.58685       	75.33478       	75.12773       	76.302124      	75.20134       	75.536514      	75.34812       	75.85475       	75.95602       	74.92315       	76.07912       	75.87104       	75.08691       	74.697174      	76.83462       	75.25718       	75.39201       	
75.3748        	75.88017       	75.73313       	75.77272       	75.52423       	75.47878       	75.70872       	75.22882       	75.43284       	75.93049       	75.74678       	75.730194      	75.297066      	75.92632       	75.70158       	75.33174       	75.48307       	74.7554        	73.07425       	73.6385        	74.16043       	74.75774       	76.2045        	75.81967       	75.29726       	75.81608       	75.10632       	76.63079       	75.410095      	75.35977       	76.0176        	75.506744      	75.601265      	76.64584       	74.750336      	75.59392       	76.331924      	76.87941       	74.98679       	75.75459       	75.87483       	74.87648       	75.402145      	77.30221       	75.439674      	77.04123       	76.299385      	75.55415       	74.94959       	75.9398        	75.17044       	75.61609       	75.60531       	75.0078        	75.74681       	75.99619       	75.68994       	75.41604       	75.58725       	75.15607       	76.33324       	75.51377       	75.22597       	76.61305       	74.83848       	75.639496      	75.8139        	75.46112       	75.35975       	75.73466       	75.54116       	75.7083        	75.60087       	76.032684      	76.3488        	75.00328       	76.18807       	74.98851       	75.445656      	75.313545      	76.719986      	74.81581       	75.7739        	75.42892       	75.9362        	74.960785      	75.52668       	75.759056      	75.61263       	75.62181       	75.13296       	76.60053       	75.05848       	75.902145      	74.9996        	75.61859       	76.03998       	75.59801       	76.01877       	74.98817       	
75.46971       	75.615814      	76.04201       	76.16177       	75.65906       	75.74081       	75.631386      	75.72563       	75.67211       	75.30562       	75.46193       	75.65404       	75.61401       	75.6188        	76.366425      	74.862625      	75.17748       	75.64386       	73.43282       	73.548645      	74.48185       	74.56924       	75.06779       	75.93817       	76.11632       	75.25384       	76.2019        	76.02732       	75.81472       	76.03659       	75.53141       	76.279594      	74.395996      	76.12953       	75.523         	75.47694       	76.79003       	76.08194       	75.9119        	76.25937       	75.10662       	76.396255      	76.70649       	75.35741       	74.57772       	75.06267       	75.593956      	74.571815      	75.8917        	75.32548       	76.2217        	75.480064      	76.06997       	73.752495      	75.93442       	75.57495       	76.0494        	75.10021       	75.10438       	75.94031       	75.93361       	75.19222       	75.410225      	75.40005       	75.380905      	75.53653       	75.61667       	75.978966      	75.43893       	76.08413       	74.994316      	76.00536       	75.57307       	75.41514       	75.21535       	75.731544      	75.66079       	76.93107       	74.04934       	75.169106      	76.68358       	75.056274      	75.31695       	75.852516      	75.52075       	75.40193       	75.48532       	75.77432       	75.8284        	75.832504      	75.06828       	75.79683       	76.53146       	74.12046       	76.614296      	75.91887       	74.36781       	75.842514      	75.906876      	75.45345       	
75.56821       	75.63392       	75.94862       	75.54853       	75.67052       	75.37111       	76.07999       	75.86076       	74.72639       	75.382484      	75.10103       	75.49651       	75.81708       	75.21582       	75.78757       	75.396545      	75.881355      	75.3166        	74.10599       	73.56206       	74.680885      	74.47785       	75.05374       	75.663155      	75.436195      	76.01451       	76.3949        	77.025955      	74.65234       	75.88023       	76.522026      	75.68906       	75.072235      	76.60877       	75.354996      	75.510574      	76.63699       	76.508965      	76.279335      	77.20335       	74.312584      	74.98728       	74.99189       	76.0863        	75.16537       	75.74458       	75.719315      	75.71123       	75.172264      	75.59857       	75.1203        	76.156166      	75.4016        	75.35695       	76.14046       	75.598404      	75.131004      	75.75355       	76.000465      	75.79843       	75.39916       	75.85205       	75.45079       	75.86978       	74.47998       	75.35784       	75.80859       	75.48023       	76.13414       	75.19842       	76.02275       	75.40851       	75.215         	75.84848       	75.787125      	74.64503       	76.16863       	75.317276      	75.58839       	75.27953       	75.7359        	75.808395      	75.2116        	75.62515       	75.789444      	75.06087       	75.665726      	75.55801       	75.16197       	76.20951       	75.59074       	75.14679       	75.75934       	75.281624      	76.43264       	74.544655      	75.62205       	75.76705       	75.69544       	75.168816      	
75.68501       	75.6342        	75.82382       	76.066925      	75.49955       	75.52953       	75.302216      	75.84182       	76.44082       	75.170616      	75.38728       	75.681015      	75.872055      	75.33983       	75.64367       	75.67961       	75.58392       	74.89542       	75.86346       	74.074974      	75.0074        	73.99937       	75.268425      	75.835144      	75.41501       	74.01207       	76.97109       	75.5766        	75.766266      	76.47804       	74.80741       	76.35343       	75.89571       	77.12321       	75.17477       	76.030716      	75.89444       	74.78972       	76.16306       	75.053314      	75.22641       	75.209496      	75.488785      	75.6318        	75.86596       	77.060005      	73.916595      	75.654594      	75.38396       	75.20482       	75.47025       	75.64824       	75.66795       	75.815674      	75.40267       	75.29404       	75.88834       	75.3258        	75.015274      	76.04933       	75.63113       	75.28999       	75.642494      	75.3782        	75.980385      	75.25799       	75.85503       	75.601814      	75.398674      	75.62421       	76.177864      	74.96362       	75.4906        	75.44099       	75.72396       	75.52558       	75.65752       	75.90718       	75.274635      	76.49315       	74.214226      	76.216835      	75.41731       	76.37819       	74.34704       	75.76424       	75.75216       	75.02328       	75.71297       	75.53808       	75.66588       	75.178635      	75.63118       	75.99647       	75.25556       	74.82045       	76.10685       	75.726746      	75.603455      	75.48565       	
75.61908       	76.35374       	75.57323       	75.03567       	75.59282       	75.81722       	75.731865      	75.58868       	75.43237       	76.11183       	75.96946       	75.01067       	75.77527       	75.58892       	75.544624      	75.686554      	75.58772       	75.3511        	76.1749        	75.4584        	74.516884      	74.132         	75.234436      	75.87097       	74.981346      	74.93872       	76.50211       	76.384346      	75.91198       	76.321434      	75.91668       	75.51332       	75.15352       	75.23358       	75.23084       	75.851654      	75.59396       	75.324524      	76.29542       	75.193504      	75.44746       	76.257256      	76.024994      	75.19558       	75.80792       	75.314575      	75.97071       	75.4343        	74.98098       	76.46447       	75.41637       	75.30969       	75.59874       	75.07519       	75.590515      	76.42496       	74.53412       	75.76534       	75.79182       	75.8588        	75.32587       	75.74178       	75.5095        	75.14155       	75.7464        	75.345764      	75.505615      	76.03025       	74.417534      	74.912506      	76.522316      	75.99358       	74.56634       	75.637215      	76.08314       	76.456474      	74.5117        	75.85665       	75.47391       	75.19229       	75.748055      	75.74886       	75.43447       	75.754036      	76.1288        	75.171814      	76.08549       	75.420845      	75.2015        	75.49852       	76.50969       	74.6717        	76.63393       	74.92359       	75.880554      	75.22587       	75.71407       	75.627106      	75.591965      	76.20451       	
75.61581       	75.74076       	75.80653       	75.43793       	75.38372       	75.48965       	75.43396       	75.9476        	75.06348       	76.05586       	76.397156      	75.89848       	74.95114       	75.5029        	75.82122       	75.60745       	75.58608       	75.44197       	75.89434       	75.85638       	75.731575      	75.24          	75.29684       	75.11116       	75.86464       	76.04778       	76.5042        	75.61715       	74.74563       	75.45416       	75.95679       	75.35308       	75.50159       	75.83018       	75.677864      	75.70684       	75.27164       	75.16841       	76.16849       	77.53918       	73.340866      	75.573425      	75.82581       	75.217224      	75.666145      	75.54906       	75.98138       	75.52204       	75.31259       	75.76955       	75.84074       	75.19175       	76.04196       	74.701706      	76.0288        	75.755806      	75.10745       	75.74397       	75.77152       	76.00799       	75.41799       	75.65469       	75.67091       	75.59642       	75.31409       	75.717575      	75.632774      	75.30261       	75.6547        	75.90105       	75.21867       	75.5211        	75.766266      	75.35923       	75.86076       	75.33303       	75.84098       	75.09389       	75.75162       	76.254715      	75.284096      	75.203064      	75.5794        	76.5232        	74.3692        	75.541214      	75.77897       	75.15315       	75.42339       	75.233246      	75.72334       	77.73133       	73.78249       	74.8051        	75.70244       	76.62069       	73.99623       	76.15347       	75.067986      	75.657684      	
75.68083       	75.64125       	75.855896      	75.632706      	75.755684      	76.545456      	74.97158       	76.02767       	75.80016       	75.48671       	76.73591       	74.429726      	75.5588        	75.62621       	76.007904      	75.141045      	75.37597       	75.3442        	75.71721       	76.25835       	75.551704      	75.813286      	76.09803       	74.81741       	76.481514      	74.565605      	75.47647       	75.520775      	75.43611       	75.87199       	75.57095       	76.203896      	75.12477       	75.546295      	76.167694      	75.209564      	75.458015      	75.22614       	75.95406       	77.26182       	73.47871       	75.67279       	75.173546      	75.64741       	76.00297       	75.28175       	76.171875      	75.49605       	75.26656       	75.719444      	75.66769       	76.27412       	74.99989       	75.75131       	75.23948       	75.939575      	75.698456      	75.4867        	75.99039       	75.43078       	75.63119       	75.86864       	75.37245       	75.93797       	75.6524        	75.36446       	75.55125       	75.48728       	75.729416      	75.421265      	75.79167       	75.575066      	75.75407       	75.48842       	75.451706      	75.81204       	75.50901       	75.76075       	75.355255      	76.21121       	75.92029       	74.811264      	75.76103       	75.42348       	75.649055      	75.38788       	75.71532       	75.758255      	76.114105      	75.31507       	74.80312       	75.47183       	76.4953        	74.87549       	75.62298       	75.575554      	76.22109       	75.04129       	75.27222       	76.21344       	
75.64382       	75.449455      	75.50188       	76.841835      	77.245445      	74.4848        	75.94879       	75.249695      	75.60113       	74.9635        	75.71487       	75.65447       	75.195015      	76.54179       	74.711876      	75.671906      	75.94286       	75.78452       	75.31892       	75.89931       	75.245346      	75.39728       	76.70062       	74.789         	75.897514      	74.978424      	75.77493       	75.727715      	75.492874      	74.840126      	75.573456      	76.53541       	74.26283       	76.004616      	75.95007       	75.154205      	75.45056       	76.1695        	75.47133       	75.45042       	75.481804      	75.50858       	76.14003       	75.42363       	75.6452        	75.713844      	75.56183       	75.44482       	75.89041       	75.49092       	75.835205      	75.88783       	75.1468        	75.77536       	75.144714      	76.4841        	75.64831       	75.04866       	76.422134      	75.217834      	75.421616      	75.86859       	75.33523       	75.91024       	76.172005      	75.219635      	75.31119       	75.90873       	75.83005       	75.05128       	76.096214      	75.26782       	76.21334       	74.6106        	75.64572       	75.87347       	75.90617       	75.60828       	75.29754       	76.31388       	74.801315      	75.69282       	75.49138       	76.02203       	75.407326      	75.6235        	75.93879       	75.10561       	75.84696       	75.48691       	76.679375      	74.21332       	76.3577        	75.117516      	76.25096       	75.16189       	73.855156      	76.30711       	75.43791       	76.00953       	
75.54712       	75.70761       	76.229706      	76.08813       	75.55038       	76.386856      	76.59456       	74.48514       	75.19635       	75.52931       	75.07277       	75.660835      	75.89163       	75.649086      	75.33187       	76.34491       	75.03292       	75.840034      	75.678604      	75.32792       	75.63048       	75.46633       	75.98751       	75.354126      	75.41615       	75.75189       	75.17262       	75.65824       	75.78516       	75.280655      	75.629845      	75.842064      	75.67811       	75.2009        	75.31594       	75.88805       	75.24749       	74.93376       	75.570145      	75.53977       	75.92862       	75.275986      	75.71029       	76.535255      	75.25938       	75.909874      	75.38828       	75.737686      	75.57451       	75.173355      	75.85475       	76.61775       	73.70903       	76.10967       	75.603065      	75.64741       	75.95273       	74.78662       	75.995766      	75.52282       	75.22144       	75.63202       	75.91873       	75.42285       	75.503685      	75.78567       	76.262         	75.03993       	74.73807       	75.06925       	76.02928       	75.193726      	75.03342       	76.024216      	75.34985       	76.16806       	75.37771       	75.53338       	75.338844      	75.73503       	75.68184       	75.61555       	75.36869       	75.87562       	75.598076      	75.40232       	75.29001       	75.69299       	75.7126        	75.705246      	75.58098       	75.452896      	76.08951       	75.11331       	75.73729       	75.69346       	75.615036      	75.54601       	76.0417        	74.95795       	
75.70742       	76.09877       	75.63231       	75.866684      	76.129555      	75.33778       	75.128075      	75.89235       	75.35412       	75.925835      	75.59077       	75.71954       	75.21272       	75.72298       	75.37701       	75.49037       	75.796326      	75.381195      	75.59195       	75.41414       	76.03689       	75.67384       	75.409615      	75.836876      	75.20094       	75.54322       	75.49615       	76.004715      	76.04086       	73.97036       	75.90852       	75.76968       	75.68256       	75.74413       	75.553116      	75.550125      	75.72429       	75.70581       	75.51388       	75.72801       	75.963524      	75.8314        	75.27844       	75.67769       	75.2725        	76.01249       	75.624344      	75.35458       	75.939476      	75.01958       	75.831505      	76.02107       	75.24888       	75.45548       	75.957985      	74.78827       	76.11176       	75.375534      	75.64618       	75.76333       	75.812744      	75.43998       	75.53233       	75.90726       	75.46722       	74.3676        	76.55062       	77.01112       	73.95595       	76.16446       	75.44022       	74.96803       	76.63963       	75.33314       	75.3256        	75.84763       	75.443115      	75.43095       	75.60435       	75.77913       	75.08387       	75.94134       	75.23204       	76.21554       	75.28373       	75.316826      	76.02059       	75.93962       	75.38761       	74.96367       	75.91031       	75.629974      	75.41726       	75.758224      	74.98105       	76.21172       	75.254845      	75.36149       	75.71837       	76.26809       	
75.77994       	75.75523       	75.65941       	75.43116       	75.564026      	76.5142        	74.69323       	76.35889       	75.785545      	75.560165      	75.93865       	75.59507       	75.68662       	74.331825      	76.376175      	75.35974       	75.317665      	75.87175       	74.94585       	75.83877       	75.709785      	75.04928       	75.55274       	75.99487       	75.50485       	75.72402       	75.8016        	74.94327       	75.4956        	75.78371       	75.54675       	75.751236      	75.52571       	75.52911       	75.78657       	75.08951       	76.04329       	75.43991       	74.83279       	75.98566       	75.29986       	75.34707       	75.87714       	75.72047       	75.76802       	75.34676       	75.54945       	75.81538       	75.780014      	75.23094       	75.822235      	76.12403       	75.0815        	75.964714      	75.52763       	75.217224      	76.53295       	75.14365       	75.23903       	76.036514      	75.55524       	75.37445       	75.603714      	75.279106      	75.754135      	74.15188       	75.57044       	77.70999       	72.99466       	76.03647       	75.91373       	75.60831       	75.33478       	76.47105       	75.151726      	75.160164      	75.854805      	76.260925      	74.6886        	76.04257       	75.566795      	75.652855      	76.18211       	74.14444       	77.40599       	74.59939       	74.88676       	75.741974      	75.72832       	75.534065      	75.43417       	75.80134       	75.57087       	75.53811       	77.86902       	74.49907       	75.709435      	75.33354       	75.5775        	76.66824       	
75.56237       	75.80568       	76.74707       	78.07341       	74.12364       	75.64619       	75.720276      	75.33614       	75.5529        	75.812355      	74.7734        	75.7296        	75.62469       	75.256836      	76.47457       	74.44419       	75.77794       	75.415146      	75.337944      	76.82969       	75.08597       	74.987465      	75.6749        	75.65521       	75.24663       	76.18661       	74.973495      	76.03052       	75.83379       	74.66083       	75.6013        	75.7996        	75.75262       	75.56463       	75.88039       	76.0953        	74.60736       	75.88908       	76.12156       	75.33273       	75.852234      	75.82395       	75.57346       	75.310196      	76.244354      	75.25884       	75.68504       	75.057755      	76.37201       	74.98701       	76.676926      	76.006805      	74.36718       	75.17966       	75.40364       	75.57228       	75.88304       	75.727264      	75.413445      	75.90433       	75.69709       	76.05653       	75.20208       	75.67175       	75.71302       	75.56095       	76.66174       	74.64271       	76.61458       	74.87625       	75.677666      	75.25897       	75.73824       	76.24821       	75.221375      	75.20486       	75.80212       	75.01892       	76.13856       	76.84886       	74.323166      	76.55626       	74.45784       	75.53905       	75.81754       	75.20096       	75.63123       	75.86504       	75.014435      	75.768845      	75.48518       	76.02023       	75.37703       	75.70954       	75.15237       	75.33333       	76.193184      	74.71343       	76.09942       	75.209564      	
75.461105      	76.038216      	76.20597       	75.48466       	75.34107       	75.158966      	75.27853       	76.11687       	75.36524       	74.77919       	75.90164       	75.52145       	74.87263       	75.26543       	75.80248       	75.57347       	75.893524      	75.06624       	75.79009       	76.00835       	74.875656      	75.78957       	75.77881       	75.51476       	75.43242       	75.14378       	76.342026      	75.51205       	75.42633       	75.25374       	75.70562       	75.55916       	75.40146       	76.057625      	75.77379       	75.44947       	75.50574       	75.918106      	75.23179       	75.758766      	75.519104      	75.353745      	75.92963       	75.085976      	76.26124       	75.27922       	75.429115      	75.86669       	75.95139       	74.60566       	76.57239       	75.5278        	74.90064       	75.74842       	75.819214      	75.76937       	75.33578       	76.18892       	76.96861       	73.68746       	75.99538       	75.88883       	75.06758       	76.10372       	75.152534      	75.9151        	75.48852       	75.436005      	76.01762       	74.837845      	75.8614        	75.55368       	75.22816       	75.44271       	75.8467        	75.42658       	75.83362       	75.79465       	75.6094        	75.68784       	75.129486      	76.534386      	75.066864      	74.88339       	75.664856      	75.85484       	75.395164      	75.668396      	75.74262       	75.80937       	75.71025       	75.69601       	75.40537       	75.57538       	75.194885      	75.80944       	75.20394       	75.77851       	75.99056       	75.52261       	
75.63095       	75.9015        	76.51846       	75.54979       	76.56208       	75.77202       	74.323326      	75.00702       	75.60499       	76.055695      	75.422195      	75.11841       	75.177895      	76.09602       	75.75522       	75.32116       	76.089035      	75.09472       	75.95924       	75.10629       	75.58286       	75.44601       	75.59786       	75.82809       	75.627235      	75.70254       	75.24787       	75.98569       	75.36047       	74.883766      	75.63224       	76.08226       	75.29005       	75.71395       	75.468575      	76.19285       	75.17602       	75.72357       	75.44474       	75.54942       	75.600266      	75.996864      	75.76399       	75.77825       	75.46949       	75.165085      	75.85169       	75.54996       	75.79391       	74.49179       	76.28634       	76.710335      	73.6139        	76.10425       	76.62743       	74.9632        	75.08846       	75.77183       	75.78117       	75.575386      	75.69999       	76.116905      	75.25208       	75.84786       	76.78837       	74.887314      	75.1337        	75.234276      	75.97821       	75.676476      	75.37501       	75.999695      	75.442         	75.550026      	76.03679       	75.25399       	75.48864       	75.31488       	75.90418       	75.66461       	75.35551       	74.760086      	75.27597       	75.76447       	75.1476        	75.61188       	76.08697       	75.15832       	74.686         	75.82385       	75.54399       	75.737434      	75.61141       	76.04319       	75.36682       	75.42833       	76.753914      	74.79723       	74.607056      	72.390724      	
75.47815       	75.60197       	75.82013       	76.75846       	75.321465      	74.964264      	75.56919       	75.73687       	75.4863        	74.58152       	75.96196       	75.32104       	75.95157       	75.36295       	75.55493       	75.4815        	75.742294      	75.328316      	76.04791       	75.25185       	75.30201       	75.957924      	75.75171       	75.3559        	75.314095      	76.191216      	75.500305      	75.3713        	75.69442       	75.81872       	75.63926       	75.38284       	75.593925      	75.459694      	75.69403       	75.58088       	75.66506       	75.82419       	75.25272       	75.42678       	75.89392       	75.51337       	75.79164       	75.9528        	75.05789       	75.69332       	75.83091       	75.45099       	75.91645       	75.18397       	76.12212       	75.33207       	75.106125      	76.0521        	75.41878       	75.713776      	75.51832       	75.3027        	76.133804      	75.75974       	75.89339       	75.52262       	75.31884       	76.047646      	75.65794       	75.705086      	74.87362       	75.52885       	76.08255       	75.2651        	75.85749       	75.43686       	75.211006      	75.61483       	75.78188       	75.66848       	75.838585      	75.330986      	75.89345       	75.5663        	75.13419       	76.01792       	75.2685        	74.95293       	76.051605      	75.307045      	75.5215        	75.706024      	75.693474      	75.215744      	75.96883       	75.24886       	76.19143       	74.42039       	74.85661       	74.66166       	74.387985      	75.31584       	75.10673       	75.006325      	
75.55922       	75.87476       	76.03807       	76.16275       	75.869736      	75.99472       	75.53643       	75.51973       	75.514404      	75.83558       	75.55233       	75.91915       	75.40244       	75.41837       	75.42311       	75.71127       	75.97386       	75.58902       	75.44728       	75.41602       	75.64245       	75.50185       	75.58891       	75.66932       	75.723595      	75.890686      	75.066605      	75.35957       	76.046005      	75.6383        	75.09109       	75.76547       	75.38621       	75.98072       	75.23513       	75.22166       	75.63465       	76.082985      	75.29426       	75.91419       	75.82821       	74.94104       	75.57629       	75.75264       	75.19749       	75.563034      	75.3075        	76.384415      	75.07507       	75.79233       	75.33447       	75.61756       	75.88753       	75.254776      	75.384445      	75.77764       	75.40943       	75.724266      	75.6746        	75.69266       	76.53159       	74.84847       	75.57982       	75.36364       	75.81862       	75.76753       	75.52766       	75.25578       	75.591385      	76.03527       	75.42466       	75.1903        	75.79775       	76.173164      	75.27402       	75.40483       	75.8137        	75.50805       	74.89242       	76.16213       	75.335815      	75.55499       	75.40913       	75.96952       	75.683975      	75.15897       	75.36344       	75.83999       	75.924675      	74.78866       	73.72584       	74.21955       	74.56614       	74.93868       	75.47391       	75.42932       	74.854324      	75.31026       	75.62638       	75.45493       	
75.54706       	75.80416       	75.89316       	76.71915       	75.65992       	74.98104       	76.07953       	74.99547       	76.236855      	75.221985      	75.8117        	75.41864       	75.46582       	75.69843       	74.983185      	76.14769       	75.3387        	75.32688       	75.87508       	75.33973       	76.1032        	75.15357       	75.562096      	75.606834      	75.534996      	75.525925      	74.668304      	75.906784      	75.61274       	74.81972       	76.04079       	75.947464      	74.9558        	76.29074       	75.97103       	75.22059       	75.77996       	75.41256       	76.248695      	75.05008       	75.78545       	75.53774       	75.69923       	75.723495      	75.48277       	75.75186       	75.54399       	77.07375       	73.98195       	74.81904       	76.10007       	75.52995       	75.61635       	75.39232       	75.60521       	75.92888       	75.05858       	76.298035      	75.23889       	75.41343       	75.92548       	76.47329       	74.906845      	75.80614       	75.77383       	75.21521       	75.827675      	75.519394      	75.244064      	75.553665      	75.553345      	75.74603       	75.43872       	75.796265      	75.758         	75.169525      	75.649536      	75.642555      	75.82761       	75.08987       	75.831795      	75.46791       	75.35436       	75.52471       	76.33972       	75.53407       	74.16364       	72.456375      	72.239395      	73.49951       	75.04234       	75.584145      	75.143684      	75.3031        	75.204765      	75.36436       	75.909515      	75.76324       	75.80299       	75.63838       	
75.74893       	75.94851       	76.13576       	75.77682       	75.80656       	75.06923       	76.27263       	75.5382        	75.73904       	75.3897        	75.30489       	76.01771       	75.189186      	75.921745      	75.05955       	75.432785      	75.86305       	75.04558       	75.73403       	75.93624       	75.41498       	75.94162       	75.3034        	75.68776       	75.37711       	75.32053       	75.647896      	75.745544      	75.64071       	76.16652       	74.65896       	76.09541       	75.712715      	75.22741       	75.849236      	75.42975       	75.937836      	75.20061       	75.36425       	76.25525       	75.162224      	75.74388       	76.03721       	75.107124      	75.841774      	75.093864      	75.4411        	75.85656       	75.37926       	75.62588       	76.00935       	75.18002       	76.156845      	74.83642       	75.40328       	75.7985        	75.73117       	75.15339       	76.42897       	74.719376      	76.11091       	75.92406       	75.41379       	75.63067       	76.288185      	75.49435       	75.54028       	75.41917       	75.6818        	75.74396       	75.67865       	75.361305      	75.3061        	75.939835      	75.96158       	75.22149       	75.43202       	76.32389       	75.59862       	75.23397       	75.77327       	75.472565      	75.82144       	75.091965      	75.937256      	76.154465      	74.490875      	72.47788       	73.57697       	74.99935       	75.78593       	75.05454       	76.05745       	74.30133       	75.97358       	75.640076      	75.889175      	75.27505       	75.48394       	75.155205      	
75.61142       	75.91459       	75.44425       	75.27082       	75.63081       	76.32474       	75.06653       	76.06802       	75.42987       	75.67768       	75.84767       	75.58617       	75.789665      	75.51187       	75.32205       	75.21713       	75.98773       	76.01964       	75.611626      	75.33042       	75.81672       	75.63012       	75.81575       	75.97465       	75.412796      	75.81924       	75.29752       	75.0598        	76.325424      	75.71575       	74.36842       	76.41959       	75.078964      	75.47638       	75.647194      	75.35817       	75.87613       	75.55059       	75.595695      	75.596695      	75.52567       	75.70605       	75.77965       	75.63397       	75.181244      	75.900055      	75.5141        	75.58157       	75.843346      	75.92293       	75.45857       	75.52222       	75.99851       	75.37787       	75.528824      	75.79499       	76.31942       	75.414734      	75.21911       	75.357155      	76.28322       	75.5176        	75.461655      	75.99142       	75.17398       	75.45865       	75.513855      	75.95466       	75.78018       	75.11246       	75.57423       	75.925514      	75.66841       	75.56199       	75.50798       	76.25787       	74.505585      	75.75653       	75.75569       	75.3387        	75.84737       	75.082886      	75.69442       	75.734566      	74.754486      	75.92995       	72.36049       	73.65134       	74.51262       	74.779106      	75.44282       	75.675606      	75.49282       	76.607834      	75.79766       	74.40367       	76.390686      	75.854935      	74.63001       	76.46741       	
75.60304       	75.71175       	76.3575        	75.767426      	75.35208       	75.700676      	75.39378       	75.52666       	75.59348       	75.73219       	75.50583       	75.95697       	75.463615      	75.69086       	75.69656       	76.05526       	75.3842        	75.40556       	75.47884       	75.61038       	76.11163       	75.486595      	75.58933       	75.514626      	75.808044      	75.69016       	75.53842       	75.33383       	75.813614      	75.43866       	75.90245       	75.47207       	75.83609       	75.5213        	75.38769       	75.71294       	75.72985       	76.15267       	76.508675      	74.92742       	75.041664      	75.66539       	75.80499       	75.77475       	75.353195      	75.92043       	75.6291        	75.633         	75.81128       	75.48722       	75.34937       	75.91787       	75.72641       	75.64566       	75.36665       	75.68589       	75.68478       	75.62282       	75.68569       	75.65415       	75.918816      	75.37426       	75.32631       	76.92516       	74.42395       	75.25229       	76.060394      	76.06579       	75.34394       	75.5319        	75.35683       	75.717255      	75.36386       	75.42225       	75.93459       	75.66664       	75.38104       	75.720406      	76.1475        	75.28363       	75.48324       	75.70454       	76.08353       	75.27128       	75.10595       	76.0392        	73.221436      	73.48584       	74.53843       	74.59238       	75.28112       	75.631004      	75.58662       	76.182076      	75.13385       	75.49197       	76.6671        	75.01022       	75.58844       	75.375275      	
75.48601       	75.75533       	76.36056       	76.30558       	75.81907       	74.99384       	75.013245      	76.1359        	75.871124      	74.48118       	75.86549       	75.9732        	75.212036      	75.949486      	74.7422        	75.85229       	75.59695       	75.24798       	76.10945       	75.00101       	75.632675      	75.688156      	75.31205       	76.41          	75.282875      	75.640656      	75.32897       	75.9518        	75.63782       	75.29208       	76.12644       	75.30739       	75.337715      	76.20553       	75.445786      	75.550156      	74.83545       	75.52682       	76.2464        	75.98433       	74.42674       	75.52305       	75.651634      	75.87356       	75.92447       	75.24306       	76.027306      	74.606575      	76.017265      	75.58956       	75.630684      	75.719604      	75.81363       	75.61332       	75.8848        	75.37208       	75.749275      	75.47058       	75.44149       	75.55125       	75.4685        	75.939156      	74.964485      	75.91401       	75.46847       	75.9856        	75.24084       	75.59317       	75.64866       	75.61132       	75.32255       	75.846115      	75.98806       	74.98091       	75.70747       	75.26304       	75.967155      	75.52502       	75.51218       	75.59016       	75.49943       	75.421425      	75.74808       	75.90274       	75.12082       	75.68005       	73.29398       	73.8055        	74.97411       	74.46081       	75.26541       	75.11203       	76.11459       	75.438995      	75.21899       	75.45246       	75.348755      	76.23915       	77.1599        	73.74867       	
75.63701       	75.673256      	75.60807       	75.852104      	75.74338       	75.761505      	76.28273       	74.901924      	75.99039       	75.626656      	75.492836      	75.77869       	75.30226       	75.36396       	75.90805       	75.318275      	75.498085      	76.019806      	75.58486       	75.885826      	75.22133       	75.66593       	75.951645      	75.10884       	75.751274      	75.432594      	75.85438       	75.45156       	75.280846      	76.083595      	75.33276       	75.429565      	76.09965       	75.784874      	75.495995      	75.566086      	76.08467       	75.21408       	74.9468        	76.10081       	75.66303       	75.56192       	75.35473       	75.304886      	76.14725       	75.69614       	75.373245      	75.736946      	75.61589       	75.53481       	75.51901       	75.70705       	75.34891       	75.54036       	75.62125       	75.58698       	75.44352       	75.352234      	75.70063       	75.227844      	75.9456        	76.31731       	75.511856      	76.12644       	75.05587       	75.56129       	75.79571       	75.67769       	74.821335      	75.43358       	75.86526       	75.553185      	76.139755      	75.033455      	75.81003       	75.52046       	75.596466      	76.0539        	75.636246      	75.5234        	75.13686       	75.933044      	75.71054       	75.32025       	75.65877       	75.675476      	73.03453       	74.48814       	74.148125      	74.43617       	75.33336       	75.41955       	75.38614       	75.582375      	76.00484       	75.79747       	75.471886      	74.696556      	76.00765       	76.49521       	
75.72454       	75.60019       	75.65318       	75.80107       	75.59192       	75.44823       	76.05461       	75.589714      	75.408325      	75.65478       	75.928444      	75.3738        	75.424446      	75.8442        	75.591034      	75.476105      	76.38068       	74.948906      	76.140656      	75.395966      	75.46206       	75.88565       	75.25561       	75.253784      	75.7451        	75.96245       	76.14605       	74.96743       	76.04382       	74.95797       	75.37089       	75.88511       	75.65301       	76.04477       	75.13845       	75.47547       	75.79898       	75.51074       	75.363556      	76.12531       	75.408806      	75.45369       	75.82426       	75.527         	75.69492       	75.82242       	75.552895      	75.723335      	75.44202       	75.31121       	75.68884       	76.08325       	75.0785        	76.069695      	75.25973       	75.1495        	75.75119       	75.87126       	75.781006      	75.758         	75.287865      	76.04014       	75.433044      	75.69168       	76.13487       	74.88057       	75.77115       	75.28336       	76.07501       	75.15035       	75.4488        	76.104095      	75.230675      	75.90363       	75.78937       	75.52226       	75.218575      	75.43364       	76.84556       	74.69359       	75.5944        	75.61479       	75.765335      	76.123795      	74.94136       	75.25019       	74.98922       	73.04149       	74.54524       	74.28781       	74.59555       	75.62755       	75.83963       	75.81254       	75.107704      	75.89102       	75.48173       	76.43996       	74.52273       	77.18072       	
75.76962       	75.74948       	75.6813        	75.8038        	75.13512       	75.55094       	75.819534      	75.81052       	75.39792       	75.564705      	75.93354       	75.54335       	75.41673       	75.420784      	74.91755       	76.19555       	75.39242       	75.55066       	75.587234      	75.73116       	75.59095       	75.48335       	75.49664       	76.30083       	74.95821       	75.65401       	75.65583       	75.45048       	75.33849       	75.74681       	74.979996      	75.06802       	75.80029       	75.42739       	75.70616       	75.907425      	75.2446        	75.69706       	75.53077       	75.91524       	75.59806       	75.629265      	75.634056      	75.23244       	75.91098       	75.701866      	75.37431       	75.887505      	75.32097       	75.32225       	75.69673       	76.134605      	75.57458       	75.73708       	75.284164      	75.33751       	76.162025      	73.70704       	74.12478       	74.7988        	76.280106      	76.51855       	76.34818       	78.04289       	75.486015      	76.54074       	74.22937       	75.26724       	75.62898       	75.37611       	75.43675       	75.4044        	75.73776       	75.889275      	75.0537        	75.59226       	75.617424      	75.06621       	76.336716      	74.98898       	75.67775       	75.86879       	75.53945       	75.816315      	75.42191       	75.50096       	75.2246        	72.83716       	73.64329       	74.678215      	74.6736        	75.01886       	75.72848       	76.464355      	75.82225       	75.23596       	74.67675       	76.04492       	75.421394      	75.846794      	
75.55659       	75.92369       	76.836426      	76.35685       	75.12363       	74.75613       	75.56688       	75.79617       	75.299515      	75.90827       	75.47978       	75.76832       	75.64149       	75.247604      	76.05469       	75.54579       	75.14914       	75.259605      	75.998055      	75.07185       	75.591225      	75.65541       	75.527756      	75.47972       	75.79418       	75.165245      	75.75983       	75.43834       	75.40448       	75.368805      	75.72156       	75.75806       	75.55424       	75.71612       	75.8026        	75.5459        	75.66837       	75.95166       	75.16341       	76.022224      	75.50763       	75.088036      	75.91605       	75.61956       	76.38457       	75.19401       	75.61024       	75.36573       	75.73352       	75.98957       	75.1702        	75.77706       	75.086365      	74.20883       	74.62897       	74.45126       	74.76617       	75.43548       	74.91812       	75.179565      	75.7918        	76.257645      	76.90419       	79.46272       	76.145004      	76.545784      	77.03866       	74.16307       	75.148056      	76.6291        	74.97106       	74.9343        	76.10627       	75.350174      	75.2083        	76.155685      	75.34528       	75.34817       	74.993546      	76.34535       	75.579124      	75.321205      	75.42225       	76.1973        	75.41029       	74.903915      	75.40394       	74.10335       	73.72171       	74.17763       	74.65895       	74.962776      	75.58834       	75.47756       	75.85769       	75.565414      	74.95298       	75.92808       	75.93179       	75.56975       	
75.767586      	75.81768       	76.29627       	75.519226      	75.31135       	76.10003       	74.99132       	75.53963       	76.0289        	75.72518       	75.369446      	75.22456       	76.167114      	75.4129        	75.568825      	75.72616       	75.45678       	75.51735       	75.84508       	75.18883       	76.04789       	75.4514        	74.59573       	76.35975       	75.27911       	75.772285      	75.589325      	75.961395      	74.96351       	76.03362       	75.348495      	75.809235      	75.85512       	75.20041       	75.57433       	75.930786      	75.319115      	75.91799       	75.628815      	75.68329       	76.79385       	74.303894      	75.43937       	76.28003       	74.41278       	75.63724       	75.19047       	75.80958       	76.09483       	73.4482        	73.388664      	74.67994       	74.71907       	75.40196       	74.99073       	75.41855       	75.42135       	75.55007       	75.588         	75.71459       	76.07285       	76.20854       	76.72117       	77.30546       	78.040535      	75.46441       	75.44031       	75.72068       	75.218285      	75.77466       	75.38282       	75.636856      	75.41324       	75.417244      	76.24877       	75.45676       	74.77703       	75.85077       	75.14398       	75.78577       	75.71052       	75.40072       	75.72891       	75.70556       	75.66813       	75.78175       	75.43909       	74.21608       	73.02822       	74.059425      	74.58442       	75.247826      	75.56969       	75.054         	75.48981       	75.84998       	75.53583       	76.09526       	75.288734      	75.08354       	
75.62549       	75.884224      	75.9216        	75.671776      	75.52176       	75.80245       	75.550865      	75.93096       	75.94133       	75.46084       	75.036674      	76.01385       	75.7846        	75.9061        	74.20411       	76.389244      	75.65049       	75.54211       	75.78327       	74.5882        	75.93566       	75.12404       	75.478935      	76.15026       	74.88556       	76.20602       	76.17787       	74.777596      	75.78941       	75.04247       	76.010155      	75.73715       	74.68887       	75.81063       	75.77309       	75.28976       	75.562836      	75.83167       	74.78941       	76.04691       	75.88306       	74.99868       	76.85483       	74.96698       	74.46331       	74.09644       	73.86113       	74.64711       	75.58971       	74.474846      	75.20444       	75.82711       	75.19133       	75.50227       	75.87867       	75.59803       	75.528465      	75.42367       	76.523445      	74.7893        	75.46806       	76.228874      	77.17918       	77.57349       	77.73374       	75.41943       	73.82959       	76.103966      	75.23302       	75.6297        	76.43398       	74.98175       	75.09645       	75.88331       	75.05695       	75.91569       	75.55362       	75.097786      	75.66589       	75.73589       	75.69585       	75.97717       	75.4054        	75.2352        	76.54232       	74.57935       	75.40136       	74.061874      	73.36589       	74.32315       	74.31167       	74.716194      	76.267006      	75.76338       	75.56143       	75.313034      	75.6787        	75.364914      	75.77118       	75.40095       	
75.65452       	75.74644       	76.41403       	76.89155       	74.391754      	75.32019       	75.53024       	75.677925      	75.46751       	75.33106       	75.57123       	75.46004       	76.23766       	75.26641       	75.350494      	75.524635      	75.70924       	75.60306       	76.24639       	75.06792       	75.82813       	75.43683       	75.639145      	75.593704      	75.75737       	75.54002       	74.83856       	75.45111       	76.14866       	74.697075      	75.90214       	76.04171       	76.34774       	73.84016       	76.52316       	75.69412       	75.57634       	75.202614      	75.74204       	73.55615       	73.286705      	73.854996      	74.183495      	74.92785       	75.45854       	75.12595       	75.06407       	75.56817       	75.589195      	75.49503       	75.88248       	75.16645       	75.831764      	75.52879       	75.558586      	75.23744       	75.51519       	75.76718       	75.37191       	76.32805       	75.02068       	76.01777       	76.04434       	78.79964       	76.84866       	79.256355      	74.819725      	74.96881       	75.007095      	75.456375      	75.042656      	75.81086       	75.48865       	75.7824        	74.84409       	75.73241       	75.82218       	75.704926      	74.885124      	74.65829       	76.69105       	75.48742       	75.39384       	75.433975      	75.73641       	75.68788       	74.65619       	75.75322       	73.100876      	74.005135      	74.44054       	74.34553       	75.84176       	75.52632       	75.19177       	76.47387       	75.48755       	75.31825       	75.429054      	75.92039       	
75.73087       	75.75011       	76.35113       	77.45379       	75.86288       	74.24754       	74.876175      	75.68578       	75.8679        	75.27055       	75.30219       	75.52446       	76.060356      	75.479256      	75.62579       	75.71765       	75.269165      	75.422874      	75.77917       	75.75134       	75.20875       	75.95004       	75.48611       	75.68353       	75.68671       	74.92644       	75.68477       	75.79037       	75.47566       	75.27624       	75.41777       	76.162964      	75.514145      	75.879135      	75.45453       	74.09853       	73.99192       	74.90106       	74.77193       	74.84284       	75.016975      	75.45181       	75.619484      	75.56991       	75.2466        	75.79844       	75.57459       	76.34966       	75.0926        	75.30826       	76.23377       	75.21229       	75.71495       	76.016205      	75.166504      	75.44785       	75.65894       	75.79803       	75.824165      	75.16223       	75.48441       	75.59711       	76.56845       	77.32464       	79.31523       	78.387634      	74.412964      	74.79788       	75.84677       	75.49892       	74.90842       	75.7138        	75.950325      	75.00382       	75.563156      	75.67126       	75.57241       	75.62992       	75.75739       	75.227875      	75.99924       	75.19374       	75.5314        	76.05835       	75.33406       	75.296295      	76.1197        	75.2453        	74.171425      	73.40777       	74.233765      	74.477875      	75.32137       	75.52338       	75.59225       	76.18441       	75.20449       	75.56881       	76.5738        	75.083496      	
74.73652       	75.98247       	76.13803       	75.60612       	77.02375       	75.717224      	74.54541       	75.98997       	74.830574      	76.46846       	75.197075      	75.51775       	75.38555       	75.93879       	75.82976       	75.16464       	75.56423       	75.66724       	75.82357       	75.49439       	75.61929       	75.35263       	75.317604      	75.94295       	75.31988       	75.73027       	75.84961       	75.555695      	75.68957       	75.28511       	75.115005      	74.84528       	74.61072       	74.01443       	74.50688       	74.999466      	74.63185       	75.822914      	75.30065       	75.54033       	75.7312        	75.37739       	75.80592       	75.69012       	75.139175      	76.22345       	75.3336        	75.7859        	75.770905      	75.20406       	75.865425      	75.26531       	75.6912        	75.87032       	75.88867       	75.164536      	75.3189        	75.2316        	76.0016        	75.12121       	75.53466       	75.61238       	76.18653       	76.60798       	80.1351        	77.81401       	74.01934       	75.35294       	75.07747       	75.80057       	75.027504      	76.1998        	75.436386      	76.03293       	75.36699       	75.63604       	75.20008       	75.54304       	75.630775      	75.36024       	75.87089       	75.39997       	76.02791       	75.551025      	75.83255       	76.201225      	74.14783       	75.32145       	74.69329       	73.17873       	73.803566      	74.6527        	74.99662       	75.50188       	75.52677       	75.67382       	76.17187       	75.4337        	75.52761       	75.34874       	
75.45085       	75.899796      	75.61624       	75.89521       	75.857475      	76.08171       	75.232216      	75.75832       	75.573746      	75.73168       	75.261566      	75.55186       	75.415016      	75.72159       	75.63847       	75.37414       	75.76143       	75.65239       	75.58393       	75.616714      	75.466446      	75.82855       	75.576256      	75.19911       	76.00115       	75.4792        	75.57254       	75.501434      	74.088394      	72.337906      	74.18062       	75.264435      	75.215126      	75.239174      	75.41721       	75.47556       	75.65818       	75.38818       	75.827194      	75.32577       	75.443405      	75.55501       	75.55104       	76.28911       	75.63958       	75.018         	75.73566       	75.62073       	75.06375       	76.52928       	75.2616        	75.32407       	75.37512       	75.62325       	75.583786      	75.84936       	74.9549        	75.94284       	75.78871       	75.72539       	75.83042       	75.75811       	76.01601       	77.346725      	77.40143       	78.18813       	73.17317       	74.97269       	75.438156      	75.777016      	74.45184       	75.58165       	76.14552       	76.13046       	75.41527       	75.31538       	75.92008       	75.4807        	75.285515      	75.189095      	75.681274      	75.803406      	75.05854       	76.24944       	75.56844       	75.2322        	75.485825      	75.62737       	75.729294      	72.58288       	73.81843       	74.4141        	75.04069       	75.62906       	75.752045      	75.34803       	76.0793        	75.52815       	75.2313        	76.20879       	
75.684         	75.873886      	75.78026       	75.5221        	75.55392       	75.72566       	74.98115       	75.86188       	75.86083       	75.86368       	75.42787       	76.13876       	75.57327       	75.87372       	75.06254       	75.40264       	75.729164      	75.27791       	75.823105      	75.63493       	75.12505       	76.05356       	75.50838       	75.80374       	75.66949       	75.19479       	75.7423        	72.58973       	72.98576       	74.04437       	75.18276       	75.39915       	75.47972       	75.81548       	75.232315      	75.88592       	75.162155      	76.26451       	75.225975      	75.74209       	76.149704      	75.2901        	75.68982       	75.833374      	75.44448       	75.71002       	75.48369       	75.71185       	75.6926        	75.36596       	75.743004      	75.10499       	75.89115       	75.81466       	75.89127       	75.816986      	75.30241       	75.81564       	75.42057       	75.32696       	75.07277       	76.018585      	75.71404       	76.902466      	76.88969       	78.02328       	78.522156      	74.12565       	75.375275      	75.891045      	72.97968       	76.71234       	75.5155        	75.920166      	75.54765       	75.04418       	75.6121        	75.25946       	76.07428       	75.24091       	75.389435      	75.70943       	75.85558       	75.16758       	75.642395      	74.859665      	75.803604      	75.24042       	75.76063       	72.920334      	73.82996       	74.40101       	74.58915       	75.7064        	75.56558       	75.25296       	75.96176       	75.11078       	75.429955      	75.62474       	
75.58688       	75.72539       	76.180466      	75.73278       	75.44175       	76.163445      	75.334656      	75.439316      	75.53506       	75.82771       	75.68375       	75.284904      	76.25647       	75.35105       	75.683784      	74.94406       	75.71765       	75.28235       	76.35726       	75.73531       	75.48375       	75.23839       	74.78197       	75.76389       	76.14029       	75.158806      	73.76539       	72.50915       	74.71192       	74.78169       	75.48728       	75.51959       	75.49202       	75.587875      	75.872246      	76.41946       	74.899376      	74.77342       	76.17622       	75.877144      	75.13164       	75.53038       	76.56498       	75.38184       	75.15482       	75.38573       	75.90915       	75.4323        	75.70455       	76.01928       	75.50044       	75.4285        	76.15223       	75.69451       	75.002335      	75.50408       	76.21196       	75.00703       	75.38273       	76.08746       	75.235825      	76.239746      	75.0893        	76.0743        	77.38537       	79.754616      	77.642334      	74.53319       	74.92719       	76.20917       	74.2103        	76.11196       	75.684425      	75.570045      	75.64462       	75.64021       	75.87898       	75.4224        	75.3211        	76.36971       	75.098114      	75.81647       	75.7839        	75.58406       	75.31319       	75.554054      	75.750885      	75.50629       	75.45042       	73.69          	73.176346      	74.4156        	74.7098        	74.64925       	76.07921       	76.207535      	75.34218       	75.835785      	75.18703       	75.86366       	
75.70968       	75.833275      	76.164825      	75.80744       	75.32727       	75.53869       	75.872604      	76.31544       	74.64244       	75.73003       	75.97229       	75.34161       	75.49643       	76.16651       	75.172935      	75.585556      	76.03807       	76.16968       	74.58025       	75.62074       	75.132256      	75.85205       	75.819084      	75.76201       	74.69865       	75.36311       	72.67613       	74.00391       	74.41271       	74.73914       	75.83374       	75.65504       	75.17783       	75.911644      	75.54609       	75.6139        	75.96734       	75.53674       	75.699066      	76.28373       	75.02277       	75.700005      	75.45362       	75.4749        	76.08867       	75.77632       	75.517746      	75.11291       	75.6839        	75.628494      	76.08248       	75.467606      	75.78424       	75.11574       	76.07371       	75.344124      	75.79626       	75.7168        	75.0915        	76.05975       	75.55786       	75.59035       	75.84425       	75.70501       	77.394585      	78.509155      	77.49682       	73.61326       	74.87417       	76.3665        	75.18119       	75.502716      	75.7414        	75.70691       	74.764496      	75.92342       	75.68424       	75.239975      	75.69703       	75.51509       	75.76233       	75.750046      	75.53826       	75.252426      	75.69906       	76.194885      	74.99461       	75.81163       	75.336784      	74.156456      	73.29925       	73.94185       	74.49516       	75.25725       	75.62715       	75.5772        	75.2681        	75.91046       	75.59698       	75.1213        	
75.77355       	76.014626      	75.39001       	75.322014      	76.10488       	75.523315      	75.939575      	75.99917       	75.3547        	75.013405      	75.49174       	75.99886       	75.61294       	75.3851        	76.00562       	75.093025      	74.75281       	75.917336      	76.269516      	74.861145      	75.73866       	75.00402       	75.91104       	75.533455      	75.33572       	76.100174      	72.51826       	73.840935      	74.72196       	74.91873       	75.36435       	75.70075       	75.552086      	75.11675       	76.41751       	74.86169       	75.66371       	75.49504       	75.57677       	75.733604      	75.80666       	75.78817       	75.80547       	74.9141        	76.1731        	75.970985      	75.24372       	75.95328       	75.98691       	74.52988       	75.59829       	75.52712       	75.623604      	75.43473       	75.57084       	74.693436      	76.03118       	76.15372       	75.68614       	75.79903       	74.90441       	76.108864      	75.64315       	75.47392       	76.510345      	77.98104       	79.77828       	76.15438       	74.9449        	75.1284        	75.53081       	75.18401       	75.88733       	76.27305       	74.91087       	75.03857       	75.881134      	75.75058       	75.61017       	75.44015       	75.55217       	76.14901       	75.02064       	75.45204       	75.97606       	75.07381       	75.59492       	75.80721       	75.52728       	75.67271       	72.24066       	73.562645      	74.48499       	75.105255      	75.2038        	76.17528       	75.61196       	76.04206       	75.46579       	74.92918       	
75.839264      	75.90004       	75.71432       	75.53094       	75.99941       	75.44466       	75.27585       	76.10325       	75.61046       	75.36684       	76.01492       	75.50563       	75.544075      	75.68208       	75.56939       	75.84272       	75.80416       	75.73265       	75.32278       	75.83501       	75.98381       	75.57127       	76.31173       	74.98338       	75.81519       	75.2554        	72.84257       	74.20658       	74.13842       	74.63871       	75.29573       	75.84236       	75.64384       	75.53029       	75.59457       	75.407875      	75.60817       	75.30718       	75.94592       	75.77759       	75.45328       	76.117714      	75.218925      	75.48676       	75.2094        	75.59251       	75.65877       	75.53323       	75.66888       	75.36828       	75.84079       	75.83102       	75.51858       	75.80498       	75.61753       	75.28973       	76.11444       	75.7887        	75.04367       	75.595955      	76.46035       	74.96593       	75.468796      	75.84648       	76.26015       	77.84311       	78.83609       	76.05225       	73.87186       	74.96025       	75.68678       	75.52669       	75.742744      	75.2898        	74.94426       	76.26581       	75.9395        	74.7922        	76.07249       	74.91721       	75.16314       	76.03838       	75.301476      	76.09703       	75.26505       	75.38952       	75.87106       	75.56457       	75.26498       	75.77649       	72.569214      	73.895935      	74.64546       	74.523575      	75.576355      	75.694626      	75.21421       	76.04264       	75.17733       	75.40427       	
75.40272       	75.70942       	76.074455      	75.46826       	76.25753       	76.57948       	75.075714      	75.10556       	74.94343       	75.79298       	76.1482        	75.195946      	74.92101       	76.4           	75.346725      	74.9109        	75.544876      	75.53312       	75.456955      	75.4568        	75.98229       	76.61607       	74.561966      	76.30449       	75.526146      	75.61582       	73.51667       	73.15127       	74.55428       	75.07704       	74.99296       	75.589485      	75.37871       	75.75534       	75.537415      	75.59571       	75.301796      	75.95549       	76.08571       	75.389435      	75.13937       	75.74587       	75.72452       	75.890656      	74.92214       	76.40233       	75.332184      	75.310616      	75.976135      	75.72075       	75.482254      	75.564255      	76.00536       	75.3064        	75.20476       	76.27441       	75.40917       	75.4206        	75.902214      	75.328186      	76.21492       	76.10804       	73.98082       	76.00666       	74.95257       	78.18109       	78.59395       	76.95528       	74.092224      	75.601814      	75.79417       	75.01851       	75.66458       	75.83191       	75.13105       	75.400246      	76.22717       	75.29873       	75.3235        	75.96307       	74.86029       	75.64063       	76.15937       	75.07745       	75.7805        	75.83787       	75.516075      	75.8558        	75.12596       	75.704445      	73.10809       	73.382576      	74.6122        	74.71085       	74.98817       	75.17868       	76.305115      	76.22695       	74.59794       	75.10146       	
75.61154       	74.59859       	73.60172       	74.3622        	75.84685       	75.55477       	75.721344      	75.39527       	75.54911       	76.084145      	76.25048       	75.80553       	74.889626      	75.566086      	75.47479       	75.50518       	75.63215       	75.31929       	75.43077       	76.11223       	76.40333       	75.54831       	75.62115       	74.771454      	75.795525      	75.79949       	73.85341       	72.63378       	74.52751       	74.54403       	74.90769       	75.94705       	75.58325       	75.61633       	75.5424        	75.06866       	76.08334       	75.63401       	75.26332       	75.584526      	76.74252       	75.68678       	74.98821       	75.56668       	76.13277       	74.872574      	75.806305      	75.77396       	75.54193       	75.54985       	74.855995      	75.84584       	75.48405       	75.7605        	75.69824       	75.71398       	75.113914      	75.79447       	75.796394      	75.68293       	75.168434      	75.004395      	76.58632       	76.76166       	75.263626      	75.77044       	78.46475       	77.08556       	76.413376      	75.19716       	75.284996      	75.35779       	75.74172       	75.64025       	75.33722       	75.9324        	75.581184      	75.53018       	75.55431       	75.70274       	75.77734       	75.785355      	74.53847       	76.09215       	75.38676       	75.71993       	75.63972       	75.984886      	74.97342       	75.794         	73.263435      	73.22745       	74.5952        	74.84037       	75.03701       	75.26398       	75.926155      	75.50678       	75.33888       	75.24126       	
75.34494       	76.656265      	78.93501       	81.383934      	77.07369       	74.93658       	74.57343       	75.26331       	75.78123       	75.59777       	75.10399       	76.095055      	75.02717       	76.110985      	75.57433       	75.50868       	75.526566      	76.45915       	75.66672       	75.07641       	75.26134       	75.02997       	75.75088       	75.79619       	74.68639       	75.84035       	75.39303       	72.51665       	73.94931       	74.47034       	75.07935       	75.393524      	75.19978       	76.53491       	74.90095       	75.41465       	77.0121        	74.671936      	75.25773       	75.330055      	76.46139       	76.465294      	75.3185        	75.002594      	75.6244        	75.661476      	75.602806      	75.69545       	75.33911       	75.40146       	75.89985       	75.71561       	75.45301       	75.60118       	75.84921       	75.53903       	75.566376      	75.54697       	75.42485       	75.75555       	75.21941       	75.70914       	76.739334      	75.23081       	75.52996       	76.33566       	77.683525      	77.41427       	76.63224       	74.872055      	76.05447       	75.43454       	75.48333       	75.32639       	76.05795       	75.67041       	75.30781       	75.641235      	75.10193       	75.83772       	75.44435       	75.82646       	75.429886      	75.318         	75.532524      	75.64217       	76.29295       	75.470535      	75.37628       	75.43416       	74.370224      	73.438644      	74.01184       	74.687325      	74.91444       	75.592476      	75.2635        	75.49681       	75.585846      	75.779564      	
75.36141       	76.66243       	78.5683        	80.13804       	79.836655      	74.31486       	76.288536      	74.67255       	74.21194       	76.03468       	74.97969       	75.54731       	75.64158       	74.9099        	75.74955       	75.595795      	75.14326       	75.48575       	75.42789       	75.51502       	75.79384       	75.838356      	75.404335      	75.794975      	75.84258       	75.299995      	75.694305      	73.882164      	73.09946       	74.57098       	74.36043       	75.00615       	75.546135      	75.45251       	75.71796       	75.11146       	76.16854       	75.18897       	75.79548       	75.7707        	75.15714       	76.07472       	75.73942       	75.54911       	75.398796      	75.79903       	76.131096      	75.57343       	74.97921       	76.42156       	75.235016      	75.39014       	75.73248       	76.21913       	74.87519       	75.302155      	76.51197       	74.96653       	75.74532       	75.0994        	75.81569       	76.465195      	74.80337       	74.965065      	76.342026      	77.66754       	76.58856       	77.83848       	78.171844      	73.68805       	74.57689       	75.44483       	76.715225      	74.32367       	75.8618        	75.93594       	75.24568       	76.020035      	75.211754      	75.999435      	75.10595       	75.17185       	75.58604       	76.43359       	75.09789       	75.59267       	76.16708       	75.46602       	75.59926       	75.88594       	75.34263       	72.54343       	73.473465      	74.69225       	74.71707       	75.36154       	76.036674      	75.407646      	75.64057       	75.48873       	
75.40361       	76.69645       	77.26873       	79.82377       	79.57395       	74.279884      	75.68964       	76.13123       	75.23303       	75.228874      	75.08485       	75.85627       	75.57819       	75.24497       	75.84002       	75.677864      	75.69943       	75.70194       	75.45014       	75.73799       	75.25985       	75.76501       	75.486404      	75.74039       	75.627914      	75.54663       	75.6507        	74.34789       	72.54681       	74.238625      	75.05969       	74.9229        	75.73019       	75.24029       	75.3205        	76.21935       	74.40134       	76.99448       	74.600334      	75.66778       	75.584366      	75.92275       	75.39844       	75.449615      	75.527885      	75.884926      	75.60882       	75.46644       	75.75595       	75.61376       	75.711494      	75.41767       	75.67912       	75.29175       	75.5447        	75.23509       	75.96461       	75.99859       	75.29627       	76.01823       	75.09122       	75.28119       	76.29315       	76.01198       	74.75459       	76.14156       	77.19118       	79.68608       	77.9191        	73.83431       	75.921906      	75.89913       	75.01437       	75.54532       	75.4158        	75.485855      	75.37619       	75.62835       	75.41716       	75.70415       	75.188255      	75.87443       	75.981575      	74.8459        	75.61873       	75.590416      	76.160446      	75.074905      	74.95783       	75.99504       	75.99593       	72.11526       	73.8482        	74.711395      	74.68361       	75.45585       	75.73444       	75.56934       	75.68167       	75.77554       	
75.352974      	77.12174       	77.79828       	78.9271        	79.0747        	77.207695      	73.80088       	76.19013       	74.78009       	74.73686       	76.04726       	75.347466      	75.788345      	75.853134      	74.840744      	75.62393       	75.634995      	76.0986        	75.18413       	75.60024       	75.86378       	76.29667       	74.45836       	76.03161       	75.26462       	76.10029       	75.279396      	75.73099       	73.14114       	73.31987       	74.60638       	74.78541       	75.58439       	75.42337       	74.861115      	76.48543       	76.39859       	75.05334       	75.41305       	75.19577       	75.962456      	75.23956       	75.72647       	75.65014       	75.548706      	75.71643       	75.186966      	75.9989        	75.80105       	74.83322       	75.60265       	76.61202       	75.13706       	75.76998       	75.62162       	75.44225       	75.47029       	75.33634       	75.8983        	75.71837       	75.22906       	75.80474       	75.5329        	75.16642       	76.078445      	75.85387       	76.68062       	78.6454        	78.94265       	73.96328       	75.502716      	75.85878       	75.19858       	75.80805       	75.30589       	76.10388       	74.58429       	75.9876        	75.65631       	75.69465       	75.56567       	75.260864      	75.64752       	76.06829       	75.35256       	75.82713       	75.16294       	75.99786       	75.30818       	75.6213        	75.73773       	73.826004      	72.983955      	74.24949       	74.6663        	74.795715      	75.707794      	76.27004       	74.858925      	75.581         	
75.50046       	76.3041        	77.677475      	79.95649       	78.88251       	77.310524      	74.469925      	76.255745      	75.17435       	75.35471       	75.14088       	75.57161       	75.745384      	75.90049       	75.831085      	74.90261       	75.69297       	75.80646       	75.14855       	76.76554       	73.97712       	76.65857       	74.17686       	76.140175      	75.82366       	75.3328        	75.99748       	75.45068       	73.41971       	73.35396       	74.4733        	75.08667       	75.19351       	75.71619       	75.59423       	75.48833       	75.52215       	75.71594       	75.55928       	75.851204      	75.41209       	76.12767       	75.52449       	75.10053       	75.45385       	76.25955       	74.98523       	75.879776      	75.06015       	75.87508       	75.62147       	75.546394      	76.065346      	75.639206      	75.15707       	75.49336       	75.95676       	75.53261       	75.43868       	75.3622        	75.4646        	75.87587       	75.39566       	76.58667       	75.15457       	75.64658       	76.397415      	78.166664      	78.96068       	73.47648       	75.9137        	75.244095      	75.53841       	75.36828       	75.575775      	76.534546      	75.07801       	76.11718       	74.888794      	75.8698        	75.63841       	75.07546       	75.80872       	75.657364      	75.90079       	75.52148       	75.93048       	76.11659       	74.4266        	75.68453       	75.666176      	75.31838       	72.2626        	74.37121       	74.61737       	74.9282        	75.56532       	75.716606      	75.37313       	75.868515      	
75.83315       	76.39647       	77.42365       	79.34549       	79.17375       	77.94544       	73.798134      	75.83459       	75.49709       	76.347824      	74.15076       	76.52066       	74.90276       	75.225746      	75.93592       	75.16678       	75.93168       	75.02123       	76.72074       	75.97753       	73.119125      	76.59844       	75.68914       	74.88274       	76.33026       	75.66035       	75.59219       	75.08202       	74.637634      	72.879105      	74.17822       	74.45093       	75.16345       	75.52383       	75.41769       	75.6783        	76.46168       	74.293045      	75.85463       	75.274445      	75.4565        	76.0971        	75.59252       	75.189445      	76.033195      	75.72516       	75.39554       	74.68442       	76.0644        	76.442024      	74.75082       	75.51473       	75.22086       	75.951805      	75.8249        	75.72609       	75.544106      	75.5598        	75.68854       	74.767624      	76.160904      	75.444855      	75.34567       	76.04969       	75.327225      	75.88269       	76.21114       	78.85607       	77.476         	78.408936      	74.02248       	75.29334       	75.35769       	75.58683       	75.8644        	75.33064       	75.054         	75.57024       	76.66963       	74.10833       	75.989296      	75.45092       	75.7949        	75.33282       	75.92335       	75.619125      	75.94362       	74.98141       	75.72075       	75.69499       	75.65517       	75.28699       	73.11406       	73.65793       	74.31213       	75.03032       	75.75815       	75.51216       	75.05139       	75.417435      	
75.62176       	75.994545      	77.37922       	78.24927       	80.25818       	78.82786       	74.605835      	75.27349       	75.433655      	76.09618       	75.96809       	74.74681       	76.131744      	75.21178       	75.458244      	76.07765       	75.31644       	74.995445      	76.00611       	76.28921       	74.82021       	75.633804      	75.09527       	75.77257       	75.59136       	75.55782       	75.327934      	75.81773       	75.18516       	72.25426       	73.82799       	74.88492       	74.69991       	75.86258       	75.50327       	75.26872       	76.09175       	75.38723       	75.556496      	76.0633        	76.03657       	75.00789       	74.866005      	75.68325       	76.257164      	74.841896      	75.54549       	75.73545       	76.22988       	74.89189       	75.64331       	75.737         	75.345116      	76.38117       	75.58272       	75.32652       	75.57158       	75.40652       	76.05607       	76.44231       	74.419624      	75.73967       	75.62869       	75.105644      	76.05981       	75.55125       	75.820526      	77.8434        	79.42932       	78.243996      	73.811775      	75.55811       	75.25229       	74.91648       	75.978485      	75.49144       	75.54246       	75.665695      	75.663895      	75.265144      	75.73255       	75.16975       	76.16718       	76.0242        	74.98155       	75.91629       	74.895744      	75.80445       	75.87608       	75.204956      	75.75641       	76.182724      	72.51297       	73.45785       	74.36318       	74.60675       	75.52385       	75.361305      	75.25698       	76.41931       	
75.61415       	76.08254       	76.783554      	77.61657       	79.04967       	79.7151        	75.12581       	74.802315      	75.76927       	75.43107       	75.55945       	75.3301        	75.51733       	76.01047       	75.22414       	75.24494       	75.497765      	76.18544       	75.42558       	75.73618       	75.86777       	75.246414      	75.285194      	75.08076       	76.261406      	75.0097        	75.90075       	75.48642       	75.00832       	73.20309       	73.533325      	74.5065        	74.83065       	75.567696      	75.69063       	75.76127       	75.28258       	76.1573        	74.47366       	76.906876      	75.6807        	74.65693       	76.04391       	76.20777       	75.28519       	75.04532       	75.77349       	75.70895       	75.04178       	75.82704       	75.16358       	76.131805      	75.8162        	76.663574      	75.032455      	75.53302       	75.85249       	75.63104       	75.72045       	75.3671        	75.39325       	75.84367       	75.823875      	75.332146      	75.8524        	75.608154      	75.81647       	76.974365      	79.046776      	77.2551        	74.10822       	75.49274       	74.98428       	76.020836      	75.68367       	75.17409       	75.90623       	75.24918       	75.46058       	76.03305       	75.56985       	75.62321       	75.12493       	75.774254      	76.08761       	75.159645      	75.596825      	75.90648       	75.42396       	75.3723        	75.909904      	75.3362        	74.467766      	72.77647       	73.98395       	75.11269       	75.253494      	74.81546       	76.03445       	75.50915       	
75.415276      	75.57042       	76.61389       	78.34307       	78.6674        	79.41174       	76.1228        	75.04065       	75.11002       	75.44488       	76.21863       	74.58663       	75.573204      	75.76725       	75.58671       	75.35858       	75.83446       	75.953545      	75.59777       	74.87652       	75.44381       	75.370155      	76.032715      	74.93413       	76.038666      	75.96621       	76.25784       	74.14984       	75.8464        	72.1401        	73.79984       	74.911125      	75.066345      	75.22751       	75.19562       	76.109314      	75.61556       	75.71522       	74.18852       	76.45996       	75.15164       	75.56243       	75.73439       	76.4164        	74.4474        	75.07248       	75.909256      	74.63264       	74.009186      	75.68224       	76.23451       	76.568436      	77.092766      	74.56878       	74.980515      	75.6704        	75.53441       	75.53978       	76.23725       	74.78175       	75.850815      	75.73317       	75.241356      	75.446556      	75.80086       	75.15936       	75.42545       	77.06686       	78.821266      	78.55628       	74.96867       	75.93041       	75.441696      	75.17804       	75.37661       	76.095146      	74.79485       	75.90692       	76.28603       	74.83685       	75.55996       	75.52963       	76.55862       	74.554504      	76.00524       	75.37422       	75.57724       	75.69026       	75.81412       	75.98881       	75.13349       	75.03941       	75.304306      	72.35161       	75.07508       	75.07156       	75.25017       	74.297005      	75.49763       	76.10195       	
75.53232       	75.74381       	76.582146      	78.624725      	78.24832       	78.526245      	77.12468       	74.3318        	75.29736       	75.426994      	76.16055       	74.99809       	75.1975        	75.170265      	76.152626      	75.531166      	75.28024       	76.46854       	74.96397       	76.11214       	75.165695      	74.54502       	75.893974      	76.31061       	74.36931       	75.517105      	75.42194       	76.21282       	76.44579       	72.36781       	73.68111       	74.161514      	75.150536      	74.907684      	75.597595      	75.98334       	75.77967       	75.61217       	75.25502       	75.59779       	76.065544      	74.78614       	75.746506      	74.82574       	75.79973       	76.03136       	75.31597       	75.05394       	76.19687       	74.36717       	75.50215       	76.26821       	76.78076       	76.98899       	74.11524       	75.52296       	75.95321       	75.52882       	75.57012       	75.97423       	75.79409       	75.45523       	74.91297       	75.77021       	75.89128       	75.53765       	75.36829       	76.532326      	77.89986       	79.12795       	77.70269       	74.10311       	75.381226      	75.85964       	75.40121       	75.89727       	76.22346       	74.57352       	75.09525       	76.093475      	75.38956       	75.118675      	75.92292       	74.94085       	75.69824       	76.40198       	74.62188       	76.06107       	75.19345       	75.64909       	74.78826       	76.15503       	76.10552       	73.35263       	75.79374       	74.03216       	74.8978        	74.30325       	75.30163       	75.456825      	
75.779076      	76.07322       	76.24577       	77.39162       	77.22646       	77.48769       	76.766365      	74.69543       	75.034775      	75.86459       	75.50992       	75.32941       	75.99481       	75.28909       	75.39211       	75.387215      	76.33269       	74.397705      	76.36886       	75.00151       	76.1639        	77.080315      	74.064         	74.74702       	75.649506      	75.69288       	76.28485       	75.49342       	75.245316      	74.19187       	72.42542       	74.53063       	74.82179       	74.77583       	75.458885      	76.1557        	75.71378       	75.09264       	76.05212       	76.16081       	75.078445      	75.894875      	76.47112       	73.80598       	76.20931       	75.420685      	75.63135       	75.805466      	75.3898        	75.283806      	74.146965      	75.87958       	76.557236      	75.17288       	76.2496        	75.27284       	75.59241       	75.94732       	75.74297       	75.169716      	75.17297       	76.14327       	75.769775      	75.39566       	75.57001       	75.11699       	75.39269       	76.05229       	77.356445      	79.31748       	77.7924        	73.65542       	75.711266      	75.38115       	76.04486       	75.378845      	75.720215      	76.08276       	74.658195      	76.14836       	75.36034       	75.47677       	75.53199       	75.19271       	75.22834       	76.21738       	75.014534      	75.96375       	76.63564       	74.30352       	75.37187       	75.00483       	76.51395       	75.51974       	75.66531       	73.626045      	75.0641        	75.39647       	74.76548       	75.71208       	
75.57098       	75.917145      	75.8625        	76.89915       	75.970764      	78.17454       	79.669365      	74.61122       	75.295845      	75.425285      	75.29803       	76.11116       	75.625         	75.28738       	75.88233       	75.838005      	74.97574       	75.58452       	76.02797       	75.31655       	74.30113       	75.7891        	75.734695      	75.59118       	75.63143       	75.516754      	75.41235       	75.66769       	75.7605        	75.87292       	72.149826      	74.12418       	74.614006      	74.73043       	75.560486      	75.223434      	76.22561       	75.85826       	74.26344       	76.50639       	76.56242       	73.94774       	76.22888       	74.85258       	75.57954       	75.81374       	75.2226        	75.03644       	75.62954       	75.89822       	75.981064      	75.5403        	75.26641       	75.74623       	75.70228       	75.56117       	75.83694       	75.353065      	75.65489       	75.88069       	75.01422       	74.82256       	75.82038       	75.993576      	75.542404      	76.09203       	75.2622        	75.59786       	76.639946      	77.2919        	78.83374       	75.40386       	74.57531       	75.66116       	75.38596       	75.295         	75.81072       	75.7068        	75.711044      	75.03643       	75.72358       	75.87147       	75.07605       	75.3493        	75.64978       	76.07942       	75.76875       	75.70695       	75.893585      	74.93235       	76.729706      	74.533844      	75.16318       	75.44898       	75.787895      	75.480736      	74.84973       	75.17779       	75.06347       	76.0303        	
75.58658       	75.71819       	75.78487       	76.11723       	76.88965       	77.436745      	78.66904       	77.42244       	74.520065      	75.53479       	76.24159       	75.13223       	75.86448       	75.54068       	75.584404      	75.47946       	74.834625      	76.02584       	75.74252       	75.112625      	76.661194      	75.524216      	74.96876       	75.38565       	75.9922        	75.21375       	75.76992       	75.54759       	75.86144       	76.32954       	72.74135       	73.50969       	74.27053       	74.78359       	75.466125      	75.369446      	75.434555      	75.924324      	75.59462       	75.0622        	75.353294      	76.354095      	75.433205      	75.931465      	75.43108       	75.57139       	75.51936       	75.863594      	76.78995       	74.17947       	75.75644       	75.52741       	75.23812       	75.96557       	75.12567       	76.48103       	75.34593       	74.79971       	76.09513       	75.51057       	75.93162       	75.16784       	75.78585       	76.32323       	74.68751       	75.56673       	75.87308       	75.40089       	77.37693       	77.14025       	77.99441       	78.40174       	73.86492       	74.66503       	75.8814        	75.51137       	75.44379       	75.83973       	75.50175       	75.80991       	75.28576       	75.10207       	75.89654       	75.69456       	75.86986       	74.96998       	76.39135       	74.50388       	75.36262       	76.25036       	74.75002       	76.14915       	75.641785      	75.126495      	75.97374       	74.91329       	75.27797       	76.15738       	74.85972       	75.64308       	
75.439354      	75.9527        	75.823326      	75.651276      	76.93348       	77.22872       	80.04946       	78.00152       	73.488945      	75.21224       	75.51929       	76.108246      	74.955986      	75.74327       	75.201004      	75.65561       	75.449295      	75.57717       	76.51719       	74.33416       	75.40308       	76.222145      	75.02695       	75.3796        	76.11488       	74.97293       	75.76104       	75.08949       	76.24242       	76.10999       	73.825554      	72.814316      	74.15743       	74.285774      	75.497856      	75.56961       	75.34786       	75.57714       	75.205475      	75.50686       	75.62833       	75.91795       	75.50312       	75.6209        	75.375694      	75.69792       	75.623604      	75.99961       	76.397995      	74.39439       	74.481895      	75.851715      	75.91387       	75.253685      	75.78451       	75.41334       	75.53894       	75.78859       	75.14612       	75.710236      	75.92946       	75.02221       	75.536156      	75.081665      	75.75054       	75.86103       	75.7063        	76.49299       	75.32097       	77.38168       	79.234726      	77.618126      	74.51188       	75.64005       	75.18855       	75.4903        	76.14777       	75.619194      	75.63344       	75.605446      	75.65041       	75.363304      	75.336105      	76.09908       	74.82126       	75.051926      	76.03952       	75.93921       	75.58617       	74.82472       	74.88281       	76.8775        	75.13328       	74.15614       	76.61193       	75.27216       	75.28605       	75.5337        	75.516426      	76.01165       	
75.42833       	75.65832       	76.140144      	75.68871       	77.01141       	76.354645      	77.29763       	78.81119       	74.74164       	75.38682       	75.261635      	75.69283       	75.76765       	75.56554       	75.80608       	74.55683       	75.8844        	75.66793       	75.369095      	76.110374      	75.55977       	74.510475      	74.26875       	76.340454      	75.79916       	75.917564      	74.94104       	76.023674      	75.57749       	75.4123        	74.87088       	72.50161       	74.1616        	74.37918       	75.23141       	75.386665      	76.18407       	75.20696       	75.13327       	76.3907        	75.37844       	75.71337       	75.32281       	75.744545      	75.77897       	75.73785       	75.18278       	75.80941       	75.28988       	76.164215      	75.5035        	75.72676       	75.30614       	75.70809       	76.07003       	75.01768       	75.50392       	75.87968       	75.7187        	75.61259       	75.73395       	75.93405       	74.65989       	75.552345      	75.53564       	75.162544      	76.35333       	75.3908        	76.527466      	76.82044       	79.79981       	77.50784       	75.49599       	74.97733       	76.84187       	74.662346      	75.05149       	76.37919       	74.84187       	74.471214      	76.76821       	75.09891       	75.75293       	75.26551       	75.46203       	76.45466       	74.78151       	75.57485       	75.88405       	75.46579       	75.812294      	75.81844       	75.84002       	75.375626      	75.68557       	76.460396      	74.9827        	75.44484       	75.084694      	76.11081       	
75.57843       	75.982155      	75.60377       	75.581604      	77.11407       	76.86751       	77.68195       	78.167114      	76.09778       	74.895065      	75.56333       	76.098         	75.22302       	75.266685      	75.90735       	75.56382       	75.75101       	75.80189       	75.13659       	75.253876      	76.21268       	75.36572       	75.10017       	75.337685      	75.78882       	76.06742       	75.44095       	75.70254       	75.929565      	76.34839       	73.930374      	72.245705      	74.140144      	74.82222       	74.73048       	75.66641       	75.17369       	75.84177       	75.3307        	75.47403       	75.915825      	75.213326      	75.52258       	75.2761        	75.64959       	75.89415       	75.4422        	75.67705       	75.22013       	75.59315       	76.14476       	75.48068       	75.40773       	75.589874      	76.309845      	74.99211       	75.12535       	76.36858       	76.05423       	75.034584      	75.99828       	75.09528       	75.68049       	75.77007       	75.78974       	75.628136      	75.774704      	75.19178       	75.92653       	77.276146      	77.771965      	77.928215      	76.975586      	74.80143       	75.440636      	75.484955      	75.56762       	75.72121       	75.56241       	75.29561       	75.494194      	76.03659       	75.20913       	75.67623       	75.94565       	74.59939       	76.10335       	75.20366       	75.87847       	75.68634       	75.31363       	75.60765       	75.870094      	74.97804       	76.97381       	77.074905      	73.62388       	75.42892       	75.34882       	75.522675      	
75.78887       	75.873085      	76.14563       	75.40852       	76.05467       	77.35034       	76.86287       	78.377655      	77.89867       	74.402985      	75.30226       	75.32435       	75.36495       	75.59298       	75.30975       	75.68583       	75.82776       	75.68465       	75.30604       	75.07481       	75.92427       	75.84347       	75.05598       	75.87957       	75.88933       	75.48243       	75.2867        	75.47197       	76.17057       	75.41751       	75.38946       	72.7403        	74.16965       	74.01111       	74.68777       	75.33827       	75.89506       	75.30239       	75.31034       	76.456566      	75.30376       	75.6585        	75.87087       	75.62558       	75.656265      	75.394684      	76.37974       	75.52461       	75.36755       	76.01858       	75.47596       	75.03442       	75.60566       	75.92633       	75.84453       	75.465645      	75.4753        	75.67203       	75.7427        	75.63775       	75.89605       	75.76621       	75.2661        	75.46603       	76.13618       	75.328636      	76.375916      	76.45715       	75.78437       	75.212074      	74.081154      	78.17363       	80.39338       	74.12923       	75.048035      	75.58866       	75.460815      	75.44625       	75.4561        	75.61782       	75.36159       	75.582016      	75.66917       	75.63598       	75.38056       	75.24732       	76.33471       	75.39155       	75.36993       	75.75543       	75.87968       	75.30103       	74.817276      	75.79066       	76.52123       	76.73048       	74.24082       	75.68913       	75.042244      	75.79174       	
75.58233       	75.986336      	76.18809       	75.10669       	76.40333       	76.28513       	77.01943       	79.88482       	77.18508       	74.86282       	75.087074      	76.01044       	75.48776       	75.70776       	75.79309       	75.50259       	75.6854        	74.51816       	75.275826      	75.66686       	75.93046       	75.19799       	75.74257       	75.39515       	75.65948       	75.817154      	75.37081       	75.53844       	75.29947       	75.85123       	75.63875       	73.46827       	73.20685       	74.81511       	74.186874      	74.94945       	75.69189       	75.948456      	74.68962       	76.315796      	75.29752       	75.291534      	75.97132       	75.60347       	75.91845       	74.917175      	75.79413       	75.132385      	74.93757       	75.637024      	75.372795      	75.42405       	75.419754      	75.68674       	76.023315      	75.42817       	75.59734       	76.20862       	75.596924      	75.35821       	75.302055      	76.627144      	76.23937       	75.26557       	75.14912       	76.96135       	74.672745      	75.90024       	75.779305      	76.045906      	75.94076       	76.95376       	78.252525      	74.52019       	75.347664      	75.50409       	75.317375      	75.49986       	76.06583       	75.32636       	75.58839       	75.505745      	75.855896      	75.62503       	75.873276      	75.73192       	75.789536      	75.33053       	75.181244      	75.70033       	75.84208       	75.40902       	75.62032       	75.447014      	75.6956        	75.13512       	75.730934      	75.16817       	75.91929       	74.977394      	
75.49257       	75.73003       	76.27142       	75.92401       	75.63018       	77.49503       	77.172386      	76.71975       	78.260864      	74.2608        	75.28403       	75.47543       	75.47055       	75.48051       	75.67014       	75.95448       	75.4402        	75.76771       	75.335625      	75.79275       	75.55445       	75.48881       	75.392426      	75.53871       	75.763336      	75.686554      	75.21867       	75.502815      	75.81457       	76.10938       	74.75309       	73.75618       	73.339096      	74.4667        	74.67828       	75.0179        	75.327614      	75.62173       	75.3753        	75.72093       	75.912384      	75.4615        	75.80031       	75.62247       	74.75117       	75.4771        	75.973366      	75.53272       	75.54294       	75.98971       	75.912704      	75.22244       	75.60482       	76.062515      	75.581856      	75.68857       	76.24816       	75.296165      	75.556404      	75.713585      	74.93118       	76.717064      	76.46495       	76.51409       	76.1093        	75.634094      	75.59214       	75.90427       	75.98393       	75.78533       	76.332375      	77.49748       	75.57044       	75.17466       	75.101974      	75.78994       	75.60234       	75.66542       	75.4586        	75.28921       	75.680824      	75.785965      	75.46171       	75.61417       	75.76378       	75.27415       	75.59554       	76.37445       	75.40101       	75.645065      	76.10842       	75.36897       	75.630165      	75.27056       	75.67572       	76.56331       	75.333015      	75.43751       	75.59893       	75.61926       	
75.52472       	75.99419       	76.85105       	75.51914       	74.88193       	75.72468       	77.85622       	76.76253       	78.69301       	74.313736      	74.5295        	75.78903       	75.828545      	74.81778       	76.381546      	74.91782       	75.782074      	75.57697       	75.81529       	75.49804       	75.188896      	75.87777       	75.48085       	75.55379       	75.65574       	76.03953       	75.184784      	75.40383       	76.04677       	75.33375       	75.76686       	75.00106       	72.86128       	74.14774       	74.38388       	75.047676      	75.45091       	75.63196       	75.30842       	75.71899       	75.843414      	75.19597       	75.89258       	76.31441       	75.245026      	75.27615       	75.854126      	75.14019       	75.9494        	75.80386       	74.99463       	77.06578       	75.3369        	76.125435      	74.64798       	75.83127       	75.46366       	76.42358       	75.61179       	75.29059       	75.12715       	76.14592       	77.574066      	75.59771       	75.4653        	76.18243       	74.90811       	77.31224       	75.50744       	75.95895       	75.46681       	74.87008       	74.75032       	76.19318       	75.25183       	75.505035      	76.11498       	75.28425       	76.02861       	75.20447       	74.94291       	76.7014        	74.96703       	75.26955       	75.79285       	75.52906       	75.94022       	75.299164      	75.586136      	75.39763       	76.03572       	75.37846       	75.830215      	76.100334      	74.608536      	75.38579       	76.07356       	75.13348       	75.81937       	75.510735      	
75.697784      	75.99522       	75.901505      	75.64849       	75.02605       	75.930046      	76.90199       	78.07525       	77.89395       	78.14572       	74.506645      	75.487564      	75.75859       	75.96109       	75.14535       	75.1958        	75.93374       	75.69455       	75.38333       	75.30692       	75.96528       	75.33335       	75.595245      	75.526825      	75.565414      	75.84263       	76.00164       	74.7176        	75.289185      	75.720215      	75.64907       	75.35377       	72.52729       	73.76908       	74.5294        	74.89046       	75.431496      	75.59578       	75.67509       	75.6045        	75.600716      	75.65868       	75.46088       	75.32883       	76.01487       	75.816216      	75.988655      	76.09824       	74.67518       	76.23256       	77.579865      	75.83668       	74.75143       	75.99889       	75.84201       	74.26787       	76.62122       	75.8315        	76.26274       	75.690674      	75.75625       	75.69378       	75.77856       	77.041504      	76.47404       	74.41591       	75.03336       	76.20825       	75.45951       	75.812965      	75.86776       	74.627174      	75.505936      	75.78321       	75.61954       	75.65602       	76.12806       	74.48554       	75.79542       	75.18993       	75.65572       	75.97032       	75.42074       	75.626076      	75.59826       	75.97996       	74.87486       	75.785324      	75.40693       	75.58196       	75.671234      	75.51288       	75.83234       	75.44995       	75.31105       	76.005974      	75.553955      	75.86553       	75.33164       	75.54697       	
75.5382        	75.86654       	76.14563       	75.78418       	75.60495       	76.34641       	77.012924      	77.51202       	78.227615      	77.92712       	74.80148       	75.00229       	74.906586      	76.10274       	75.358086      	75.39029       	75.64204       	75.66031       	75.93983       	75.471176      	75.23833       	76.07896       	75.78184       	74.84267       	75.46723       	75.63781       	75.55956       	75.69671       	75.60223       	75.947426      	75.3792        	75.59          	73.25831       	73.68455       	74.56764       	74.36634       	75.35165       	75.69785       	75.251015      	75.82588       	75.90177       	75.64698       	76.03729       	76.11314       	74.71185       	76.15124       	77.52329       	75.61971       	75.83273       	75.35686       	75.52894       	76.13047       	75.647224      	76.26648       	75.43363       	75.410866      	76.57984       	75.10349       	76.459114      	75.29615       	76.04909       	75.80622       	74.848434      	75.22116       	75.7329        	75.161316      	75.024         	76.22187       	75.2917        	75.64296       	75.52578       	75.894844      	75.563225      	75.81521       	75.315285      	75.47247       	76.07397       	75.216225      	75.34662       	75.76293       	75.95578       	75.12928       	75.310036      	75.931366      	75.26974       	75.34567       	76.04574       	75.59795       	75.15707       	75.83972       	75.254         	75.47916       	75.745155      	75.82216       	75.65624       	74.6316        	76.16932       	75.64087       	75.598206      	75.047226      	
75.620186      	75.85463       	75.82445       	75.5324        	75.69848       	75.67983       	76.99613       	77.09583       	79.24786       	77.66997       	74.41235       	75.585396      	75.063805      	75.752556      	75.510506      	75.38143       	74.81224       	75.977165      	75.92438       	74.82571       	75.61587       	75.76274       	76.057076      	74.99801       	75.839645      	75.37928       	75.70985       	75.44532       	75.99565       	75.47673       	75.78463       	75.13862       	75.193275      	72.82622       	74.07724       	75.0047        	75.063095      	75.331795      	75.25207       	75.945786      	76.60392       	75.36699       	76.332085      	76.36691       	75.23268       	76.05557       	76.671196      	75.45565       	75.34801       	76.27786       	76.08003       	76.19764       	75.49628       	76.19635       	75.73314       	73.997734      	77.8143        	75.913475      	74.92287       	74.97395       	75.0956        	76.10954       	75.19138       	75.8807        	75.25491       	76.263245      	75.17453       	75.466805      	75.32016       	75.59425       	75.77859       	75.82879       	75.61021       	75.50959       	75.64328       	75.78969       	75.50315       	75.56677       	75.6912        	75.41093       	76.06413       	75.72545       	75.103966      	76.49531       	74.89194       	75.27372       	75.43696       	75.86771       	75.98276       	76.00378       	74.77864       	75.987144      	76.45471       	74.376396      	75.585304      	75.23017       	75.70553       	75.91539       	75.64673       	75.28798       	
75.56322       	75.872246      	76.397285      	75.98229       	75.44777       	75.011055      	76.2791        	77.819115      	76.27252       	78.24048       	74.27521       	75.20799       	75.1941        	75.68514       	75.91935       	75.494415      	75.44615       	76.18979       	75.40894       	74.90185       	75.83602       	75.96036       	75.634636      	75.198875      	75.41764       	75.7388        	75.10861       	75.433205      	75.85047       	75.20013       	76.1458        	75.841644      	75.07067       	73.58458       	74.7018        	75.4973        	74.57131       	74.7277        	75.350815      	75.93047       	75.61259       	76.34019       	77.079155      	76.01431       	75.63884       	75.06818       	76.57933       	76.49792       	76.22835       	75.42708       	76.93578       	76.94647       	74.39101       	75.21642       	75.50603       	75.37805       	75.494545      	75.5872        	75.78258       	76.38284       	74.69768       	75.83742       	75.897125      	75.0837        	75.21545       	75.73474       	75.52116       	75.77348       	75.644165      	75.2933        	75.64682       	76.069336      	75.5742        	76.7636        	74.36404       	76.59368       	73.6066        	75.73245       	76.2583        	75.298         	75.02323       	76.184006      	75.63121       	75.66315       	74.95072       	75.75665       	75.48912       	75.83135       	75.80487       	75.146675      	75.89096       	75.40501       	75.308876      	75.91909       	75.65296       	75.61717       	75.41945       	76.158066      	75.11747       	76.01393       	
75.67713       	76.078         	75.817856      	75.57223       	75.61554       	76.016235      	75.70455       	77.2783        	76.539894      	79.744225      	76.089836      	74.95839       	75.25          	75.470184      	75.74884       	75.505356      	75.76911       	75.70445       	76.10327       	74.62018       	75.6906        	75.66602       	75.6871        	75.37578       	74.27463       	75.95946       	75.56952       	75.6713        	75.21281       	75.501495      	75.97693       	75.20935       	75.42752       	75.98198       	74.55139       	73.79745       	74.684006      	75.67738       	74.398796      	76.35681       	76.11467       	76.96261       	75.3723        	76.028175      	75.50745       	76.470795      	76.17417       	76.65972       	75.37728       	74.56553       	75.73281       	75.43038       	75.11435       	76.15565       	75.66659       	75.40476       	75.11776       	76.48858       	75.18227       	75.315895      	75.73887       	75.6018        	75.17306       	75.7756        	75.748726      	75.42924       	75.812         	75.76571       	75.562836      	75.70927       	75.36608       	75.92822       	76.29974       	75.305824      	74.12916       	76.58151       	76.31458       	74.793         	75.7075        	75.8889        	75.398186      	75.86752       	75.506004      	75.975784      	75.57103       	75.46038       	75.66102       	75.376015      	75.82425       	75.705086      	74.820564      	76.182304      	75.34823       	75.67635       	75.40079       	75.13647       	75.55507       	75.89809       	75.430084      	75.83806       	
75.829216      	75.74185       	75.96556       	75.63817       	75.79988       	75.485435      	75.71779       	75.5737        	77.932106      	78.3641        	78.59819       	74.15594       	75.153656      	75.785         	75.60069       	75.61284       	75.373955      	75.85245       	75.23069       	75.516426      	75.722855      	75.85925       	74.98261       	75.77443       	75.12845       	76.4926        	75.03737       	75.4125        	75.62283       	75.89148       	75.53411       	75.5294        	75.42109       	75.86655       	75.01825       	75.29365       	73.8876        	76.23091       	74.77927       	76.55252       	76.273476      	76.25969       	75.916756      	75.21388       	77.23282       	74.3842        	74.97118       	75.36845       	75.8769        	75.61692       	75.385414      	75.69538       	75.63197       	75.518005      	75.78559       	75.87112       	75.74004       	75.478806      	75.246796      	75.22997       	75.87447       	76.01798       	75.45183       	75.4708        	75.557205      	75.80456       	75.95335       	75.06816       	75.741554      	76.310455      	75.1794        	75.01601       	75.98261       	75.46163       	75.59081       	75.157265      	76.29224       	75.820045      	74.870834      	75.698105      	75.44481       	75.479324      	76.466805      	75.07338       	75.64277       	74.97701       	75.852         	75.88645       	74.86295       	75.59655       	75.13345       	75.94697       	74.661545      	75.4306        	75.886154      	75.06629       	76.01351       	75.89343       	75.48888       	75.09434       	
75.80401       	75.78179       	75.85087       	75.61746       	75.7058        	76.6051        	74.81371       	75.69576       	77.42262       	78.099396      	77.19839       	76.17882       	75.229675      	75.61172       	75.42125       	76.04128       	75.04929       	75.620026      	75.99265       	75.24361       	75.58502       	75.51951       	75.897385      	75.48139       	75.56317       	75.96578       	74.96181       	75.55947       	75.70888       	76.01463       	75.714066      	75.09254       	75.8258        	75.75331       	75.28396       	75.93628       	75.45213       	76.044914      	74.64126       	76.19866       	75.14437       	74.469765      	75.13131       	76.53097       	75.11365       	75.735855      	75.9091        	75.4879        	75.60844       	75.69599       	75.27558       	75.953865      	75.71751       	75.419556      	75.67963       	75.69367       	75.80833       	74.99145       	75.85687       	75.614876      	75.47036       	75.85297       	76.02054       	75.01272       	76.000916      	75.579124      	75.68024       	75.31242       	75.922165      	75.15488       	76.07305       	74.130516      	76.32177       	75.97688       	75.70113       	75.61674       	75.71464       	76.0544        	75.482925      	75.24965       	75.704216      	75.97425       	75.33952       	75.35185       	76.139206      	74.929375      	76.966095      	74.49156       	75.3656        	75.82529       	75.37627       	75.85809       	75.81532       	75.92052       	75.28159       	75.05218       	76.12482       	76.481804      	74.73076       	75.61122       	
75.59219       	76.028114      	76.02893       	75.7073        	75.60946       	76.05299       	75.54125       	75.94232       	77.195496      	77.03743       	78.71545       	77.56737       	74.01293       	75.3941        	75.614         	75.55699       	75.90449       	75.47033       	75.67724       	75.37278       	75.59144       	75.73218       	75.75304       	75.45581       	75.83492       	75.1186        	75.307976      	76.27324       	75.14902       	75.51925       	75.73636       	75.937325      	75.686386      	75.176125      	75.22719       	75.936386      	75.09711       	75.34359       	75.64523       	75.60245       	75.698326      	75.709915      	75.541         	75.69652       	75.45287       	75.76705       	75.84321       	75.65421       	75.56506       	75.68914       	74.67305       	75.76424       	75.70588       	75.55791       	75.336365      	75.96502       	75.37667       	75.799126      	75.71532       	75.696846      	75.55186       	75.39359       	75.93195       	75.71666       	75.61178       	75.57621       	75.54349       	75.32395       	75.83114       	75.583496      	75.56852       	75.48687       	75.70232       	75.91003       	75.580925      	75.91463       	75.511894      	75.83114       	75.19948       	75.950066      	75.6594        	75.50503       	75.55213       	75.51418       	76.03476       	75.53667       	75.8167        	75.15345       	75.89923       	75.40325       	75.04231       	75.92101       	75.811         	75.86039       	75.238335      	75.517715      	75.53542       	75.821884      	75.57954       	75.69051       	
75.62752       	75.794556      	75.77022       	75.82881       	75.58091       	76.27757       	74.94515       	76.1265        	76.880775      	77.9007        	77.792656      	77.80712       	74.74722       	75.83478       	75.93519       	74.73529       	75.74301       	75.70133       	75.14566       	76.37243       	74.527664      	75.33411       	75.7271        	75.80876       	75.64926       	75.576035      	75.94478       	75.36485       	75.74922       	75.97351       	75.05659       	75.852615      	75.498535      	75.39587       	75.845634      	75.46757       	75.70579       	75.42281       	75.42647       	76.038864      	75.14937       	75.8479        	75.95979       	75.08633       	75.735565      	75.70754       	75.266846      	75.62248       	75.263374      	75.81384       	75.51933       	75.6809        	75.91863       	75.78086       	75.40066       	75.414085      	75.86819       	75.90171       	75.420204      	75.61055       	75.64066       	75.39701       	75.442635      	76.350235      	75.12008       	75.525505      	75.95168       	75.14989       	75.95818       	75.25196       	75.59643       	75.59205       	75.632614      	76.37236       	75.438774      	75.55376       	76.23205       	75.2741        	75.40463       	75.66837       	76.27185       	74.94428       	75.47637       	75.70903       	75.77829       	75.663734      	75.79754       	75.27341       	75.85642       	75.83139       	75.04777       	75.979935      	75.62026       	75.92065       	75.36283       	75.730675      	75.6469        	75.64918       	75.58552       	75.55184       	
75.60397       	75.998055      	76.01776       	75.53762       	75.92586       	75.56692       	76.78212       	74.992546      	75.97725       	77.65851       	78.680565      	77.3109        	75.80621       	75.49621       	75.32989       	75.66011       	75.27496       	75.885544      	75.15328       	75.62084       	75.97016       	75.3361        	75.2647        	75.76443       	75.381744      	75.912865      	75.60695       	75.83301       	75.39302       	75.2388        	76.10314       	75.75004       	75.22943       	75.40216       	75.67812       	76.7802        	74.60483       	75.58132       	75.499695      	75.714935      	74.972404      	75.539635      	75.31642       	75.92858       	75.16567       	75.47081       	75.641174      	75.94425       	75.37975       	75.959335      	75.374275      	75.71096       	75.63392       	75.54338       	75.47073       	75.74071       	75.65856       	75.80759       	75.53594       	75.15466       	75.86385       	75.633026      	75.506744      	75.66964       	75.3375        	75.85497       	75.60235       	75.118835      	76.69575       	75.2614        	75.81026       	75.23956       	75.17867       	76.61139       	76.13519       	74.796394      	75.56737       	75.61214       	76.08819       	75.36621       	75.7555        	75.50217       	75.77483       	75.50453       	75.416985      	76.28655       	74.56711       	75.83771       	75.94473       	75.558655      	75.35074       	76.04734       	75.479065      	75.71583       	75.79505       	76.03515       	74.629166      	75.80322       	75.3965        	75.61424       	
75.76513       	75.81273       	76.646545      	77.40353       	75.49786       	76.2183        	76.6255        	75.21182       	75.19257       	76.3131        	78.28975       	77.86739       	76.06772       	75.00848       	75.323616      	75.47395       	75.58871       	75.51851       	75.64712       	75.54925       	75.452446      	75.614334      	75.551765      	75.59487       	75.79578       	75.3229        	76.13053       	75.42073       	75.52764       	75.350876      	75.78253       	75.44596       	75.71151       	75.69111       	75.732864      	75.40305       	75.79683       	75.590065      	75.227776      	75.55213       	75.84523       	76.280396      	75.82262       	75.03537       	75.65408       	75.80303       	75.177086      	75.596344      	75.62258       	75.19046       	75.589066      	75.45436       	75.64005       	76.08931       	75.28721       	75.801506      	75.55574       	75.29028       	75.84225       	75.91094       	75.43672       	75.16192       	76.28333       	75.53452       	75.42374       	75.80061       	75.57564       	76.07426       	75.04435       	75.835945      	76.53274       	74.86603       	75.7551        	76.20227       	75.5122        	75.69416       	75.32802       	74.988716      	75.85035       	75.54319       	75.61645       	76.05308       	75.01799       	76.00341       	75.61312       	75.77021       	75.33558       	76.22364       	75.388664      	75.585175      	74.96857       	76.16723       	75.28739       	75.42235       	75.84299       	75.739815      	75.65282       	75.34384       	74.93797       	76.06632       	
75.37614       	76.51777       	75.964584      	75.24006       	75.259895      	76.24733       	75.55792       	74.420975      	76.03169       	75.90642       	76.66724       	78.7899        	76.20059       	75.3712        	75.42151       	75.44031       	75.63454       	75.4645        	75.56009       	75.5259        	75.71387       	75.78263       	75.301636      	75.77915       	75.358795      	75.54047       	75.706696      	76.20231       	75.4774        	75.420044      	75.49527       	75.88719       	75.55406       	75.7282        	75.43758       	75.85705       	75.41532       	75.49874       	75.39522       	75.7592        	76.352486      	75.57763       	75.29338       	76.1762        	75.00273       	75.45957       	75.90255       	75.525566      	75.58785       	75.74265       	75.5399        	75.77765       	75.827156      	75.07772       	76.0277        	75.72418       	75.59654       	75.65765       	75.34185       	75.89263       	75.86372       	75.22221       	76.120186      	74.989006      	75.64883       	75.437836      	75.62504       	76.36623       	75.173         	75.05386       	76.2487        	75.44898       	76.08966       	75.00891       	75.67214       	75.54561       	75.51464       	76.18013       	75.27006       	75.863594      	75.44702       	75.40477       	75.3529        	76.09195       	75.301216      	75.8849        	75.577644      	75.547874      	75.71504       	75.450424      	75.71094       	75.04938       	75.758026      	75.71671       	75.99808       	75.15108       	76.13444       	75.521454      	75.27415       	75.9359        	
75.57637       	75.769196      	76.42886       	76.57639       	75.88347       	75.93005       	76.75546       	75.79507       	75.28988       	75.67401       	76.990875      	78.64258       	74.14285       	75.29977       	75.29447       	76.027145      	75.72539       	75.73195       	76.01664       	75.070015      	75.18224       	76.135345      	75.33447       	75.71454       	75.25083       	75.74007       	75.65554       	75.722565      	76.07426       	75.59213       	75.550255      	75.40019       	75.313675      	75.520744      	75.87185       	75.96323       	75.09762       	75.77766       	75.54998       	75.89523       	74.167595      	76.32002       	75.9226        	75.39189       	75.8           	75.686554      	75.496765      	75.69681       	75.35277       	75.97741       	75.34404       	75.44794       	75.27368       	76.09503       	75.4489        	75.372734      	75.75179       	75.61068       	76.07123       	75.701904      	75.42116       	75.59823       	75.362755      	75.232346      	76.30966       	75.160164      	74.861404      	76.08554       	75.69671       	76.723625      	74.29047       	75.785324      	76.09082       	75.411         	75.7053        	75.43627       	76.27492       	75.12943       	76.01206       	75.42791       	75.465385      	75.130585      	76.30005       	74.405945      	75.81204       	75.82682       	75.2205        	75.913124      	75.645         	75.94993       	75.62553       	75.360016      	75.62969       	75.59789       	75.556145      	75.23413       	75.778496      	75.74665       	75.2519        	75.54505       	
75.958084      	75.81093       	76.79813       	76.5574        	76.41432       	76.03732       	75.926735      	76.19637       	76.6719        	76.90392       	74.613625      	75.150856      	75.52046       	75.237495      	75.63108       	76.026184      	75.300545      	75.946686      	75.38823       	75.66721       	75.329475      	75.942825      	75.11116       	75.79026       	75.547005      	75.75118       	75.497986      	75.270874      	76.16137       	75.17133       	76.12303       	75.30676       	75.46466       	76.163864      	75.03866       	75.82986       	75.53105       	75.262375      	75.83158       	75.73634       	75.18504       	75.83309       	75.55427       	75.462585      	76.92298       	74.46681       	75.636185      	75.719376      	75.08305       	75.78719       	75.72541       	75.64713       	75.38847       	75.61377       	75.57205       	76.12322       	75.33562       	75.4551        	75.687386      	75.84234       	75.51291       	75.87062       	75.37438       	75.59482       	75.43382       	75.92472       	75.50241       	75.07862       	75.63068       	75.17494       	76.0805        	75.66374       	75.08681       	76.058205      	75.78179       	75.27794       	75.584435      	75.69714       	75.65144       	76.0318        	74.989456      	75.84763       	75.39986       	75.72253       	75.73972       	75.77847       	75.772644      	75.23863       	75.4807        	75.69154       	75.80471       	75.17049       	75.96165       	75.59084       	74.78089       	75.743385      	75.49588       	75.65815       	74.97831       	76.29522       	
75.79185       	76.21406       	75.97841       	76.05456       	77.39645       	76.08582       	75.28488       	75.963295      	75.25999       	75.917496      	75.62401       	75.883606      	75.33798       	75.54814       	75.52631       	75.02888       	75.520035      	75.78008       	75.96251       	74.99933       	75.46241       	76.26706       	75.23979       	75.378685      	75.63463       	75.26229       	75.48662       	76.63443       	74.506195      	75.923515      	75.41396       	75.57403       	75.77355       	74.970375      	75.5199        	76.18761       	75.367226      	75.72952       	75.632904      	75.65335       	75.33791       	75.78271       	75.62054       	75.91999       	74.957726      	75.78673       	75.83552       	75.755684      	75.0405        	76.24908       	75.05387       	75.89366       	75.41921       	75.7584        	75.917435      	74.80666       	75.70229       	75.65676       	75.8701        	75.25242       	75.7754        	75.269775      	76.54503       	75.70864       	74.84267       	75.83417       	75.6962        	75.36447       	76.11747       	75.21208       	75.76445       	75.93161       	75.703926      	75.71525       	75.170135      	75.177895      	76.14999       	75.496475      	75.59936       	75.56946       	76.36944       	75.07333       	75.38626       	76.2522        	75.023674      	75.492744      	75.24364       	76.024666      	75.711266      	75.32491       	75.78354       	75.50208       	75.5661        	75.77717       	75.52994       	75.526505      	76.256134      	74.99652       	75.8922        	75.49147       	
76.1098        	76.9557        	75.90142       	74.69387       	75.49437       	75.50751       	75.58953       	75.76909       	75.35562       	75.73675       	75.905266      	75.701485      	75.45367       	75.53742       	75.17397       	75.690674      	75.59598       	75.40411       	75.95076       	75.783035      	75.76291       	75.540085      	75.02459       	75.76983       	75.809364      	75.35307       	76.21894       	74.65591       	75.37727       	75.852135      	75.76806       	75.251465      	75.53487       	75.575455      	76.28836       	75.34419       	75.03345       	76.03521       	75.63136       	75.27674       	75.8725        	75.60451       	75.428         	75.79595       	75.20061       	75.70864       	75.56995       	75.49639       	75.51641       	76.140205      	74.7126        	76.26532       	76.28903       	74.66713       	75.60821       	75.8272        	75.34121       	75.81519       	75.38309       	75.800545      	75.60052       	76.013115      	75.458855      	74.90531       	75.84471       	75.482086      	76.56217       	75.09812       	75.163956      	76.50736       	75.1911        	75.195915      	76.23963       	74.72764       	76.29072       	75.64962       	75.584694      	75.15024       	75.95125       	75.51053       	76.09677       	75.49262       	75.436356      	75.528946      	75.83759       	75.438225      	75.71156       	76.192635      	75.47744       	75.63973       	75.792         	75.19419       	76.000984      	75.53695       	75.18629       	75.832245      	75.567474      	75.84506       	74.92824       	75.22462       	
75.27434       	75.74808       	75.777596      	75.31064       	76.18659       	76.2382        	74.58181       	76.860054      	74.03009       	76.43514       	75.04267       	76.20296       	75.59862       	75.71152       	75.59584       	75.913284      	75.35625       	76.10704       	75.188835      	75.841965      	74.937805      	75.74178       	75.82434       	74.920044      	76.15943       	75.414406      	75.49107       	75.69225       	75.75914       	75.48795       	75.86398       	75.20804       	75.76821       	75.39823       	75.74304       	75.559235      	76.303795      	74.83578       	75.63034       	75.88601       	75.125786      	75.58289       	75.701454      	75.92046       	75.58684       	75.69867       	76.06184       	75.301956      	75.462006      	75.73376       	75.65371       	75.55539       	75.63883       	75.45354       	75.65215       	76.22064       	75.11024       	76.00755       	75.9951        	75.22497       	75.92501       	75.19847       	75.60682       	75.69282       	75.10005       	75.84122       	76.08839       	74.818245      	75.83972       	75.68732       	75.25504       	75.88991       	75.25644       	75.41174       	76.62467       	74.63755       	75.810135      	75.7405        	74.91038       	75.63538       	75.12511       	75.75507       	75.47468       	75.50121       	76.04704       	75.61933       	75.439865      	75.769005      	75.814095      	75.43195       	75.31361       	75.78032       	75.834335      	75.37397       	75.15934       	75.84115       	75.45291       	75.79604       	75.426254      	75.80968       	
75.56446       	75.5887        	76.01785       	76.915794      	76.15207       	75.00298       	75.54666       	74.89703       	75.579         	75.56865       	75.5344        	76.133804      	75.627014      	74.908424      	75.89108       	75.662224      	75.26645       	76.23082       	75.18672       	75.714836      	75.783585      	75.60043       	75.28408       	75.41913       	76.09952       	74.936935      	75.660225      	75.597206      	75.74439       	75.01121       	75.8801        	76.5317        	74.67347       	76.253075      	74.70117       	75.942314      	75.96355       	75.41504       	75.74676       	75.268974      	75.43108       	75.58392       	75.877205      	75.30783       	75.18652       	75.984085      	75.50732       	74.82312       	77.46788       	74.90079       	75.04276       	76.26502       	74.85654       	75.75012       	75.66393       	75.49144       	75.64597       	75.531845      	75.87124       	75.540695      	75.73502       	75.64274       	75.333916      	75.77059       	75.76188       	75.482086      	75.50786       	76.06781       	75.26181       	74.98384       	75.72073       	76.399185      	74.789894      	75.764015      	75.72995       	75.98965       	76.056274      	74.95519       	75.994316      	75.48475       	75.30981       	75.66116       	76.021904      	75.356995      	75.056725      	75.92345       	76.113365      	75.19386       	75.50151       	75.24383       	76.03258       	74.99729       	75.46917       	76.21165       	75.23573       	75.58762       	75.75889       	75.45236       	75.78171       	75.00747       	
75.86956       	75.83559       	75.63047       	76.57441       	76.025444      	76.368286      	74.42816       	75.25133       	76.11869       	75.65826       	75.72351       	75.437485      	75.51293       	75.785774      	75.44966       	75.310165      	75.54217       	75.53316       	75.84634       	75.35438       	75.935326      	75.586716      	75.2286        	75.64862       	75.739456      	76.27175       	75.053246      	75.03433       	75.65287       	75.902596      	75.65882       	75.70852       	75.661545      	75.84544       	75.35305       	75.73579       	75.66483       	75.31612       	75.57074       	75.67482       	75.377266      	75.12134       	76.0567        	75.30739       	75.658875      	76.27736       	74.498215      	75.98283       	76.207214      	76.43083       	74.82034       	75.21999       	75.90853       	76.04512       	75.255104      	75.396805      	75.20019       	75.770485      	76.07506       	75.07373       	75.70494       	75.967186      	75.80439       	75.47061       	75.85956       	75.77589       	75.33938       	75.71382       	75.67712       	75.39416       	75.59987       	75.4358        	75.52873       	75.93118       	76.07686       	75.43753       	75.99157       	75.71797       	75.3122        	75.2552        	76.14351       	75.439705      	75.075645      	76.00296       	74.513885      	75.52726       	75.9427        	75.317345      	75.3411        	75.098656      	75.897736      	75.931854      	75.34782       	75.55095       	75.611084      	75.89568       	74.78762       	76.127         	75.456894      	75.41115       	
75.647026      	75.97045       	76.08135       	76.86195       	75.49702       	75.77633       	75.03032       	75.72215       	75.93102       	74.8952        	74.95799       	75.93511       	76.01763       	75.50118       	75.66732       	75.86488       	75.69774       	74.74773       	75.310036      	76.12262       	74.88665       	75.42034       	75.99681       	75.49913       	75.28678       	75.34983       	76.29768       	75.72106       	75.508316      	75.25087       	75.73339       	75.330826      	75.91498       	75.6806        	75.160706      	75.81511       	75.64294       	75.76945       	75.89594       	75.03718       	75.8576        	75.87439       	75.09758       	75.618706      	75.20408       	75.46005       	75.76491       	74.6559        	76.51742       	75.367935      	74.46874       	75.45603       	76.329956      	75.37465       	75.49961       	76.14919       	75.28696       	75.49275       	75.78223       	75.70216       	75.80458       	75.67774       	75.26093       	75.959816      	75.60632       	75.85305       	75.858574      	74.98309       	75.859116      	75.42369       	75.52821       	75.77659       	75.23411       	75.521034      	76.03428       	75.112656      	75.84374       	76.10917       	75.36189       	75.20378       	75.52778       	76.0153        	75.35927       	76.20613       	75.15308       	75.774506      	75.146706      	75.766174      	76.01782       	74.72406       	75.09086       	76.04989       	75.56332       	75.24093       	75.94369       	75.80225       	75.83666       	75.275505      	75.94709       	75.576454      	
75.26717       	76.121376      	75.79945       	75.776535      	75.89749       	75.71592       	75.98856       	75.65423       	76.003395      	74.95286       	75.44073       	75.691505      	75.657196      	75.98907       	74.9881        	75.84413       	75.499855      	75.80148       	75.30663       	75.89801       	75.25133       	75.52162       	76.08929       	75.32112       	75.75477       	76.43102       	74.13546       	76.0477        	75.571434      	75.53345       	75.603775      	75.2456        	75.97094       	75.43398       	76.10877       	75.31157       	75.6056        	75.26673       	75.81911       	75.63964       	75.54845       	75.69446       	75.186195      	75.78799       	75.92155       	75.40716       	76.196434      	75.30101       	75.25441       	75.77324       	75.61002       	75.634926      	75.63742       	76.00538       	75.118774      	75.951126      	75.757126      	75.39265       	75.98572       	75.334045      	75.71602       	75.76522       	75.084045      	76.95703       	74.143936      	76.21379       	75.29612       	75.5098        	75.467285      	75.83409       	75.38691       	75.81934       	75.687515      	75.25298       	75.79294       	75.58555       	75.82551       	75.93089       	75.20768       	75.40723       	75.456505      	75.87794       	75.60786       	75.70544       	75.50257       	75.81542       	75.55507       	75.98423       	75.65884       	75.33228       	75.49401       	75.48171       	75.4061        	75.4113        	75.79964       	75.47243       	75.86672       	75.62788       	75.99397       	75.474815      	
75.59641       	75.43746       	75.383575      	76.503075      	75.956245      	75.03805       	75.05716       	75.810936      	74.723976      	75.88093       	75.56268       	75.13625       	76.08449       	75.550316      	75.58874       	76.41925       	75.076805      	75.36757       	75.842125      	75.61147       	75.70947       	75.42752       	75.90918       	75.61412       	75.84239       	75.46927       	75.26116       	75.56333       	75.499146      	75.56203       	75.74022       	76.145096      	75.67987       	74.95866       	75.78561       	75.65275       	75.45564       	75.406166      	75.98426       	75.65266       	75.49258       	75.17055       	75.399796      	75.86378       	75.46145       	75.390976      	75.49449       	75.726845      	75.94337       	75.48101       	75.28792       	75.55195       	75.72451       	75.48907       	75.542305      	75.705666      	75.541145      	75.459         	75.736         	75.346436      	75.81206       	75.67765       	75.61341       	75.53889       	76.129364      	75.17752       	75.65032       	75.71216       	75.4738        	75.541824      	75.40654       	76.22406       	75.56729       	75.46261       	75.75804       	76.08377       	76.44385       	74.6612        	75.473946      	75.42825       	75.019775      	75.98491       	76.01206       	74.70886       	75.40185       	76.12194       	75.254074      	75.91181       	75.5682        	75.46134       	75.79409       	75.5613        	75.659386      	75.90939       	75.17422       	76.07366       	74.49574       	74.34955       	76.17812       	75.22349       	
75.568954      	75.58416       	76.026985      	76.37818       	75.74689       	75.312256      	75.05856       	75.97038       	75.18553       	75.48551       	75.91662       	75.58088       	75.875946      	75.78467       	75.55006       	75.36672       	75.71424       	75.86492       	75.62212       	75.40822       	75.43046       	75.63937       	75.56372       	75.45784       	75.8535        	75.31415       	75.53414       	75.842094      	75.580734      	75.51258       	75.75226       	75.97313       	75.44409       	75.75918       	75.457634      	75.57573       	75.65008       	76.09926       	75.416504      	75.22806       	75.53091       	75.73433       	75.1075        	75.05901       	75.89327       	75.84684       	75.3246        	75.16017       	75.55628       	75.68899       	75.756935      	75.38361       	75.45887       	75.96477       	75.36898       	75.38115       	75.768166      	76.34469       	75.03061       	75.15659       	76.284         	75.42068       	75.8176        	75.087         	75.7488        	76.38788       	74.99609       	76.244225      	75.393105      	75.83538       	75.46928       	75.572495      	75.57918       	75.66715       	75.87631       	74.94214       	76.9228        	75.40684       	74.900665      	76.056366      	75.572014      	75.99723       	75.293175      	75.376335      	75.62452       	75.97729       	74.979294      	76.471054      	75.24718       	75.32716       	75.78536       	75.78682       	76.192024      	74.89258       	75.47798       	75.82809       	74.70763       	75.66085       	75.89236       	75.34652       	
75.72941       	75.651855      	75.82163       	75.49021       	75.73355       	75.961586      	75.98128       	75.817635      	75.48749       	75.20265       	75.83788       	75.79272       	75.2667        	76.045166      	75.399414      	75.47567       	75.729805      	75.501015      	74.993675      	76.15091       	75.67647       	75.633255      	75.154396      	75.63674       	75.86427       	75.73807       	74.94363       	76.08781       	76.34576       	74.4365        	75.77153       	75.665245      	76.2755        	75.18596       	75.43133       	75.80115       	75.32731       	75.82146       	75.414024      	75.885216      	75.23296       	75.22256       	75.83193       	75.52835       	76.15724       	75.322365      	75.81084       	75.84789       	74.9851        	76.217636      	75.08052       	76.22795       	76.0971        	74.69726       	75.83527       	75.52478       	75.770355      	75.54398       	75.54653       	75.93427       	75.31118       	76.30073       	74.896095      	75.91395       	75.57666       	75.91502       	75.172966      	76.054436      	75.25115       	75.61654       	75.56763       	75.293304      	74.15367       	74.90574       	75.01691       	76.029816      	76.09811       	77.87757       	73.69817       	75.721855      	74.85302       	75.240234      	75.48637       	75.65465       	75.86536       	76.20199       	75.183205      	75.782486      	75.53088       	75.59055       	75.622025      	76.03706       	74.92537       	74.76316       	75.90088       	76.241455      	74.81442       	75.88252       	75.49887       	75.5797        	
75.86347       	75.808754      	75.710655      	75.61883       	75.89824       	75.12688       	75.70042       	75.63641       	75.52524       	75.50543       	75.77882       	75.74582       	75.668816      	75.954575      	75.1788        	76.54775       	74.97271       	76.16549       	75.30341       	76.44512       	74.89315       	75.2504        	75.58333       	76.02737       	75.406425      	75.81537       	74.965515      	75.86593       	75.34152       	75.54908       	75.985374      	75.30456       	74.8717        	75.544556      	76.00188       	75.44399       	75.818054      	76.103004      	75.395454      	76.019135      	74.593475      	75.234406      	75.42544       	75.83196       	75.47864       	75.75513       	75.84004       	75.98937       	74.768585      	76.11321       	75.42611       	75.848755      	75.25867       	75.53039       	75.74803       	75.342064      	76.094215      	75.27865       	75.8527        	75.810394      	74.8352        	75.933586      	75.85006       	74.9887        	75.879616      	75.99668       	75.525215      	73.97463       	76.09068       	73.752304      	74.54554       	74.86707       	74.3994        	75.3242        	75.52333       	76.34698       	76.35453       	77.592766      	79.53447       	74.307724      	75.13463       	75.60398       	75.69332       	75.45509       	75.9829        	75.19843       	75.64684       	76.170906      	74.895325      	76.03857       	74.60313       	75.536804      	75.641174      	75.54101       	76.0505        	75.54631       	75.74626       	75.131836      	75.4854        	75.77689       	
75.620544      	75.82117       	75.707245      	75.638405      	75.52756       	75.575874      	75.67074       	75.691025      	75.92862       	75.698685      	75.87791       	75.36285       	75.00371       	76.75262       	75.366196      	75.88728       	75.41964       	75.75681       	75.56721       	75.57121       	75.85891       	75.380135      	75.622154      	75.4249        	75.40378       	75.70644       	75.89139       	75.11264       	76.13059       	75.18516       	76.02281       	75.603294      	75.408165      	75.8869        	74.81795       	75.768654      	75.42115       	75.73685       	75.92088       	75.45935       	75.55125       	75.704124      	75.41404       	75.37601       	75.7767        	75.81182       	75.96472       	76.06685       	75.0729        	75.694435      	75.1855        	76.27505       	75.17717       	75.399284      	75.93438       	75.04404       	75.72521       	75.78446       	75.5109        	75.642395      	75.6122        	75.856766      	75.31224       	75.67827       	75.65602       	73.14788       	73.26859       	75.03533       	75.42307       	74.89347       	75.18784       	75.60901       	75.72534       	74.869995      	75.85999       	76.11353       	75.72236       	77.633835      	80.6789        	75.227806      	75.9016        	75.56293       	75.359924      	75.572495      	75.67367       	75.616264      	75.535675      	74.7502        	75.45866       	75.94078       	75.82188       	75.30547       	75.65697       	75.21478       	75.70395       	76.12          	75.65572       	75.14304       	75.44699       	76.256165      	
75.59099       	75.62861       	75.668686      	76.19968       	76.09879       	75.55939       	75.14054       	75.80756       	75.64184       	75.41601       	75.70436       	75.53682       	75.73615       	75.54642       	76.202034      	75.61517       	75.50711       	75.875755      	75.24053       	75.45061       	75.78602       	75.89087       	75.58373       	75.3017        	75.20074       	76.03663       	75.61827       	75.22995       	75.990555      	75.56618       	75.43099       	75.77121       	76.03581       	75.905876      	75.69204       	75.13271       	75.275345      	76.159096      	75.69959       	76.112404      	74.88411       	75.46372       	75.422264      	75.48382       	75.477905      	76.34844       	75.504074      	75.88528       	75.16938       	75.76457       	75.670845      	75.11748       	75.748985      	75.627144      	75.49468       	75.94333       	76.636314      	74.51984       	75.67524       	75.6364        	74.49672       	75.308304      	73.89425       	74.10743       	74.69105       	75.31225       	74.922295      	75.71511       	75.44777       	75.42755       	75.62785       	75.564995      	75.70819       	75.76573       	75.76349       	75.85628       	75.22212       	77.68944       	77.4656        	78.11194       	73.544395      	75.18801       	76.013504      	75.83862       	75.423775      	75.51654       	75.959305      	75.29017       	75.49983       	75.64815       	75.5622        	75.82529       	75.33139       	75.02879       	75.88382       	75.659904      	75.488754      	75.772896      	76.29036       	74.71199       	
75.71548       	75.70031       	76.128235      	76.026146      	75.54427       	75.53132       	75.849464      	76.10055       	75.5847        	75.7617        	75.45203       	75.84072       	75.62999       	74.89774       	76.10447       	75.45956       	75.35459       	76.0196        	75.39896       	75.59245       	75.471985      	75.44735       	76.12154       	75.36029       	75.85031       	75.87154       	76.04023       	74.442566      	75.73938       	75.69996       	75.10977       	75.611855      	75.70532       	75.88442       	75.73738       	75.17383       	75.79473       	75.79133       	75.02966       	76.36358       	75.21403       	75.287994      	75.97477       	75.832985      	75.05029       	75.72274       	75.235146      	76.2958        	75.20813       	75.59645       	75.927246      	75.35618       	75.28155       	76.01822       	75.51453       	74.68425       	73.37583       	74.6471        	75.59949       	74.62952       	75.41194       	75.294266      	75.07807       	75.53045       	75.65391       	75.820625      	75.3514        	75.58964       	75.357864      	75.53426       	75.913956      	75.42716       	75.69574       	75.50547       	75.449905      	75.69303       	75.57594       	76.79105       	78.72992       	77.27382       	73.5496        	75.37094       	74.8937        	75.857635      	75.53633       	75.901215      	75.52351       	75.371346      	75.655846      	75.88001       	75.25153       	75.76883       	75.77099       	75.672         	75.20783       	75.668594      	75.4908        	75.63005       	76.00047       	74.91232       	
75.6674        	75.98607       	76.12786       	75.43967       	75.51214       	75.98128       	75.16917       	76.016785      	75.6059        	75.5394        	75.96127       	75.65084       	75.45001       	75.0102        	75.03023       	75.97534       	75.55816       	75.92773       	75.866356      	75.105995      	75.33256       	75.581345      	75.686356      	75.863075      	75.44386       	75.71727       	75.35864       	75.492874      	75.84431       	75.80699       	75.56441       	75.52488       	75.78357       	75.65325       	75.38132       	75.530075      	75.65015       	75.21473       	75.95912       	75.795425      	75.194756      	76.05133       	74.89203       	75.95088       	75.33591       	76.106346      	75.288055      	75.9345        	75.63229       	75.22536       	75.434006      	74.93982       	73.221504      	74.172165      	75.42629       	74.975525      	74.5974        	75.11723       	75.82481       	75.31962       	75.53751       	75.827126      	75.53378       	75.52029       	76.20716       	75.14115       	75.01821       	75.22528       	75.94364       	75.64757       	75.616234      	75.78148       	75.452644      	75.39521       	75.34551       	75.590775      	75.79672       	76.550186      	78.29867       	77.30558       	77.73183       	73.70089       	75.943054      	75.10075       	75.93277       	75.77741       	75.501656      	75.51522       	75.69644       	75.32445       	75.4847        	76.39532       	74.79619       	75.60977       	76.45277       	74.50969       	76.18558       	75.223915      	75.596214      	75.55789       	
75.86216       	75.99403       	75.73634       	75.44048       	75.88979       	75.24534       	75.4327        	75.66317       	75.67616       	75.83214       	75.604416      	75.386665      	75.91864       	75.41231       	75.83044       	75.69546       	75.71864       	76.084175      	75.01812       	75.55606       	75.89832       	75.901276      	75.73294       	76.14531       	75.48985       	75.46784       	75.564995      	75.433655      	75.66511       	75.70797       	75.11287       	75.540886      	75.603         	75.57816       	75.769585      	75.52304       	75.79068       	75.87679       	74.88396       	75.817         	75.40365       	75.388435      	75.514435      	75.837845      	74.94625       	75.52304       	73.55609       	74.12756       	75.50067       	74.35786       	73.993576      	74.79274       	75.22488       	75.058426      	75.751205      	75.83852       	75.03026       	75.76682       	75.57556       	75.64606       	75.42079       	75.77756       	75.66973       	75.638374      	75.48662       	75.85129       	75.38306       	76.16585       	75.32895       	76.06066       	75.85996       	74.70141       	75.87198       	75.81768       	74.968506      	75.59645       	76.89396       	75.3964        	78.03674       	77.786896      	79.05518       	74.29214       	74.54326       	75.2417        	76.04477       	75.283165      	75.63361       	75.68273       	75.06372       	75.96427       	75.483536      	75.500404      	75.65798       	76.33797       	74.838554      	75.73532       	75.756516      	75.14623       	75.99039       	75.43364       	
75.74915       	75.85974       	76.110756      	75.62123       	75.714455      	76.00014       	75.25381       	75.5488        	75.6143        	75.67251       	75.059875      	75.85974       	75.47178       	75.9218        	76.25918       	75.49909       	75.793465      	75.6416        	75.0465        	76.118744      	75.90971       	75.18093       	75.63648       	75.63277       	75.463776      	75.15899       	75.869705      	75.68202       	75.93607       	74.90636       	76.16639       	76.245476      	74.816         	75.057686      	76.155         	76.15937       	74.68418       	75.63339       	76.13674       	74.79991       	75.74741       	76.14633       	75.035995      	73.99357       	73.14115       	74.610115      	73.693565      	75.023         	75.708595      	75.46808       	75.25152       	75.40871       	75.585655      	75.82845       	75.745735      	75.654106      	74.99976       	75.85201       	75.67188       	75.181854      	76.05376       	75.65836       	75.256355      	75.72369       	75.65525       	76.08001       	75.81611       	75.309204      	75.68689       	75.951645      	75.07235       	75.72704       	75.53307       	75.11159       	76.21564       	74.20879       	76.179565      	77.934906      	75.13104       	79.51739       	78.15392       	74.29662       	75.73616       	75.5226        	75.54408       	75.38879       	76.18118       	74.99877       	75.5378        	75.343834      	75.68585       	76.03944       	75.63856       	75.2901        	75.70155       	75.69987       	75.11653       	75.63045       	75.74206       	75.18861       	
75.7527        	76.068855      	75.43854       	75.44109       	75.931274      	75.24293       	75.82269       	75.6602        	75.66119       	75.72192       	75.45646       	75.33509       	76.08346       	75.92147       	76.3151        	74.93064       	75.65102       	75.81146       	75.595604      	75.76554       	75.689514      	75.279335      	75.79349       	75.86421       	75.32972       	76.55039       	75.06677       	75.6855        	75.59335       	75.13603       	75.677246      	76.18824       	75.43065       	75.12047       	75.834145      	75.85474       	75.46678       	75.68691       	75.70787       	75.95164       	75.00078       	72.92643       	72.3675        	73.80449       	75.52426       	75.39848       	75.1179        	75.48919       	75.67033       	75.50787       	75.5913        	75.956116      	75.61175       	75.34415       	75.602104      	76.0993        	75.460304      	75.74922       	75.0371        	76.316154      	75.21446       	75.687874      	75.52949       	75.87138       	75.18933       	75.94163       	75.67267       	75.80755       	75.27547       	75.59063       	75.4997        	75.077156      	75.94148       	75.71898       	74.75128       	76.688644      	74.828285      	77.5403        	77.27522       	77.938126      	76.83906       	73.80214       	75.76551       	75.29955       	75.5164        	75.70392       	75.8774        	75.27412       	74.90288       	75.52028       	76.27766       	75.426285      	75.37618       	75.3389        	75.902275      	75.65369       	75.1456        	76.10678       	75.29451       	75.54781       	
75.602776      	75.81485       	75.83846       	75.6796        	75.73143       	75.96406       	76.21158       	74.83402       	75.30945       	75.84019       	75.47278       	75.678246      	76.28643       	75.87471       	75.01664       	76.03671       	75.43076       	75.455734      	75.42988       	75.25404       	76.84391       	76.36286       	74.560616      	75.63494       	75.34231       	75.216354      	76.63426       	75.51346       	74.918526      	75.5127        	75.613945      	75.954544      	75.219894      	75.45798       	75.37993       	75.88571       	75.557106      	75.99929       	75.373726      	75.619896      	74.82518       	72.5241        	74.137184      	74.0544        	75.6975        	76.07047       	75.2426        	75.611404      	76.02812       	75.0489        	76.335724      	75.419044      	75.74498       	75.517006      	75.90348       	75.18218       	75.51582       	76.05979       	75.60081       	75.57213       	75.96898       	75.53232       	75.48311       	75.57884       	75.9329        	75.713455      	75.23493       	76.09715       	75.91495       	74.75875       	75.50589       	75.956894      	75.67938       	75.30876       	76.04712       	75.78176       	75.247955      	76.41388       	76.65309       	78.84045       	77.49386       	75.62432       	74.96836       	75.257286      	75.56451       	75.84667       	75.16699       	75.63175       	75.61932       	75.27021       	75.59264       	75.4092        	75.972176      	75.73483       	75.18631       	75.69713       	75.91671       	74.882355      	76.01526       	75.930695      	
75.67583       	75.69763       	75.7312        	76.08748       	75.787994      	75.5266        	75.61664       	75.79302       	75.894806      	75.66036       	75.16381       	75.46688       	76.5388        	75.32818       	75.130325      	75.75018       	75.61276       	75.36898       	76.07124       	75.739105      	75.07029       	76.15687       	75.551735      	74.41663       	75.438965      	76.03691       	74.857086      	75.845924      	76.20041       	75.22448       	75.782875      	75.59121       	75.79768       	75.38631       	76.0529        	75.26208       	75.7513        	75.77888       	75.24109       	75.48194       	73.94573       	73.41441       	74.34724       	74.78002       	75.291565      	75.125114      	76.28873       	75.79554       	75.32626       	75.41861       	75.5456        	75.90785       	75.14364       	75.42759       	75.89988       	75.556366      	75.495255      	75.8249        	76.456184      	74.88878       	75.25066       	75.78727       	75.3864        	75.70983       	75.05422       	75.65287       	75.840775      	75.1015        	75.70672       	76.26112       	74.90682       	75.609634      	76.32781       	75.41415       	75.91627       	75.31336       	75.60351       	75.65399       	76.33088       	78.087715      	78.54504       	75.77101       	75.20641       	75.77852       	75.54124       	75.00647       	75.57826       	75.3083        	75.692345      	76.65109       	74.576485      	75.75498       	75.57939       	75.64469       	75.51597       	75.305214      	75.60935       	75.99936       	75.28485       	75.65791       	
75.5321        	75.49612       	76.20315       	75.70926       	75.33089       	75.52156       	75.44256       	75.87831       	75.57298       	75.5222        	75.71995       	75.895546      	75.45714       	75.62952       	75.713394      	75.970894      	75.39942       	75.852715      	75.8687        	75.456116      	75.615005      	75.443954      	75.892876      	74.99764       	75.24997       	75.83781       	75.55539       	75.74202       	75.93348       	75.35818       	75.48496       	75.722755      	75.88357       	75.204475      	75.14814       	75.86773       	75.82478       	75.46724       	75.94185       	75.59862       	74.64822       	72.77391       	74.25362       	74.68421       	74.91222       	75.403336      	75.62848       	76.21923       	75.46611       	75.813126      	75.71266       	74.69479       	76.35977       	75.47561       	75.62881       	76.05862       	74.9629        	75.538185      	76.69446       	76.44373       	74.19312       	75.4162        	75.434906      	75.730606      	75.19086       	75.9505        	75.79805       	75.46679       	75.641884      	75.69913       	75.315575      	75.56981       	75.5054        	75.616264      	75.630486      	75.65172       	75.428375      	76.113976      	75.74837       	77.39295       	78.52006       	77.06941       	73.96993       	75.533516      	75.63796       	76.2491        	74.73238       	75.7277        	75.07706       	76.271675      	74.938416      	75.94465       	75.44552       	75.41155       	76.44041       	74.7822        	75.195656      	75.72962       	75.870926      	75.262634      	
75.61812       	75.73417       	76.01649       	75.85745       	75.74288       	75.88103       	75.57416       	75.726036      	75.38245       	75.90316       	75.733246      	75.16252       	75.85582       	75.87875       	75.41974       	76.06616       	75.37885       	75.55619       	75.926674      	76.16178       	75.114105      	75.61191       	75.78172       	75.337715      	75.812325      	75.96034       	75.265724      	75.733894      	75.51084       	75.55092       	75.70972       	75.78688       	75.29472       	75.73583       	75.875694      	75.427284      	75.44725       	75.91126       	75.62641       	75.94246       	75.43491       	72.76605       	74.06167       	74.43229       	74.89419       	75.22273       	75.41923       	75.742134      	75.94989       	75.46542       	75.991165      	75.29231       	75.142395      	76.16289       	75.33734       	75.70144       	76.1202        	75.27687       	75.286224      	75.498856      	76.21126       	75.21127       	75.598595      	76.057144      	75.296844      	75.50898       	75.74352       	75.002304      	76.621376      	74.785805      	75.262535      	75.76908       	75.43874       	75.58818       	76.06786       	75.41459       	75.54378       	75.58037       	76.16023       	76.492516      	79.08249       	79.308365      	75.03814       	74.635544      	75.19785       	76.13771       	75.31415       	75.22695       	75.44388       	76.222664      	75.07705       	75.18277       	75.5269        	76.09484       	75.5161        	75.70624       	75.994286      	75.07249       	75.97242       	75.50966       	
75.802475      	75.84793       	75.86891       	75.603935      	75.37951       	75.3408        	76.048225      	75.37742       	75.7987        	75.65933       	75.9046        	75.29826       	75.69813       	75.533455      	76.34369       	74.6944        	76.1546        	75.88889       	74.73534       	75.79707       	76.169525      	75.40599       	75.41744       	75.46607       	75.48448       	76.05525       	74.78589       	76.138916      	75.34709       	75.46982       	76.46124       	75.20852       	75.30443       	76.20545       	75.867516      	75.68993       	75.35926       	75.12693       	76.0385        	76.052605      	75.22901       	72.38538       	74.48646       	74.13961       	74.74645       	75.37712       	75.67213       	75.872116      	74.91348       	76.32454       	75.06361       	75.727135      	76.06759       	75.00641       	75.308655      	75.790794      	75.88965       	75.27288       	76.031685      	75.363464      	75.787605      	75.15104       	75.76056       	75.538376      	74.941574      	75.48873       	76.09324       	75.97832       	74.8801        	76.69391       	74.803474      	74.305016      	76.485275      	75.77504       	75.79214       	75.01879       	75.5157        	75.70357       	75.62675       	77.20778       	77.68821       	78.23838       	76.702         	74.70616       	75.369736      	75.635544      	75.21177       	75.98089       	75.61658       	75.54264       	74.4514        	75.81441       	76.06206       	75.66156       	75.73125       	75.347595      	76.0367        	75.49514       	75.83897       	75.39042       	
75.593414      	76.04098       	76.13199       	75.92924       	75.724815      	75.76802       	75.94523       	75.34987       	75.81199       	76.059845      	75.54034       	75.31277       	75.53338       	74.194336      	75.39481       	76.05186       	76.12157       	76.771706      	74.89041       	74.99799       	75.28131       	75.64958       	75.75777       	74.9253        	75.89517       	75.76312       	75.092         	76.103836      	75.539536      	75.535965      	75.06335       	75.70673       	75.93082       	75.52113       	74.90179       	75.95662       	75.55368       	75.42588       	75.91939       	75.55885       	75.62041       	73.73045       	73.42647       	74.69916       	75.1435        	74.901566      	75.35891       	76.16677       	75.33938       	75.33226       	75.54704       	75.4257        	76.10106       	75.0562        	75.96688       	76.860596      	74.60041       	75.64382       	75.83877       	75.26709       	75.76947       	74.67118       	75.84788       	76.03311       	74.90687       	75.25417       	75.91268       	75.56764       	75.70729       	76.23408       	75.165634      	76.03302       	74.71537       	75.94186       	75.806175      	75.37112       	75.62925       	75.835846      	75.55699       	76.71443       	78.132164      	78.878426      	76.73133       	74.12254       	75.356606      	75.43213       	75.67218       	74.90456       	75.98392       	75.34335       	75.49945       	75.66807       	75.006004      	75.93774       	75.278404      	75.95142       	75.46048       	75.438774      	75.856514      	75.04693       	
75.63156       	75.55078       	76.07727       	76.59291       	75.21216       	75.75389       	75.70413       	75.846756      	75.61897       	75.76032       	73.3084        	73.25832       	74.34045       	75.27773       	75.27642       	76.28554       	76.859024      	77.922745      	79.12522       	74.55671       	75.27046       	75.70608       	75.25852       	75.694824      	75.54368       	75.3059        	76.11313       	75.50458       	74.90593       	75.8581        	75.832085      	75.58137       	75.70715       	75.59305       	75.76651       	75.68169       	75.67885       	75.44864       	75.899605      	75.77055       	74.87275       	74.23587       	73.07095       	74.655136      	74.59601       	74.84573       	75.56356       	75.32958       	75.13174       	76.11682       	75.95035       	75.58447       	75.62645       	75.29976       	75.650955      	76.33695       	76.29381       	74.3509        	75.60263       	75.43381       	75.65924       	75.19887       	76.118935      	75.25835       	75.35412       	76.16444       	75.377594      	75.46949       	75.75485       	74.718376      	76.14103       	76.35272       	74.69133       	75.37566       	76.52565       	74.876816      	76.04029       	75.58359       	75.2076        	76.11184       	77.25237       	79.50045       	77.5027        	73.540405      	75.84108       	75.633         	75.60888       	75.087875      	75.65902       	75.623184      	75.63645       	74.69333       	76.538216      	75.08986       	74.94408       	75.68759       	76.036766      	75.48949       	75.92602       	75.21412       	
75.5397        	75.76132       	76.753784      	75.84418       	72.94769       	72.10447       	73.878815      	74.64539       	75.6718        	75.64509       	74.960495      	75.0884        	75.535355      	75.22664       	75.71035       	75.55791       	77.07882       	78.23975       	80.29961       	74.3841        	75.32297       	75.49128       	75.29099       	75.462166      	75.9543        	75.980934      	75.04429       	75.610306      	76.00155       	75.215385      	75.58176       	76.67769       	75.2401        	75.10042       	75.60934       	75.635895      	75.620346      	76.27749       	75.43867       	75.67103       	75.50786       	75.29755       	73.13391       	74.49861       	74.18078       	74.57629       	75.36256       	75.63107       	75.365         	75.54201       	75.81528       	75.9549        	75.259415      	75.37594       	75.911674      	76.01388       	75.69055       	75.53932       	76.354225      	75.248474      	74.86458       	75.58093       	75.55798       	75.59128       	75.59789       	75.718445      	75.81078       	75.447716      	76.064285      	75.44509       	75.60363       	75.88916       	75.210884      	75.96782       	75.61673       	75.354034      	76.14207       	75.405525      	75.3783        	75.72625       	77.243546      	78.77834       	77.78943       	74.89949       	76.06832       	75.033226      	75.44317       	75.77217       	75.968216      	75.33266       	75.76015       	75.643196      	75.744804      	75.18828       	75.29031       	75.815155      	75.33258       	75.57036       	76.095314      	75.322495      	
75.08517       	74.848656      	74.75809       	74.33764       	74.372215      	75.0074        	75.18192       	75.17113       	75.57868       	75.690865      	75.79744       	76.45315       	75.907814      	74.926575      	75.26156       	75.11579       	76.58258       	77.33166       	79.51436       	75.8284        	74.289734      	75.402756      	75.5382        	75.37346       	76.086105      	75.48696       	75.47709       	75.52764       	75.82756       	75.71075       	75.037926      	75.60367       	76.29422       	75.37164       	75.51617       	75.79272       	75.44737       	75.66589       	75.27433       	76.14276       	75.50501       	75.16428       	73.91224       	73.422035      	74.327736      	74.44997       	75.08177       	75.63897       	75.91553       	75.5732        	75.28141       	75.85703       	75.11394       	75.89619       	75.12896       	76.03851       	75.49839       	75.44568       	76.77202       	75.8256        	74.5989        	75.57779       	75.21305       	75.77426       	75.316124      	75.49046       	75.669716      	75.00575       	75.85173       	75.63927       	75.468544      	75.63173       	75.385994      	76.33678       	75.53717       	75.163445      	75.601494      	75.67731       	75.45708       	75.89567       	76.683266      	78.19424       	78.547485      	76.53015       	75.00022       	75.29357       	75.605896      	75.86457       	75.58621       	75.60024       	75.228226      	75.83846       	75.0406        	75.928856      	75.51111       	75.7904        	75.79743       	74.57383       	76.751076      	75.486244      	
