# www.neaspec.com
# Scan:	 	Whitelight Imaging
# Project:	 	20251007_PS
# Description:	 	
# Date:	 	10/07/2025 13:44:09
# Scanner Center Position (X, Y):	[µm]	49.99	50.01	 
# Rotation:	[°]	0	 	 
# Scan Area (X, Y, Z):	[µm]	5.000	5.000	0.000
# Pixel Area (X, Y, Z):	[px]	100	100	1
# Interferometer Center/Distance:	[µm]	546.342	0.000	 
# Averaging:	 	1	 	 
# Integration time:	[ms]	5	 	 
# Wavenumber Scaling:	 	1.000000	 	 
# Laser Source:	 	4.5-15 µm nano-FTIR laser
# Detector:	 	R
# Target Wavelength:	[µm]	7.502	 	 
# Demodulation Mode:	 	Fourier
# Tip Frequency:	[Hz]	241,340.500	 	 
# Tip Amplitude:	[mV]	45.700	 	 
# Tapping Amplitude:	[nm]	76.624	 	 
# Modulation Frequency:	[Hz]	0.000	 	 
# Modulation Amplitude:	[mV]	0.000	 	 
# Modulation Offset:	[mV]	0.000	 	 
# Setpoint:	[%]	79.75	 	 
# Regulator (P, I, D):	 	4.206850	8.625812	1.000000
# Tip Potential:	[mV]	0.000	 	 
# M1A Scaling:	[nm/V]	0.426	 	 
# M1A Cantilever Factor:	 	1,000	 	 
# Q-Factor:	 	487.4	 	 
# Version:	 	2.1.11536.0
75.723564      	75.81315       	75.26626       	75.857056      	75.40704       	75.41576       	75.60384       	75.80325       	75.54377       	75.64293       	75.562744      	75.407036      	75.307274      	75.50903       	75.34082       	75.84312       	78.54239       	77.44507       	76.973145      	76.96234       	75.11828       	75.52889       	75.476494      	75.84846       	75.360016      	75.736946      	75.03361       	76.29079       	75.64895       	74.401306      	76.19595       	75.75381       	74.87526       	75.30029       	74.565254      	74.50713       	75.78144       	74.65309       	75.23537       	74.61636       	74.86181       	76.50847       	74.442314      	74.018654      	75.29528       	75.00714       	74.808266      	75.665764      	75.51531       	75.5031        	75.623474      	75.60157       	75.189705      	75.41716       	75.624176      	75.82841       	75.60767       	75.45569       	75.591965      	75.16082       	76.1022        	75.63118       	75.30484       	75.66316       	75.76058       	75.38431       	75.30707       	75.72672       	75.68324       	75.74179       	75.46843       	75.73222       	75.5547        	75.50412       	75.44569       	75.576485      	75.86515       	75.36045       	75.329025      	76.043015      	75.359825      	75.51323       	75.621994      	76.16144       	75.17671       	75.518196      	75.924675      	75.82783       	75.127426      	75.68136       	75.729454      	75.46057       	75.34956       	75.55034       	75.93538       	75.61751       	75.55769       	75.68546       	75.67441       	76.0442        	
75.29972       	75.70729       	75.90185       	75.1934        	75.57699       	75.75016       	75.442276      	75.453224      	75.60195       	75.28909       	75.87614       	75.48877       	75.210014      	75.57252       	75.35478       	75.2943        	79.07401       	77.43916       	77.22941       	76.68073       	75.71213       	75.46393       	75.981995      	74.80868       	75.26744       	75.57108       	76.232735      	74.622826      	74.845474      	75.601456      	75.0809        	73.9921        	76.65848       	74.5239        	75.69153       	74.07615       	75.65205       	73.74966       	76.42413       	74.375374      	74.478806      	73.86735       	75.787125      	75.59742       	75.47614       	75.98669       	74.87392       	75.93252       	75.798096      	75.41814       	75.844124      	75.58009       	75.54364       	75.17757       	75.773026      	75.27048       	75.67758       	75.521454      	75.37328       	76.136826      	75.65008       	75.785355      	75.3535        	75.53658       	75.40559       	75.953476      	74.8944        	75.91283       	75.78407       	75.36028       	75.724815      	75.619095      	75.8143        	75.47877       	75.43488       	75.414795      	75.632965      	75.24861       	76.19326       	75.14634       	75.54227       	75.73991       	75.767586      	75.883575      	75.39538       	75.77476       	74.98809       	75.93839       	75.534035      	75.63255       	75.343315      	75.66309       	75.82652       	75.28463       	75.543594      	75.51995       	75.68555       	75.45169       	76.41962       	75.56845       	
75.540886      	75.50432       	75.21554       	76.12024       	75.61889       	75.449905      	75.64947       	75.6382        	75.67224       	75.1992        	75.83307       	75.381744      	74.621025      	76.12577       	76.08012       	74.466194      	78.96202       	77.66912       	77.28846       	76.51804       	76.300446      	75.27485       	75.27351       	75.68148       	74.74311       	74.89438       	74.64116       	74.80129       	75.038025      	74.79572       	76.235344      	74.54674       	75.52656       	75.98394       	74.4818        	74.60786       	75.19201       	74.14865       	74.95753       	75.5245        	75.75061       	75.12432       	76.06593       	75.75818       	75.18347       	75.95504       	75.38447       	75.678055      	75.60795       	75.56432       	75.59132       	75.75987       	75.27625       	75.88211       	75.421776      	75.43811       	75.477486      	75.4637        	75.858055      	75.58454       	75.550026      	75.596924      	75.73184       	75.54103       	75.7372        	75.48114       	75.53525       	75.69275       	75.17132       	76.052734      	75.43505       	75.37555       	75.80486       	75.55449       	75.35924       	75.64429       	75.296425      	75.46834       	75.78817       	75.40127       	75.771774      	75.63237       	75.8693        	75.508575      	75.457924      	75.70593       	75.867424      	75.510956      	75.60018       	75.482605      	75.29678       	75.82525       	75.53536       	75.98095       	74.8174        	75.620094      	75.21591       	76.43612       	77.14771       	76.43425       	
75.517365      	75.32097       	75.582794      	76.117386      	75.09267       	75.59854       	76.11442       	75.30845       	75.62749       	75.23184       	75.21207       	75.51253       	75.41183       	75.88519       	75.79727       	74.53994       	77.82819       	78.42852       	76.71895       	76.00094       	75.58873       	76.58501       	76.06741       	75.02844       	74.773865      	74.89373       	75.557526      	75.0056        	74.9086        	74.607346      	75.30377       	74.33621       	75.15122       	73.935104      	75.47293       	75.57699       	75.160034      	75.38847       	76.37753       	75.55448       	75.53439       	75.54155       	75.604805      	75.50691       	75.723495      	75.65536       	75.47487       	75.71547       	75.155495      	75.77565       	75.75286       	75.677605      	75.23854       	75.971504      	75.1303        	75.682         	75.36682       	75.11985       	76.21436       	75.29193       	75.481766      	75.85177       	75.426956      	75.69474       	75.673004      	75.64091       	75.60072       	75.37732       	75.74672       	75.48772       	75.528595      	75.57574       	75.46177       	75.65324       	75.700775      	75.53402       	75.01993       	76.19687       	75.53506       	75.542984      	75.73437       	75.499725      	75.76866       	75.617485      	75.62027       	75.81254       	75.569626      	75.28301       	75.47045       	75.558685      	75.63679       	75.95759       	75.41553       	75.69616       	75.83153       	75.13756       	75.81464       	75.505615      	75.41691       	76.646484      	
75.88583       	75.65382       	75.755974      	75.44694       	75.54058       	75.536934      	75.42428       	75.85841       	75.30035       	75.46508       	75.64003       	75.503525      	75.80328       	75.445946      	75.13194       	75.23841       	76.66587       	77.08592       	76.07553       	76.93458       	76.5002        	76.03776       	75.279945      	75.37705       	76.06812       	74.1014        	74.92082       	75.23825       	75.04536       	73.510895      	75.571556      	75.53559       	75.314865      	75.81716       	75.52321       	75.54688       	75.595024      	75.700424      	75.390205      	75.70004       	75.84213       	75.44941       	75.61766       	75.19739       	75.9545        	75.571144      	75.47465       	75.9351        	75.17514       	75.84737       	75.34211       	75.73484       	75.7681        	75.654976      	75.0176        	75.88444       	75.84539       	75.33583       	75.69343       	75.492516      	75.80691       	74.84417       	75.90687       	75.485146      	75.35474       	75.866486      	75.74185       	75.54548       	75.44535       	75.70057       	75.839294      	75.35452       	75.7389        	75.40772       	75.70455       	75.84224       	75.40687       	75.67534       	75.626495      	75.276726      	75.79893       	75.5732        	75.6836        	75.54598       	75.68696       	75.57846       	75.92957       	75.2713        	75.66965       	75.132164      	76.00795       	75.68227       	75.17486       	75.77957       	75.49777       	75.47623       	74.26463       	75.55877       	76.70604       	75.96381       	
75.53443       	75.3896        	75.9761        	75.27313       	75.75879       	75.65799       	75.66538       	75.34648       	75.454         	75.85797       	75.31763       	75.41593       	75.65759       	75.36497       	75.72955       	75.29325       	75.39369       	76.09658       	77.029755      	77.16072       	76.17927       	75.196         	76.24654       	75.43561       	74.82763       	73.34071       	75.73458       	75.869995      	75.358376      	75.4071        	75.80539       	75.71868       	75.24063       	75.30393       	75.990616      	75.51473       	75.75251       	75.777374      	75.61459       	75.35224       	75.51655       	75.77548       	75.376114      	75.62828       	75.41069       	75.811295      	75.74585       	75.432396      	75.729         	75.39866       	75.86532       	75.50055       	75.60025       	75.41379       	75.58667       	75.602234      	75.466896      	75.52942       	75.7298        	75.34464       	75.63425       	75.57523       	75.9204        	75.20436       	75.6313        	75.47841       	75.40583       	75.60211       	75.64884       	75.284134      	75.79056       	75.62655       	75.44652       	75.90883       	75.28839       	75.60197       	75.39172       	75.94359       	75.34678       	75.70173       	75.65734       	75.885475      	75.36768       	75.0373        	76.03464       	75.50495       	75.864525      	75.25222       	75.60859       	75.59015       	75.63536       	75.14887       	76.10257       	75.66341       	75.2816        	73.89589       	76.58929       	76.07815       	74.67162       	74.67015       	
75.16474       	75.558235      	75.70565       	75.49889       	75.747826      	75.57232       	75.6497        	75.09301       	75.16361       	75.81436       	75.42059       	75.452415      	75.845276      	75.696724      	75.717186      	74.70538       	76.43254       	75.38834       	74.21395       	76.62194       	75.74196       	76.00162       	75.528114      	75.39956       	75.744415      	75.4703        	75.67201       	75.93748       	75.237206      	76.00288       	75.61145       	74.61571       	75.382904      	77.018074      	75.7024        	74.88374       	75.50087       	75.880775      	75.48311       	75.48429       	75.528305      	76.043015      	75.4443        	75.176346      	75.89039       	75.509094      	75.75885       	75.286255      	75.71358       	75.610664      	75.50518       	75.47452       	75.91901       	75.562225      	75.46609       	75.34449       	75.42049       	75.73543       	75.46025       	75.689125      	75.414         	76.05651       	75.28858       	75.85696       	74.92681       	75.867905      	75.893616      	75.60338       	75.55825       	75.45761       	75.62222       	75.47627       	75.849014      	75.56257       	75.53529       	75.42618       	75.296005      	75.14223       	76.322655      	75.32635       	75.84881       	75.81994       	75.39071       	75.77785       	75.626114      	75.59438       	75.662224      	74.97653       	75.81979       	75.85386       	75.31684       	75.72031       	75.5881        	74.48311       	76.24561       	76.78907       	75.45302       	75.78494       	75.697586      	74.941864      	
75.761566      	75.72138       	75.10658       	75.88099       	75.04836       	75.846886      	74.65056       	76.25371       	75.96336       	76.23702       	74.65055       	75.57987       	75.99633       	75.2139        	75.446754      	74.806175      	76.16324       	76.52574       	74.50718       	76.00773       	75.43307       	75.527954      	76.01033       	75.86232       	75.20931       	75.77137       	75.84073       	75.523125      	75.47819       	75.72482       	74.99381       	75.58862       	75.759964      	76.23517       	75.85228       	74.713455      	75.84972       	75.632965      	75.26264       	75.6116        	75.533424      	75.658104      	75.41663       	75.48427       	76.06236       	75.143776      	75.708084      	75.84197       	75.33263       	75.445946      	75.86847       	75.57348       	75.48515       	75.66528       	75.627205      	75.529976      	75.57948       	75.50864       	75.38238       	75.66112       	75.451         	75.629265      	75.77763       	75.42568       	75.63798       	75.48367       	75.363335      	75.83867       	75.66999       	75.61451       	75.61814       	74.77582       	76.161835      	75.41897       	75.71574       	75.7022        	75.300606      	75.93746       	75.56829       	75.52919       	75.62155       	75.75243       	75.33116       	75.73051       	75.72862       	75.485756      	75.50044       	75.832794      	75.60581       	75.42311       	75.59139       	75.645584      	75.70467       	75.08479       	74.93898       	76.34192       	77.201454      	74.98526       	74.453896      	74.46764       	
75.8234        	75.11163       	75.84232       	75.67642       	75.21564       	75.71206       	75.8081        	75.43307       	75.35739       	76.026726      	75.68          	75.40038       	75.74816       	75.53721       	75.83596       	75.02542       	76.03365       	75.44589       	75.64924       	75.660255      	75.28428       	75.80043       	75.62857       	75.92196       	75.33706       	76.107635      	75.0449        	75.496376      	75.308846      	75.82992       	75.376625      	75.69893       	75.5495        	75.73187       	75.62588       	75.529594      	75.487625      	75.54849       	75.491486      	76.004364      	75.22617       	75.91313       	75.60974       	75.68613       	73.945145      	76.85156       	75.79803       	75.12205       	75.60292       	75.953476      	75.613         	75.5611        	75.50003       	75.39959       	76.006454      	75.28972       	75.639694      	75.540344      	75.48938       	75.759224      	75.82825       	75.41506       	75.765854      	75.565926      	74.76589       	76.2171        	75.55789       	75.69605       	75.28949       	75.74575       	75.8407        	75.404785      	75.979706      	75.17491       	75.822         	75.39413       	75.45149       	75.639984      	75.84365       	74.99992       	75.52873       	76.22721       	75.45481       	75.55766       	76.04322       	74.19665       	76.780556      	75.88973       	75.39443       	75.505356      	75.951454      	75.65606       	74.392784      	76.31566       	74.87003       	75.748886      	77.09717       	75.2623        	74.97387       	74.50554       	
75.22199       	75.942696      	75.19845       	75.701         	75.7132        	75.319275      	75.848145      	75.682655      	75.18325       	75.93095       	75.35239       	75.58143       	75.69625       	75.41591       	76.11218       	75.23402       	75.567986      	75.84107       	75.607796      	75.51135       	75.05153       	75.833916      	76.06501       	75.83396       	75.48755       	75.603485      	75.57261       	75.87508       	75.065605      	76.15455       	75.66954       	75.37789       	75.59471       	74.78117       	76.32794       	75.416466      	75.41735       	75.62742       	75.398895      	76.08098       	75.672264      	75.0565        	75.72685       	75.4824        	74.45043       	76.81125       	76.083         	75.58522       	74.35757       	74.959274      	76.37358       	75.90329       	75.20251       	75.75079       	75.914         	75.34789       	75.15696       	75.435234      	75.791954      	75.83704       	75.24647       	75.33078       	76.378586      	74.96707       	75.516975      	75.84702       	75.5514        	75.71629       	75.23821       	75.78303       	75.36497       	75.498344      	75.857185      	75.29189       	76.02503       	75.508446      	75.32286       	75.789215      	75.67636       	75.56904       	75.55599       	75.701805      	75.47018       	75.516426      	75.699585      	75.85178       	75.62693       	75.08849       	75.88994       	75.68082       	75.6046        	75.35897       	75.537796      	75.71874       	75.50598       	75.2312        	74.23154       	76.4146        	77.845276      	77.31358       	
75.45776       	75.346245      	75.89053       	75.743805      	75.18117       	75.546745      	75.8481        	75.68906       	75.417946      	75.89133       	75.41899       	75.75127       	75.28695       	75.73729       	75.57974       	75.45271       	75.70758       	75.4787        	75.65483       	75.682785      	75.413895      	75.583374      	75.96498       	75.34946       	75.50863       	75.86343       	75.61923       	75.33144       	75.60647       	75.89013       	75.2233        	75.78152       	75.46046       	75.656075      	75.70521       	75.52199       	75.64929       	75.62207       	75.75826       	75.52201       	75.75646       	75.39265       	75.50248       	75.50261       	75.46009       	76.0242        	75.42096       	75.413734      	75.51851       	75.60905       	75.42897       	75.70928       	75.69223       	75.25278       	75.63844       	75.62781       	75.423416      	75.548454      	75.62522       	74.19245       	77.17202       	76.7142        	75.8879        	74.425156      	75.26849       	75.72552       	75.51733       	75.58789       	75.626884      	75.74728       	75.37925       	75.52051       	75.69248       	75.00284       	76.2918        	75.60915       	75.40052       	75.83208       	75.5284        	75.42507       	75.82467       	75.13          	75.72564       	75.54722       	75.84496       	75.54033       	75.57248       	75.090744      	75.683014      	75.891716      	74.818054      	76.31473       	75.24944       	75.4569        	75.51347       	75.59841       	75.262215      	76.98378       	76.86749       	76.71518       	
75.746025      	76.035286      	74.93521       	75.80775       	75.67323       	75.65821       	75.55378       	75.32242       	75.80196       	75.098         	75.999825      	75.86182       	75.332825      	75.27736       	76.07944       	75.63945       	75.49046       	75.36026       	75.88925       	75.644554      	75.787254      	75.76303       	75.18852       	75.340164      	76.05568       	75.80249       	75.28241       	75.669205      	75.7273        	75.35262       	75.98581       	75.34934       	75.59523       	75.75227       	75.547356      	75.91077       	74.91506       	75.93167       	75.466446      	76.01956       	75.43904       	75.55685       	75.37961       	75.67219       	75.424164      	75.78686       	75.24301       	75.77381       	76.00542       	75.07341       	75.8651        	75.76137       	75.31978       	75.690216      	75.63454       	75.42501       	75.40684       	75.24938       	75.830444      	75.65897       	75.86618       	74.8304        	75.97267       	75.65377       	75.87341       	75.17758       	75.62833       	75.92821       	75.30438       	75.73408       	75.71564       	75.29928       	75.67549       	75.716705      	75.67681       	75.527466      	74.87555       	76.05111       	75.06518       	76.19687       	75.28212       	75.93563       	75.91462       	75.46057       	75.76699       	75.838844      	74.72099       	75.5255        	76.4557        	76.18984       	75.55197       	74.41405       	75.41017       	75.40321       	75.89708       	75.3182        	75.50412       	76.090515      	75.35635       	75.89396       	
75.61118       	75.74624       	75.68103       	75.67415       	75.52415       	75.57473       	75.5975        	75.51301       	75.64206       	75.63309       	75.33945       	75.8902        	75.3003        	75.75183       	75.701836      	75.34593       	75.865875      	75.566376      	75.44698       	75.692345      	75.52939       	75.89159       	75.409485      	76.10539       	75.59346       	75.088036      	75.61791       	75.82125       	75.65489       	75.41941       	75.42119       	75.76996       	75.66357       	75.39189       	75.44903       	75.97913       	75.271194      	75.42197       	76.11682       	75.29349       	75.70113       	75.5896        	75.40203       	75.634186      	74.9594        	76.4665        	75.41437       	75.23987       	75.67993       	75.56265       	75.73093       	75.637276      	75.56917       	75.561424      	75.640045      	75.47748       	75.7063        	75.1558        	75.77031       	76.12118       	75.334656      	75.6584        	75.874626      	75.41267       	75.660416      	75.620316      	75.598305      	75.4899        	75.778656      	75.5136        	75.41631       	75.67394       	75.02767       	76.816124      	75.63947       	74.8929        	75.81126       	75.814095      	75.489655      	75.13924       	75.85938       	75.53476       	75.7618        	75.53194       	75.491875      	75.87123       	75.59844       	75.25828       	76.04817       	75.59624       	75.19583       	75.75593       	75.25474       	75.49729       	75.763885      	74.444336      	75.42293       	77.702965      	76.77228       	75.92633       	
75.790085      	75.59536       	75.53306       	75.40347       	75.4996        	76.238434      	75.01216       	75.66951       	75.41939       	75.91502       	75.60768       	75.38901       	75.40943       	75.75224       	75.5277        	75.77008       	75.27311       	75.63496       	75.642975      	75.65975       	75.232925      	76.10724       	75.508         	75.72064       	75.504555      	75.52878       	75.90866       	75.42894       	75.41215       	75.869545      	75.23691       	75.546936      	75.975784      	75.39437       	75.240585      	75.74976       	75.46232       	75.63209       	75.58181       	75.55293       	75.765495      	75.5707        	75.40874       	74.448784      	76.55521       	76.33683       	75.081825      	75.639984      	75.6363        	75.70635       	75.50656       	75.63927       	75.948204      	75.0806        	75.42217       	75.77208       	75.19792       	75.62817       	75.72436       	75.32771       	75.80664       	75.40879       	75.63635       	75.6026        	75.65801       	75.57901       	75.52515       	75.5724        	75.75719       	75.34183       	75.70086       	75.424385      	76.05598       	75.38475       	75.46377       	75.66236       	75.287636      	75.67284       	75.622314      	75.85066       	75.44245       	75.501976      	75.30872       	75.665375      	75.78463       	75.69412       	75.62177       	75.58317       	75.79016       	75.65696       	75.51845       	75.34234       	75.54302       	75.66768       	75.355705      	75.56001       	75.35886       	75.41259       	75.5161        	75.96261       	
75.67974       	75.40596       	75.72603       	75.9187        	75.50102       	75.328995      	75.61594       	75.85076       	75.45459       	75.406364      	75.73992       	75.47022       	75.155556      	75.74695       	75.50617       	75.78978       	75.37396       	75.869354      	75.465256      	75.74812       	75.15692       	76.22687       	75.61569       	75.41282       	75.82109       	75.47614       	75.46847       	75.65289       	75.71845       	75.508354      	75.38406       	75.68537       	75.69299       	75.6139        	75.82191       	75.173836      	75.99414       	75.37533       	75.54954       	75.93132       	75.4991        	75.24884       	75.69967       	75.69163       	75.47554       	75.511925      	75.60169       	75.88313       	75.50333       	75.56607       	75.62518       	75.70025       	75.22424       	75.78745       	75.73535       	75.347206      	74.96178       	75.61945       	76.424355      	75.68324       	74.74074       	75.605286      	75.72185       	75.35614       	75.34632       	75.75667       	75.19963       	75.542915      	76.04455       	75.4132        	75.59244       	75.75733       	75.58522       	75.661835      	75.33398       	75.92247       	75.63041       	75.25163       	75.323654      	75.75382       	75.622444      	75.81471       	75.31267       	75.65327       	75.42088       	75.840996      	75.967514      	75.3154        	75.54378       	75.69121       	75.5189        	75.41691       	75.44796       	75.89686       	75.83935       	74.808235      	75.41551       	80.89103       	80.09313       	77.920494      	
75.65156       	75.87796       	75.72476       	75.559204      	75.59363       	75.62124       	75.667366      	75.64694       	75.77889       	75.55702       	75.254906      	75.90279       	75.54157       	75.576584      	75.48548       	75.29204       	75.93312       	75.428085      	75.687355      	75.512695      	75.60161       	75.9835        	75.80636       	75.45456       	75.39837       	75.97066       	75.29146       	75.47142       	75.69008       	75.48274       	75.53247       	75.9096        	75.46969       	75.58359       	75.55222       	75.64692       	75.65256       	75.559296      	75.69076       	75.486176      	75.54703       	75.62356       	75.43093       	75.65705       	75.71813       	75.6146        	75.69247       	75.33767       	75.64705       	75.633316      	75.73893       	75.55039       	75.680275      	75.40316       	75.54699       	75.758194      	75.19479       	75.886536      	75.35873       	75.45513       	75.73627       	75.42312       	75.77363       	75.385666      	75.72644       	75.50597       	75.66645       	75.74437       	75.46759       	75.52964       	75.7235        	75.51461       	75.62282       	75.44721       	75.6136        	75.78635       	75.20207       	75.83774       	75.750374      	75.471695      	75.79355       	75.54282       	75.63721       	75.61363       	75.668945      	75.66231       	75.67065       	75.77073       	75.59615       	73.78509       	76.37198       	77.164635      	76.12613       	76.30939       	76.89492       	76.563515      	75.85679       	77.05052       	77.86123       	76.89658       	
75.266975      	75.39901       	75.31357       	75.811035      	75.84989       	75.46823       	75.77894       	75.565895      	75.2167        	75.92783       	75.62787       	75.66075       	75.40112       	75.47843       	76.177505      	75.56938       	75.36912       	75.60164       	75.60839       	75.30809       	75.780334      	75.54185       	75.78651       	75.61565       	75.9644        	75.65227       	75.150345      	75.63649       	75.68068       	75.63891       	75.44273       	76.0059        	75.22808       	75.73874       	75.31346       	75.88519       	75.51126       	75.39996       	76.08564       	75.32867       	75.70202       	75.115974      	76.06941       	75.7044        	75.399666      	75.84544       	75.573326      	75.44627       	75.58284       	75.38205       	75.76135       	75.65668       	75.62702       	75.66519       	75.687706      	76.0511        	74.48005       	75.61985       	75.389496      	75.68511       	75.59663       	75.546326      	75.64574       	75.49217       	75.524826      	75.62295       	75.52135       	75.9438        	75.37578       	75.485725      	75.69142       	75.50215       	75.29365       	75.81353       	75.92882       	75.33278       	75.2343        	75.873344      	75.61126       	75.71426       	75.60767       	75.60433       	75.681725      	75.55992       	75.45261       	75.64351       	75.17152       	75.7184        	77.92585       	77.25496       	76.78851       	76.20177       	75.803955      	76.14477       	76.14092       	75.6327        	75.263916      	75.93229       	75.84469       	76.11083       	
75.76404       	75.61379       	76.032776      	75.30021       	75.543175      	75.75698       	75.562904      	75.24324       	76.06473       	75.33321       	75.602974      	75.60478       	75.5404        	75.79947       	75.44036       	75.54309       	75.87004       	75.153564      	75.843575      	75.6685        	75.54835       	75.5349        	75.65164       	75.83234       	75.60728       	75.34357       	75.738144      	75.533195      	75.661285      	75.7541        	75.43008       	75.60848       	75.39678       	75.59712       	75.88475       	75.42156       	75.55628       	75.667534      	75.6038        	75.59571       	75.54843       	75.92582       	75.89515       	74.64903       	75.706795      	75.50265       	75.740074      	75.52615       	75.76911       	75.54487       	75.317505      	75.60622       	75.70063       	75.86696       	75.61581       	75.507774      	76.01439       	74.91944       	75.76229       	75.56241       	75.36973       	75.47884       	75.768364      	75.410034      	75.609535      	75.72167       	75.50827       	75.5988        	75.56915       	75.80981       	75.28323       	75.823204      	75.554184      	75.65437       	75.62312       	75.47443       	75.58912       	75.675545      	75.64466       	74.96889       	76.13767       	75.69331       	75.335655      	75.83495       	75.36796       	74.57032       	78.66809       	78.53025       	76.702324      	75.77185       	76.18115       	75.77731       	75.786674      	75.64553       	75.03779       	75.352715      	75.22269       	76.01614       	76.33093       	75.98194       	
75.38359       	75.621826      	75.70702       	75.28531       	75.88012       	75.46333       	75.86262       	75.40528       	75.53783       	75.54081       	75.916626      	75.29005       	75.57345       	75.41968       	75.78746       	75.31887       	75.643326      	75.500435      	75.78659       	75.53963       	75.667984      	75.532646      	75.94051       	75.33062       	75.54257       	75.89322       	75.490685      	75.780754      	75.494064      	75.369225      	75.59958       	75.57888       	75.81188       	75.47102       	75.27179       	75.83386       	75.48522       	75.76679       	75.35029       	75.864204      	75.52359       	75.248985      	76.06678       	75.62109       	75.33302       	75.69509       	75.70602       	75.45143       	75.643166      	75.69228       	75.5414        	75.29926       	75.651794      	75.63692       	76.02701       	75.22245       	75.441765      	75.730034      	75.39345       	75.409004      	75.493965      	75.64101       	75.6155        	75.532776      	75.67948       	75.60509       	75.60445       	75.55536       	75.63273       	75.566246      	74.988         	75.94452       	75.70088       	75.305824      	75.978775      	75.44142       	75.247635      	75.99487       	74.78867       	75.941414      	76.33757       	75.46792       	75.492516      	74.60089       	76.331505      	78.57707       	78.05759       	77.07347       	75.753456      	75.475395      	75.84701       	75.3432        	75.862015      	75.436874      	75.8175        	75.35105       	75.542274      	76.33544       	75.977264      	75.7326        	
75.43006       	75.64951       	75.35155       	75.44984       	75.6877        	75.42075       	75.953804      	75.532974      	75.327095      	75.68566       	75.57014       	75.78776       	75.64608       	75.667816      	75.458595      	75.62848       	75.53901       	75.84473       	75.41459       	75.544365      	75.574554      	75.52739       	75.70462       	75.38544       	75.88685       	75.75034       	75.34781       	75.55008       	75.7613        	75.43447       	75.52388       	75.56157       	75.67351       	75.65521       	75.70989       	75.52483       	75.80113       	75.728546      	75.369026      	75.5175        	75.781395      	75.37668       	75.651794      	75.71383       	75.32926       	75.612854      	75.54133       	75.66965       	75.772194      	75.34554       	75.5782        	75.89123       	75.565155      	75.55357       	75.3009        	75.742004      	75.49247       	75.74798       	75.375336      	75.388916      	75.55964       	75.735794      	75.58271       	75.453445      	75.815765      	75.28821       	75.96639       	75.39739       	75.784904      	75.38839       	75.79062       	75.40942       	75.58678       	75.64622       	75.73905       	75.327805      	75.577194      	75.58404       	75.50531       	75.74926       	75.50012       	75.22237       	75.67799       	74.223114      	79.556946      	78.15195       	76.72497       	76.788445      	75.76598       	75.63825       	75.76414       	75.19035       	76.04252       	74.46786       	76.55919       	75.9855        	74.66994       	75.66462       	76.49385       	75.40052       	
75.51499       	75.37803       	75.3573        	75.86467       	75.442314      	75.676025      	75.71067       	75.73088       	75.50507       	75.47932       	75.57514       	75.68427       	75.71702       	75.371315      	75.83865       	75.57972       	75.61311       	75.5352        	75.41619       	75.75935       	75.62193       	75.27391       	75.76886       	75.71656       	75.7693        	75.482895      	75.63104       	75.652985      	75.60378       	75.31192       	75.68178       	75.43205       	75.00767       	76.62361       	75.6286        	75.28956       	75.3408        	76.15657       	75.35098       	75.232796      	75.63575       	75.91619       	75.510574      	75.34898       	75.83097       	75.7602        	75.61268       	75.20896       	75.89361       	75.4548        	75.43599       	75.72528       	75.48444       	75.86374       	75.36329       	75.64216       	75.532845      	75.85367       	75.44421       	75.59192       	75.534355      	75.43683       	75.53765       	75.3294        	75.90137       	75.47439       	75.53257       	75.6335        	75.55195       	75.70485       	75.318245      	75.60337       	75.611176      	75.783844      	75.453125      	75.49154       	75.674774      	75.43514       	75.6854        	75.33999       	75.34212       	75.84161       	75.47439       	74.18279       	79.32005       	77.71389       	77.172325      	76.78528       	75.73662       	75.92474       	75.29388       	75.72814       	75.81436       	74.310326      	76.8066        	76.02575       	75.38599       	75.4234        	75.885475      	75.86471       	
75.239914      	75.79361       	75.66128       	75.57603       	75.67178       	75.40679       	75.45408       	75.71725       	75.684006      	75.51264       	75.4224        	75.50547       	75.893616      	75.43672       	75.74334       	75.343346      	75.792656      	75.753235      	75.21596       	75.69881       	75.49098       	75.272835      	75.84846       	75.639984      	75.6681        	75.43336       	76.0254        	75.280556      	75.70333       	75.34835       	75.658165      	74.79543       	75.60377       	76.32577       	75.62584       	75.29015       	75.75107       	75.407326      	75.542305      	75.831535      	75.49756       	75.6084        	75.573235      	75.77813       	75.70405       	74.73207       	76.397766      	75.6954        	75.298965      	75.6683        	75.43206       	75.48989       	75.736496      	75.24727       	75.60768       	75.41169       	75.65052       	75.70928       	75.433754      	75.26491       	75.76105       	75.65242       	75.61417       	75.55666       	75.331116      	75.70451       	75.4235        	75.56216       	75.45899       	75.69457       	75.611275      	75.911         	75.43197       	75.68118       	75.76497       	75.425186      	75.46142       	75.61984       	75.5879        	75.489296      	75.22833       	75.75424       	75.8005        	74.811035      	77.033676      	77.08453       	77.4874        	76.65199       	76.743286      	75.547745      	75.66978       	75.36877       	75.7894        	75.314255      	76.57232       	75.235054      	75.95627       	75.43205       	76.100334      	76.28681       	
75.64331       	75.28178       	75.76849       	75.30313       	75.89102       	75.68579       	75.60272       	75.77545       	75.50025       	75.513824      	75.849884      	75.41735       	75.67938       	75.44383       	75.552895      	75.68559       	75.36347       	75.756836      	75.42014       	75.515526      	75.908165      	75.56029       	75.63768       	75.46055       	75.47795       	75.863716      	75.44137       	75.69388       	75.83601       	75.63715       	75.24731       	75.96672       	75.441605      	75.51053       	75.72639       	75.67113       	75.391014      	75.83212       	75.51424       	75.55318       	75.67096       	75.54359       	75.52342       	75.39379       	75.638695      	75.716606      	75.43328       	75.931015      	75.4851        	75.36054       	75.548836      	75.66832       	75.66917       	75.68246       	75.6255        	75.28671       	75.82105       	75.55054       	75.38773       	75.53517       	75.63287       	75.33247       	75.697685      	75.486244      	75.80964       	75.456474      	75.63207       	75.99992       	75.61399       	75.334885      	75.71995       	75.59218       	75.29637       	75.96599       	75.4813        	75.659454      	75.492035      	75.54987       	75.52281       	75.632614      	75.41509       	75.59623       	75.570724      	74.97605       	75.90577       	78.16282       	77.32066       	76.8996        	76.19578       	75.7483        	75.69054       	75.17511       	75.02983       	76.435295      	76.47036       	75.04906       	74.38955       	75.06145       	76.27374       	77.08532       	
75.53057       	75.49225       	75.7469        	75.516884      	75.84092       	75.223526      	75.913376      	75.55411       	75.26899       	75.751945      	75.62215       	75.51514       	75.56903       	75.562454      	75.61106       	75.56926       	75.651764      	75.54507       	75.41274       	75.998764      	75.57818       	75.58598       	75.435036      	75.76738       	75.31106       	75.62507       	75.73822       	75.81819       	75.53954       	75.68655       	75.869576      	75.303         	75.778046      	75.4869        	75.56943       	75.76595       	75.595055      	75.601234      	75.60457       	75.19111       	75.95393       	75.46788       	75.405685      	75.36906       	75.77537       	75.41187       	75.842384      	75.95566       	75.385155      	75.592186      	75.38636       	75.636246      	75.86139       	75.72674       	75.38593       	75.70934       	75.78932       	75.10421       	75.66461       	75.448135      	75.33324       	75.58143       	75.67001       	75.65588       	75.81209       	75.555595      	75.53365       	75.46582       	75.55466       	75.77801       	75.539276      	75.45993       	75.52667       	75.509445      	75.61984       	75.476         	75.62419       	75.71819       	75.19788       	75.99252       	75.48591       	75.34071       	75.44124       	75.50322       	75.4626        	78.1163        	77.29963       	77.437805      	76.874504      	76.225136      	75.146545      	75.7448        	75.412346      	76.049164      	75.07064       	75.42805       	75.32068       	75.63074       	75.93163       	75.772484      	
75.51132       	75.59027       	75.6335        	75.68073       	75.62728       	75.39859       	75.41761       	75.47465       	75.86136       	75.63269       	75.77009       	75.29878       	76.02402       	75.07344       	75.75371       	75.88551       	75.43037       	75.150795      	75.95645       	75.657814      	75.37059       	75.76215       	75.56682       	75.465126      	75.460526      	75.724434      	75.86075       	75.384964      	75.61819       	75.54724       	75.69608       	75.5072        	75.769455      	75.38572       	75.81594       	75.224724      	75.386116      	75.91724       	75.56622       	75.651505      	75.784676      	75.40891       	75.356346      	75.73293       	75.39989       	75.75816       	75.638466      	75.57267       	75.54644       	75.88944       	75.637436      	75.061226      	75.82513       	74.76248       	76.553154      	77.195496      	77.04096       	76.81022       	75.65177       	74.52744       	74.28776       	73.25451       	73.731384      	75.60332       	75.58353       	75.437225      	75.72495       	75.45706       	75.64664       	75.36427       	75.715294      	75.559906      	75.60265       	75.740135      	75.73678       	75.57287       	75.51268       	75.50529       	75.47293       	75.823235      	75.21959       	75.35563       	75.81414       	75.41969       	74.101204      	78.62783       	78.321526      	76.92431       	76.602104      	76.62923       	74.915474      	75.3436        	75.831436      	76.20287       	75.04165       	75.60615       	75.45022       	75.221886      	75.8952        	75.948265      	
75.69146       	75.94059       	75.34436       	75.840996      	75.84844       	75.290245      	75.34076       	75.80013       	75.72364       	75.53688       	75.23827       	75.52577       	75.772354      	75.40503       	75.51657       	75.38678       	75.85583       	75.44971       	75.79584       	75.40102       	75.755005      	75.56549       	75.629616      	75.61118       	75.50773       	75.540764      	75.65859       	75.64997       	75.630165      	75.94278       	75.29104       	75.573875      	75.436646      	76.01887       	75.47299       	75.40305       	75.91314       	75.236176      	75.84729       	75.41918       	75.7137        	75.72647       	75.37288       	75.71702       	75.91618       	74.951965      	75.777504      	75.89639       	75.59449       	74.86471       	76.99458       	76.322685      	76.84157       	76.85576       	76.32955       	76.164474      	75.90009       	76.17779       	75.67139       	74.78073       	74.75399       	73.27511       	72.43313       	75.47413       	75.65024       	75.44746       	75.88696       	75.25878       	75.744156      	75.57278       	75.41117       	75.54352       	75.692696      	75.27821       	75.74607       	75.61202       	75.697075      	75.66982       	75.25944       	75.927315      	75.36332       	75.23755       	75.81887       	75.76236       	75.130905      	76.236176      	78.06496       	76.90725       	77.27462       	76.70047       	75.501495      	75.80804       	75.456406      	75.54092       	75.48987       	75.76791       	75.707726      	76.000374      	75.666756      	75.609924      	
75.61046       	75.6838        	75.719086      	75.09745       	75.90246       	75.56444       	75.52225       	75.33759       	75.672264      	75.660446      	75.502495      	75.3645        	75.55068       	75.98904       	75.420975      	75.75233       	75.85432       	75.36071       	75.40155       	75.874466      	75.47136       	75.55187       	75.31205       	75.606094      	75.490654      	75.435074      	75.922806      	75.54585       	75.57768       	75.56326       	75.80661       	75.39841       	75.52907       	75.719025      	75.52055       	75.6164        	75.58712       	75.56404       	75.336174      	75.732605      	75.632095      	75.49278       	75.764305      	75.18054       	75.73307       	74.60063       	76.011955      	78.25253       	77.072014      	77.018486      	76.207886      	75.99501       	76.08661       	76.013176      	75.54288       	75.52857       	75.70392       	75.51837       	75.05191       	75.06019       	74.13558       	73.933395      	71.68299       	75.50454       	75.46877       	75.53442       	75.26142       	75.71136       	75.80124       	75.53473       	75.304825      	75.95491       	75.56008       	75.088875      	75.72111       	75.83591       	75.33931       	75.73881       	75.223465      	75.78761       	75.77943       	75.31574       	75.57076       	75.568756      	75.583595      	75.011566      	78.637405      	77.48354       	76.49392       	76.68017       	75.54568       	75.935715      	75.53158       	75.62764       	75.49055       	75.51596       	75.51299       	75.47582       	75.8651        	76.243744      	
75.50169       	75.63191       	75.710785      	75.64693       	75.476715      	75.584694      	75.47285       	75.63045       	75.69669       	75.5211        	75.4208        	75.81832       	75.27109       	75.64844       	75.63127       	75.47367       	75.84733       	75.392456      	75.638054      	75.83376       	75.39636       	75.73308       	75.551414      	75.48199       	75.79145       	75.456024      	75.93645       	75.59372       	75.693474      	75.44872       	75.459526      	75.255394      	75.94925       	75.76961       	75.3824        	75.33713       	75.451904      	75.60644       	75.63346       	75.548775      	74.82705       	75.60714       	77.363396      	76.58107       	77.14906       	76.64444       	75.92671       	76.65752       	75.84129       	75.53325       	75.88308       	75.512695      	75.696526      	75.25511       	76.04522       	75.3937        	75.66091       	75.07802       	75.63604       	75.539925      	74.10309       	73.18347       	73.33259       	74.62183       	75.32266       	75.564896      	75.65788       	75.560356      	75.397644      	75.640015      	75.69142       	75.46114       	75.40595       	75.83221       	75.39576       	75.655396      	75.71516       	75.51451       	75.40264       	75.65743       	75.53223       	74.50458       	76.5678        	75.50285       	75.472916      	75.16339       	78.8672        	77.11942       	77.20207       	76.63897       	75.45384       	75.63763       	75.67538       	75.71622       	75.69721       	75.427345      	75.459045      	75.419655      	75.36777       	76.52386       	
75.84129       	75.48753       	75.53879       	75.68942       	75.80286       	75.432526      	75.336655      	75.84971       	75.414116      	75.70022       	75.41271       	75.801384      	75.579605      	75.60082       	75.51754       	75.90517       	75.302826      	75.72808       	75.46129       	75.54588       	75.85852       	75.538925      	75.65935       	75.70325       	75.488235      	75.495285      	75.87729       	75.69863       	75.35732       	75.56642       	75.81727       	74.83655       	75.66893       	76.0734        	75.59326       	75.68317       	73.85364       	77.02918       	77.437386      	76.92865       	77.248116      	76.36822       	75.84438       	76.35087       	75.95913       	75.635475      	75.536865      	75.69322       	75.64951       	75.646385      	75.42903       	75.40513       	76.00348       	75.5129        	75.13405       	76.00228       	75.67139       	75.53363       	75.93581       	75.265884      	74.71029       	73.29117       	73.406425      	73.47556       	75.57543       	75.65447       	75.746124      	75.60039       	75.43483       	75.64385       	75.75131       	75.36622       	75.55732       	75.50864       	75.7409        	75.56808       	75.42657       	75.83245       	75.54154       	75.38523       	75.43265       	75.76162       	75.390366      	75.273926      	75.49269       	74.56264       	78.80038       	77.6882        	77.24998       	76.61127       	76.6011        	75.55824       	75.09808       	76.263535      	75.42949       	75.00932       	75.372345      	75.61829       	76.78293       	76.363205      	
75.90876       	75.692245      	75.65232       	75.55155       	75.66819       	75.21418       	75.74954       	75.57456       	75.881294      	75.63357       	75.20755       	75.87651       	75.51236       	75.66118       	75.33852       	75.45298       	76.06195       	75.63952       	75.44111       	75.82313       	75.084114      	76.070244      	75.47602       	75.76344       	75.170265      	75.68066       	75.842636      	75.542404      	75.74008       	75.372314      	75.81149       	75.462265      	73.99274       	78.09968       	77.275505      	76.60909       	76.48127       	76.347046      	76.537766      	75.87402       	75.49206       	75.72029       	75.92162       	75.40002       	75.55688       	75.710304      	75.59726       	75.778786      	75.398186      	75.64765       	75.27778       	76.03566       	75.433784      	75.585526      	75.8657        	75.34691       	75.48501       	75.44482       	75.88932       	75.42489       	74.67368       	74.10428       	73.13056       	72.976364      	75.705795      	75.423294      	75.64616       	75.54308       	75.74397       	75.662704      	75.24621       	75.75482       	75.47288       	75.80326       	75.37306       	75.48625       	75.73713       	75.47395       	75.085754      	75.78275       	75.674644      	75.5046        	75.301605      	75.703316      	75.471115      	74.92168       	77.22784       	78.31254       	77.44572       	76.35607       	76.6614        	75.556755      	75.42321       	75.33482       	75.863         	75.4939        	75.39051       	75.64376       	76.220795      	76.456535      	
75.25767       	75.629234      	76.03665       	75.330025      	75.93164       	75.17665       	75.69586       	75.732185      	75.53837       	75.7155        	75.58123       	75.31799       	75.71611       	75.65031       	75.122185      	75.935646      	75.389854      	75.64712       	75.655655      	75.397316      	75.835754      	75.60447       	75.14915       	75.95652       	75.38609       	75.8836        	75.592674      	75.8151        	74.436775      	77.80827       	76.9185        	76.60514       	76.61314       	76.41388       	76.495705      	75.94806       	75.72525       	75.83211       	75.15789       	75.72838       	75.91541       	75.268524      	75.835365      	75.4118        	75.932274      	75.518         	75.69557       	75.353325      	75.61452       	75.78517       	75.32015       	75.60246       	75.62527       	75.501396      	75.79279       	75.48391       	75.73518       	75.52864       	75.97019       	75.32954       	75.35272       	74.940094      	72.23233       	72.471924      	75.86955       	75.25866       	75.579285      	75.46683       	75.823364      	75.34371       	75.70835       	75.62303       	75.793045      	75.54304       	75.45706       	75.67305       	75.68402       	75.47044       	75.34328       	75.54936       	75.942764      	75.34056       	75.82156       	75.31161       	75.91937       	74.96255       	75.18673       	78.82317       	77.53971       	76.994576      	76.2932        	75.91919       	76.010345      	75.19012       	75.500595      	75.34355       	75.397484      	75.94145       	76.02457       	75.88674       	
75.63743       	75.68292       	75.34145       	75.45031       	75.719154      	75.23556       	75.82815       	75.71661       	75.43656       	75.600914      	75.3285        	75.716576      	75.49064       	75.46883       	75.8029        	75.77699       	75.448494      	75.69234       	75.20467       	75.955765      	75.43022       	75.57057       	75.60983       	75.42633       	75.49156       	74.83253       	76.52097       	78.91252       	77.435295      	76.10828       	76.16196       	76.11421       	75.9112        	75.68473       	75.578354      	75.46012       	75.45965       	76.06948       	75.35881       	75.520515      	75.756996      	75.30817       	75.84912       	75.46901       	75.72814       	75.81141       	75.4229        	75.536766      	75.461334      	75.58662       	75.73799       	75.76302       	75.27044       	75.63394       	75.79647       	75.51591       	75.38571       	75.69695       	75.54492       	76.0249        	74.975624      	74.36733       	72.90402       	72.22583       	75.03625       	75.53833       	75.651146      	75.70652       	75.32348       	75.24764       	75.53087       	75.946106      	75.15428       	75.627815      	75.39346       	76.032486      	75.52314       	75.62523       	75.58674       	75.40221       	75.94454       	75.14276       	75.85695       	75.18951       	75.62776       	75.351555      	74.27374       	79.80592       	77.72815       	76.85168       	76.3989        	76.312355      	75.48508       	75.692726      	74.637054      	75.52579       	75.37875       	75.75479       	75.4827        	75.3991        	
75.747856      	75.91897       	75.70284       	75.46478       	75.5379        	75.8104        	75.363884      	75.574066      	75.78632       	75.45708       	75.9167        	75.25653       	75.6307        	75.72116       	75.3206        	75.79167       	75.57704       	75.68183       	75.6443        	75.527336      	75.337105      	75.71207       	75.56919       	75.49097       	73.8555        	79.319595      	78.573395      	77.78133       	75.72922       	75.82816       	75.66576       	75.77456       	75.26497       	75.77862       	75.58981       	75.301186      	75.65775       	75.475876      	75.57921       	75.35747       	75.50294       	75.7324        	75.67845       	75.64794       	75.280426      	76.066795      	75.26016       	75.493614      	75.85149       	75.69507       	75.46094       	75.35589       	75.40999       	75.64949       	75.669556      	75.452774      	75.87128       	75.70158       	75.57559       	76.16542       	74.9831        	75.022285      	73.57058       	72.80777       	73.516426      	76.16118       	74.44953       	76.01477       	75.58968       	75.49252       	75.608215      	75.72615       	75.52999       	75.61988       	75.783585      	75.69399       	75.46755       	74.856544      	75.70614       	75.828255      	75.18999       	75.25816       	75.80595       	75.19944       	75.15144       	75.81238       	74.05543       	78.457375      	77.9527        	77.188965      	76.844475      	76.44682       	75.35193       	75.70766       	75.6119        	75.194305      	75.63939       	75.72137       	75.84572       	75.6913        	
75.72688       	75.54126       	75.53006       	75.85916       	75.447716      	75.465164      	75.272835      	75.436966      	76.20593       	75.18379       	75.70134       	75.78577       	75.424736      	75.473114      	76.08649       	75.02113       	75.13529       	76.154236      	75.1806        	75.93236       	75.269646      	75.6756        	75.43988       	74.18085       	78.25908       	78.71235       	77.23936       	76.342735      	75.87028       	75.654144      	75.35311       	75.7824        	75.463196      	76.01798       	75.37571       	75.416916      	75.64048       	75.61578       	75.72606       	75.39984       	75.63253       	75.4269        	75.70047       	75.69469       	75.84099       	75.4272        	75.68429       	75.67621       	75.72909       	75.24956       	75.99265       	75.44408       	75.557846      	75.638824      	75.70096       	74.612564      	76.67932       	75.41743       	75.64494       	76.04031       	75.52106       	75.12133       	74.52726       	72.15381       	73.41082       	75.507835      	75.106606      	75.80749       	75.43816       	75.74223       	75.09632       	76.098015      	75.3132        	75.2267        	75.91628       	75.76788       	75.498436      	75.42716       	75.78978       	75.697296      	75.59025       	75.16312       	75.81167       	75.585         	75.34231       	76.00233       	75.04351       	75.5174        	78.6492        	77.88446       	76.802185      	76.66551       	75.2242        	75.49983       	75.41978       	75.72346       	75.461136      	74.91668       	76.142784      	76.832825      	
75.55405       	75.699425      	75.72827       	75.64282       	75.67213       	75.32107       	75.3556        	76.06031       	75.63491       	75.522095      	75.66487       	74.942116      	75.91582       	75.88497       	75.25172       	75.504906      	75.657646      	75.41105       	75.49557       	75.49677       	75.51925       	75.581894      	75.66451       	74.75853       	79.55532       	77.15307       	76.8067        	76.85707       	75.92388       	75.55444       	75.2841        	75.74677       	75.51798       	75.37451       	75.69732       	75.40951       	75.437004      	75.6117        	75.80233       	75.52525       	75.43967       	75.627235      	75.8484        	75.12938       	75.87615       	75.32466       	75.840744      	75.65221       	75.2687        	75.63169       	75.46381       	75.88994       	75.62261       	75.41583       	75.6129        	75.47977       	75.9043        	75.46875       	75.82873       	75.68949       	75.52401       	75.439415      	74.54536       	72.53376       	72.72302       	75.13592       	75.65886       	75.27112       	75.76383       	75.95383       	75.175514      	75.79752       	75.58112       	75.51085       	75.59702       	75.75661       	75.609436      	75.33098       	75.48993       	75.835175      	75.50438       	75.32993       	75.364746      	76.17151       	75.070305      	75.621124      	74.94331       	75.94041       	78.89947       	77.10247       	76.73801       	76.33347       	75.864685      	75.66387       	75.74133       	75.72912       	75.57435       	75.9819        	75.879326      	76.392784      	
75.764755      	75.88483       	75.58994       	75.54403       	75.33586       	75.73269       	75.51445       	75.635796      	75.98708       	74.960304      	75.560974      	75.87836       	75.381805      	75.80474       	75.3846        	75.92773       	75.33544       	75.849686      	75.59941       	75.183136      	75.64492       	75.08876       	75.375496      	74.91043       	78.88626       	77.61981       	76.549904      	77.41251       	76.16642       	75.34565       	75.71487       	75.66279       	75.76073       	75.53771       	75.621506      	75.704636      	75.659004      	75.62063       	75.76196       	75.14033       	75.864456      	75.029106      	76.366745      	75.28902       	75.5714        	75.68495       	75.1189        	75.90711       	75.49041       	75.53105       	75.97845       	75.51287       	75.40643       	76.0127        	75.15304       	75.42594       	76.03341       	75.196686      	75.9765        	75.24438       	75.9379        	75.45838       	74.98358       	74.28432       	70.78778       	74.99623       	75.27791       	75.28305       	76.27207       	75.76633       	74.96345       	75.59247       	75.70152       	75.64189       	75.333206      	75.63821       	75.76716       	75.24293       	75.48686       	75.45939       	75.5323        	75.778206      	75.46049       	75.880516      	75.4091        	75.51642       	75.1584        	74.45352       	78.24703       	78.02668       	77.60142       	76.87275       	76.038734      	75.28663       	74.9363        	75.42769       	76.48311       	75.627365      	75.93948       	75.33345       	
75.56668       	76.0963        	75.44728       	75.44646       	75.47793       	75.63723       	75.8058        	75.33483       	75.44518       	75.79738       	75.404594      	75.66541       	75.841064      	75.46446       	75.51145       	75.40636       	75.54743       	75.96586       	75.29759       	75.68272       	75.25937       	75.665405      	75.58292       	73.67907       	79.14045       	77.244286      	77.02704       	77.46061       	75.98693       	75.41069       	75.84545       	75.2571        	75.68674       	75.39696       	76.33223       	75.08007       	75.66624       	75.56655       	75.46176       	75.67765       	75.67196       	75.577614      	75.55469       	75.80599       	75.64234       	75.347466      	75.68283       	75.60861       	75.60581       	75.36319       	76.009865      	75.58671       	75.52832       	75.24602       	75.800865      	75.69803       	75.72527       	75.39267       	75.635216      	75.44993       	75.32193       	76.05184       	74.87149       	73.684364      	72.90514       	73.32492       	75.29644       	75.53105       	75.78832       	75.55811       	75.49905       	75.72483       	75.47497       	75.46644       	75.777985      	75.53769       	75.53469       	75.61731       	75.447105      	75.63063       	75.430756      	75.60379       	75.401566      	75.50572       	75.51319       	75.72289       	75.225044      	74.662895      	79.5367        	77.99266       	76.52775       	76.46432       	76.59818       	75.39955       	74.04386       	77.67633       	76.30908       	75.056595      	75.10902       	75.48685       	
75.70167       	75.8765        	75.23567       	75.81138       	75.729996      	75.56208       	75.59702       	75.35394       	75.48556       	75.49529       	75.5336        	75.82238       	75.76398       	75.37555       	75.721634      	75.65905       	75.67524       	75.75088       	75.16736       	75.49453       	75.376625      	75.50216       	75.37628       	74.96621       	76.71905       	78.16828       	76.83738       	76.927795      	77.04773       	75.61044       	75.85258       	75.31105       	75.608185      	75.63898       	75.582695      	75.595184      	75.41466       	75.82113       	75.25905       	75.53492       	75.688774      	75.89168       	75.63767       	75.42214       	75.452255      	75.511024      	75.755745      	75.235306      	76.06149       	75.639656      	75.306244      	75.779655      	75.57886       	75.395515      	75.798645      	76.098076      	74.85929       	75.62247       	75.5908        	75.80221       	75.868454      	75.31517       	74.87004       	74.32977       	73.13533       	73.29087       	75.0789        	75.612206      	75.38706       	75.61472       	75.608734      	75.51533       	75.466354      	75.81335       	75.48029       	75.58391       	75.447075      	75.60017       	75.58422       	75.58446       	75.2719        	75.82832       	75.55659       	75.43003       	75.10175       	75.64163       	75.52694       	74.755905      	77.85263       	77.97819       	77.65011       	76.12836       	76.909164      	75.484055      	75.04198       	75.58977       	74.43594       	76.56169       	78.14233       	76.51949       	
75.543884      	75.35619       	75.53028       	75.750755      	75.38831       	75.74008       	75.744736      	75.376495      	75.28279       	75.97767       	75.68401       	75.704666      	75.43611       	75.72851       	75.518974      	75.42267       	75.68662       	75.574135      	75.66936       	75.55714       	75.41283       	75.26739       	75.523125      	75.702934      	75.104454      	78.33215       	77.558464      	76.655426      	76.5619        	75.99409       	75.509544      	75.63421       	75.52137       	75.67277       	75.13152       	75.26366       	76.31863       	75.20594       	75.41195       	75.31674       	75.91144       	75.66273       	75.44935       	75.45996       	75.93381       	75.134865      	75.41134       	76.15052       	75.20617       	75.68795       	75.43023       	75.515816      	75.9272        	75.61128       	75.41418       	75.699936      	74.55654       	76.84411       	76.10997       	74.922745      	75.434906      	76.43069       	74.43585       	74.64781       	72.811806      	73.04417       	75.079544      	75.49292       	75.57232       	75.834785      	74.79587       	76.173225      	75.25561       	75.505135      	75.69588       	75.48359       	75.43198       	75.92601       	75.40469       	75.813805      	75.525696      	75.024666      	75.967255      	75.46827       	75.54953       	75.46236       	75.48287       	75.4235        	75.96173       	79.01302       	77.26243       	75.79263       	77.34248       	76.00291       	75.85974       	75.285736      	75.84369       	75.872246      	75.46958       	75.530716      	
74.95722       	71.585556      	73.44491       	75.64732       	75.29213       	75.88604       	75.12364       	76.18383       	74.91921       	75.42325       	76.0728        	75.33748       	75.27717       	75.48864       	75.544655      	75.91046       	75.505806      	75.15769       	75.87819       	75.57219       	75.03456       	75.71892       	75.53748       	75.39097       	74.17828       	79.502815      	77.953545      	76.97758       	76.61137       	76.197685      	75.28095       	75.75656       	75.38683       	75.37428       	75.18845       	76.464714      	75.99388       	74.27017       	76.009         	75.341736      	75.93369       	75.30816       	75.94444       	75.294914      	75.853584      	75.81846       	74.91719       	75.57787       	75.7932        	75.823975      	75.38776       	75.69636       	75.51162       	75.12814       	75.19827       	74.4507        	76.763756      	76.760895      	75.11429       	74.94401       	75.99693       	75.38208       	74.78334       	74.23553       	73.43941       	72.91704       	75.11559       	75.44339       	75.439674      	75.29148       	75.541         	75.641106      	75.75069       	75.75624       	75.36154       	75.857895      	75.515144      	75.46516       	75.62903       	75.45031       	75.839874      	75.516785      	75.63459       	75.662346      	75.79915       	75.63438       	75.41689       	75.165924      	73.98786       	79.25386       	77.201294      	76.97273       	76.91639       	76.36294       	75.298004      	75.62379       	75.0182        	76.282425      	75.78336       	75.71657       	
75.12293       	73.02717       	72.30572       	75.21951       	75.33021       	75.721054      	75.667496      	75.34388       	75.366455      	75.69932       	75.41504       	75.70798       	75.73062       	75.3557        	75.61096       	75.84641       	75.28025       	75.58331       	75.49332       	75.98548       	75.364136      	75.35538       	75.642006      	75.4193        	74.84278       	77.138535      	78.6763        	76.90611       	76.56354       	76.34848       	75.991196      	75.13536       	75.24373       	75.97248       	75.75954       	75.33645       	75.54732       	75.54791       	75.929726      	75.39383       	75.68281       	75.65258       	75.724365      	75.54093       	75.61438       	75.601395      	75.28723       	75.92755       	75.52558       	75.465546      	74.98712       	76.087875      	75.585335      	75.44383       	76.13881       	75.73681       	75.51948       	75.67901       	75.70385       	75.40207       	75.82525       	75.508125      	75.701935      	73.94126       	74.37531       	72.80925       	73.436195      	75.59122       	75.55293       	75.50167       	75.778824      	75.4586        	75.572586      	75.71087       	75.586845      	75.363174      	75.568344      	75.773994      	75.48422       	75.71685       	75.573685      	75.629486      	75.52843       	75.29338       	75.72994       	75.33107       	75.86732       	75.64615       	74.24356       	77.69737       	78.618904      	77.25334       	76.55363       	76.01837       	75.3444        	75.4787        	74.932755      	76.611755      	77.27057       	75.59022       	
75.65533       	74.256         	71.5223        	75.50206       	74.57216       	75.47361       	75.76657       	75.59892       	75.56713       	75.66795       	75.540085      	75.638824      	75.27564       	75.91378       	75.4739        	75.57412       	75.82425       	75.31184       	75.19001       	75.77672       	75.405426      	75.65769       	75.362076      	75.2875        	75.21863       	75.01414       	79.13849       	77.40486       	76.60046       	77.13824       	75.79009       	75.19952       	76.27887       	75.42744       	75.42826       	75.49083       	75.5394        	75.68911       	75.53578       	75.92797       	75.274506      	75.79137       	75.46903       	75.618454      	75.7466        	75.44786       	75.50042       	75.9514        	75.6129        	75.33002       	75.72586       	75.74524       	75.95138       	75.36025       	75.272         	75.85602       	75.51108       	75.674706      	75.56684       	75.62111       	75.92075       	75.34083       	75.59684       	75.28241       	74.74353       	72.371925      	72.29265       	75.34606       	75.79291       	75.65852       	75.23292       	75.66158       	75.70122       	75.37508       	75.576126      	75.47597       	75.885994      	75.73765       	75.417046      	75.39529       	75.713936      	75.6407        	75.59866       	75.29762       	75.92209       	75.28589       	75.920845      	75.383194      	73.975         	77.928955      	78.03026       	76.89952       	76.2987        	76.50437       	75.44753       	75.150154      	74.59241       	77.047264      	77.32031       	76.28158       	
75.34368       	73.98382       	72.41333       	74.15218       	75.76256       	75.710884      	75.14971       	75.591805      	75.39552       	75.82507       	75.136284      	75.969925      	75.72921       	75.29138       	75.86708       	75.091805      	76.32808       	74.86562       	75.81097       	75.90236       	75.04888       	75.97855       	75.41864       	75.670555      	75.31109       	73.75455       	78.49209       	78.81293       	77.17809       	75.45556       	76.61662       	76.56631       	75.61789       	75.26689       	75.6683        	75.88207       	75.68549       	75.17488       	76.12817       	75.13593       	75.759346      	75.64489       	75.5493        	75.77234       	75.089134      	75.24561       	76.33461       	75.24852       	75.72014       	75.578705      	75.72222       	75.51115       	75.77893       	75.67159       	75.55947       	75.54625       	75.98651       	74.7681        	75.6632        	76.575424      	74.33369       	76.635475      	75.89189       	75.171074      	74.5721        	72.955574      	72.23178       	74.93107       	75.45236       	75.78773       	75.30571       	75.7674        	75.414764      	75.69036       	75.62825       	75.28814       	75.78032       	75.4134        	75.61018       	75.62852       	75.74137       	75.53284       	75.59036       	75.56723       	75.316414      	75.48438       	75.64256       	75.49424       	74.74403       	76.85493       	78.75554       	77.41174       	77.053246      	76.372696      	75.92626       	75.32894       	75.64922       	75.50292       	75.98084       	75.81488       	
75.69108       	74.20138       	71.87191       	74.1453        	75.14775       	75.47576       	75.66473       	75.39439       	75.7572        	75.53693       	75.40343       	75.721855      	75.561424      	75.78074       	74.51932       	75.68643       	76.41866       	75.70801       	74.922134      	75.77366       	75.72849       	75.22662       	75.35831       	76.05006       	75.297226      	73.626884      	78.2639        	77.90934       	77.65917       	76.484505      	75.945694      	76.034645      	75.408745      	75.477806      	75.761284      	75.43751       	75.76318       	75.53892       	75.39172       	76.08932       	75.26882       	75.64219       	75.72864       	75.84338       	75.52591       	75.58167       	75.454124      	75.596825      	75.68525       	75.519585      	75.75457       	75.37341       	75.191055      	76.19552       	75.444         	75.33767       	75.613335      	75.998184      	75.52023       	75.62176       	75.34074       	76.25747       	75.56617       	75.23619       	75.26128       	73.43596       	72.55092       	73.578514      	75.61399       	75.85409       	75.51806       	75.84714       	75.34822       	75.70372       	75.88695       	75.25221       	75.84587       	75.60021       	75.420876      	75.88623       	75.75973       	74.880325      	75.72452       	75.46997       	75.633095      	75.38526       	75.61592       	75.72988       	75.38135       	74.4562        	79.74805       	77.77138       	76.5124        	76.44317       	76.26738       	75.51403       	75.80388       	75.13012       	75.94179       	76.450836      	
75.4601        	74.24612       	72.621414      	73.089775      	75.519         	75.81934       	75.713844      	75.34423       	75.44161       	75.84207       	75.45873       	75.45395       	75.89814       	74.842026      	76.46112       	74.44302       	76.02247       	76.15024       	74.9363        	75.651215      	75.75385       	75.03913       	75.189285      	76.07115       	75.25299       	75.3204        	75.885414      	78.34072       	77.20784       	77.23891       	76.57785       	75.761635      	75.67876       	75.58855       	75.67353       	75.33839       	75.92958       	75.47898       	75.46888       	75.29156       	75.87933       	75.58359       	75.401306      	76.19842       	75.49976       	75.20951       	75.75844       	75.567894      	75.52373       	75.72857       	75.39583       	75.888855      	75.61989       	75.557526      	75.68836       	75.324165      	75.72586       	75.655495      	75.5104        	75.703865      	75.56608       	75.881775      	75.58492       	75.43465       	74.966064      	74.18396       	72.48038       	73.50769       	75.62322       	75.622635      	75.40153       	75.55985       	75.741005      	75.63084       	75.51949       	75.37214       	75.80238       	75.506546      	75.68192       	75.04482       	75.947014      	75.34528       	75.972984      	75.286476      	75.656395      	75.45994       	75.5404        	76.01351       	75.30984       	73.96008       	78.18735       	77.99219       	77.3291        	76.79873       	75.544         	74.539795      	75.49362       	75.58123       	76.316505      	76.217         	
75.41261       	75.14163       	72.30157       	72.591774      	75.6719        	75.47354       	76.13573       	75.317215      	75.36788       	75.748886      	75.42911       	75.42677       	74.611305      	76.74768       	76.23439       	74.574974      	75.524055      	75.869095      	75.16235       	75.58649       	75.26514       	75.7201        	75.22694       	75.61233       	75.397385      	75.43388       	74.64023       	79.40171       	78.02291       	77.29045       	76.284096      	75.97018       	75.567245      	75.746544      	74.88256       	76.219696      	76.012276      	74.98252       	75.31925       	75.702126      	75.5916        	75.55664       	75.90095       	75.78451       	75.64299       	75.23747       	75.71162       	75.609634      	75.756134      	75.4399        	75.5815        	75.38392       	75.89453       	75.400894      	75.50586       	76.07547       	74.977875      	75.283066      	76.03799       	75.372894      	75.859085      	75.457565      	75.66548       	75.837685      	74.98616       	73.947296      	72.22279       	73.60062       	75.28821       	75.7761        	75.51601       	75.53435       	75.96844       	75.53909       	75.41225       	75.83875       	75.39105       	75.43338       	75.42084       	75.45706       	75.781075      	75.44199       	75.636406      	75.53463       	75.35927       	75.66922       	75.09644       	75.82834       	75.20683       	75.18644       	76.72281       	78.362434      	77.47129       	76.84731       	76.44053       	75.31398       	75.68739       	76.38234       	76.15938       	75.52773       	
75.67736       	75.07628       	74.247154      	71.56264       	74.65323       	75.837135      	75.67743       	74.83405       	75.978355      	75.52053       	75.98174       	75.33665       	75.56869       	75.098045      	76.29845       	75.78435       	74.76891       	75.68308       	75.73761       	75.264         	75.9488        	75.41854       	75.426346      	75.528824      	75.18097       	75.26723       	74.967606      	79.10027       	77.10075       	78.07127       	77.00615       	75.516754      	75.6597        	74.26249       	76.713844      	76.26779       	74.66553       	75.58705       	76.70724       	74.49889       	75.962395      	76.353096      	75.31883       	75.69287       	75.63573       	75.89717       	74.37359       	75.480804      	75.27774       	75.6811        	75.77622       	75.67675       	75.433334      	75.37742       	75.839294      	75.70681       	75.37911       	75.7907        	75.59712       	75.55975       	75.33968       	75.94937       	75.48678       	75.2654        	75.34132       	74.28931       	72.90587       	72.490166      	75.22658       	75.92456       	75.31219       	75.57358       	75.53801       	75.62536       	75.405205      	75.86361       	75.40157       	75.69125       	75.467384      	75.76097       	75.54799       	75.46871       	75.596725      	75.47517       	75.57726       	75.73448       	75.32609       	75.62548       	75.43793       	75.25093       	76.15596       	78.82476       	77.47413       	76.579384      	76.412796      	76.39327       	75.43825       	75.30437       	75.24888       	74.641945      	
75.26536       	74.88835       	74.06221       	71.85161       	74.40629       	75.422005      	75.450165      	75.75957       	75.31298       	75.68025       	75.427925      	75.70438       	75.3479        	75.98442       	75.43796       	75.366714      	75.10447       	76.15845       	75.78127       	75.49948       	75.350716      	75.74979       	74.646034      	76.08724       	75.35927       	75.69867       	73.574104      	79.56951       	77.80396       	77.31905       	76.51795       	75.9941        	75.04878       	76.48546       	75.29603       	75.49706       	75.700775      	75.43097       	75.852135      	75.381485      	75.58412       	75.800476      	75.41381       	75.539536      	76.107605      	74.52599       	76.60712       	76.12789       	74.96427       	75.08098       	75.90159       	75.538795      	75.39515       	75.74794       	75.435165      	75.34617       	76.16272       	75.25561       	75.484276      	75.78075       	75.65032       	75.25742       	76.025665      	75.98047       	75.40146       	74.43915       	73.67734       	72.40568       	74.443886      	75.46439       	75.395546      	75.776855      	75.803696      	75.61619       	75.76795       	75.55868       	75.53527       	75.5157        	75.47815       	75.50526       	75.39465       	75.5685        	75.758736      	75.635994      	75.23674       	75.88624       	75.58441       	75.5982        	75.76799       	75.44553       	74.632355      	79.36131       	77.1698        	76.0445        	76.10843       	76.30063       	75.95597       	74.4339        	74.23621       	74.334915      	
74.87796       	74.88061       	75.23777       	72.21055       	73.45331       	75.86111       	75.313385      	75.48426       	75.29718       	76.30776       	75.37279       	75.57502       	75.66805       	74.80366       	75.77056       	76.420265      	74.90348       	76.331154      	75.66549       	74.67061       	75.957344      	75.095505      	75.34253       	76.44982       	74.667885      	75.65801       	74.032364      	78.25702       	78.04404       	76.46802       	76.874435      	76.157974      	75.90737       	76.32002       	74.74098       	75.837555      	75.444725      	75.44635       	75.75267       	75.6425        	75.594154      	75.50307       	75.496605      	75.65907       	74.69291       	76.723145      	76.66162       	76.49272       	74.98577       	74.070114      	75.61596       	75.810844      	75.0334        	75.60498       	75.61291       	75.5909        	75.57104       	75.86893       	75.49122       	75.57767       	75.77975       	75.27966       	76.41594       	75.860756      	75.289474      	75.271774      	74.13252       	71.1623        	74.13575       	75.42827       	75.539665      	75.736465      	75.76246       	75.53677       	75.35963       	75.58792       	75.735886      	75.38629       	75.53757       	75.69068       	75.65327       	75.21571       	75.81843       	75.279396      	75.912994      	75.32346       	75.4328        	75.73098       	75.34873       	75.810265      	74.59167       	77.587         	76.43198       	76.49536       	77.077286      	76.42944       	74.08794       	74.815575      	75.48038       	73.175285      	
75.01241       	75.028305      	74.02758       	73.85044       	72.289185      	75.45423       	75.801056      	75.60306       	75.546005      	75.65281       	75.95909       	75.5426        	74.91161       	75.175606      	76.15906       	76.473434      	74.44602       	75.570755      	75.64493       	75.52489       	75.546585      	75.6588        	75.01246       	76.38122       	74.686485      	75.89957       	74.50426       	75.53323       	80.03192       	77.5098        	75.30447       	76.74714       	76.544975      	75.93975       	75.004005      	75.65193       	75.53792       	75.80948       	75.38958       	75.9182        	75.36509       	75.8151        	75.34763       	75.214745      	75.65135       	76.07294       	76.805885      	76.512535      	73.619446      	75.37234       	75.581856      	75.41842       	75.855125      	75.45152       	75.835625      	75.38615       	75.748474      	75.43583       	75.743484      	75.603745      	75.56729       	75.67732       	75.56082       	76.07595       	75.90896       	74.72671       	74.19759       	72.43469       	72.1683        	75.32166       	75.89743       	75.32425       	75.798325      	75.41117       	75.33903       	76.22682       	75.228195      	75.86234       	75.26547       	75.625046      	75.60424       	75.622055      	75.67437       	75.20122       	75.27573       	75.67761       	75.654175      	75.42945       	75.41817       	75.84291       	75.26657       	75.75259       	76.21222       	77.86622       	77.0463        	76.14428       	75.80557       	73.71807       	73.7827        	73.69711       	
75.571815      	75.45847       	74.24686       	73.86855       	71.87882       	74.49111       	76.00922       	75.53136       	75.57986       	75.445984      	75.64919       	75.54129       	74.86915       	76.24689       	75.52529       	75.84772       	75.44641       	75.36921       	75.829765      	75.43724       	75.7845        	75.67377       	75.41895       	75.61428       	75.111984      	75.86044       	75.48177       	73.71061       	80.03138       	77.5087        	77.018456      	76.289505      	74.02576       	76.97991       	76.49025       	75.58439       	75.139336      	76.23406       	75.259384      	75.67803       	75.327644      	75.313385      	75.51175       	75.913635      	75.6339        	75.32473       	75.98452       	75.611084      	75.79757       	75.39855       	75.60546       	75.39778       	75.643105      	75.79589       	75.66851       	75.67049       	75.46157       	75.46854       	75.711754      	75.710075      	75.37511       	75.704025      	74.85797       	76.08232       	75.32793       	75.22455       	74.37774       	72.74858       	73.1317        	74.94576       	75.368256      	75.70086       	75.51932       	75.88558       	75.46094       	75.64792       	75.46595       	75.29809       	75.68416       	75.77859       	75.62677       	75.19368       	75.533035      	74.692505      	76.15975       	76.2341        	75.666725      	75.17457       	75.16845       	75.50028       	75.72324       	75.28638       	74.98277       	77.05821       	77.68509       	75.311844      	75.698944      	73.95947       	73.33725       	73.57298       	
75.622246      	75.24611       	75.22907       	74.4435        	71.77461       	73.63869       	75.7667        	75.27685       	76.02346       	75.55485       	75.46543       	75.86797       	75.576324      	75.617744      	75.63446       	75.247116      	75.73962       	75.69758       	75.53781       	75.29959       	75.754295      	75.63957       	75.44972       	75.51747       	75.76444       	75.49018       	75.370476      	74.24775       	77.989204      	78.28509       	76.98074       	76.79108       	76.25638       	75.39251       	75.94845       	75.55371       	75.47451       	75.6665        	75.58752       	75.58537       	75.52395       	75.22491       	76.27274       	76.01622       	75.19604       	75.35774       	75.760284      	75.5303        	75.6115        	75.64263       	75.34362       	75.72029       	75.6302        	75.57767       	75.6386        	75.83693       	75.36785       	75.285484      	75.94166       	75.335205      	75.70492       	75.70252       	75.36879       	76.46104       	74.273056      	75.45187       	74.69685       	73.6568        	72.265114      	74.39982       	75.13385       	76.0128        	75.5098        	75.743324      	75.51079       	75.41995       	75.14473       	76.206245      	75.40377       	75.684074      	75.53466       	75.517075      	75.77662       	75.616425      	75.63681       	75.363235      	75.935776      	75.47371       	75.59999       	75.5198        	75.821625      	75.55367       	75.25884       	75.98732       	75.56279       	75.82836       	75.52586       	76.500175      	75.85819       	75.410706      	
75.60079       	75.848366      	75.24737       	74.91345       	73.62284       	71.08409       	75.48128       	75.07764       	75.712975      	75.65724       	75.37085       	75.66632       	75.57227       	75.825806      	75.71081       	75.24733       	75.5513        	75.72125       	75.43857       	75.53201       	75.50293       	75.525604      	75.695175      	75.21605       	75.58014       	75.54447       	75.46659       	75.20375       	76.17379       	78.26724       	77.74344       	76.85534       	76.604744      	75.89898       	75.435646      	76.01526       	75.48641       	75.68311       	75.418144      	75.62026       	75.62881       	75.48982       	76.031456      	75.7378        	74.88103       	75.92954       	75.403015      	75.46873       	75.44669       	75.9384        	75.552734      	75.51291       	75.52876       	75.611984      	75.526474      	75.34637       	75.884674      	75.91563       	75.33605       	75.61667       	75.558464      	75.780846      	75.50191       	74.953156      	76.520874      	75.469315      	74.698875      	74.462166      	72.345566      	73.56755       	75.267914      	75.82284       	75.83727       	75.335976      	75.45196       	75.715546      	75.777466      	75.12323       	75.68219       	75.92541       	75.12749       	75.48117       	75.84275       	75.40982       	75.58492       	75.84794       	75.637245      	75.61744       	75.10819       	75.95045       	75.23978       	75.385284      	75.78395       	75.558395      	75.62637       	75.73003       	75.66237       	76.07748       	75.24918       	75.20594       	
75.78183       	75.94045       	75.414925      	74.37761       	72.94236       	73.0081        	74.44814       	75.85937       	75.598885      	75.64856       	75.2648        	75.64051       	75.81282       	75.315544      	75.61043       	75.73601       	75.67054       	75.839806      	75.430275      	75.73751       	75.676025      	75.160774      	75.77264       	75.46024       	75.55949       	75.55877       	75.62323       	75.48619       	74.39827       	79.35218       	77.854675      	77.31111       	76.09001       	75.80091       	75.374695      	76.19198       	75.30369       	75.77505       	75.26316       	75.51168       	75.47978       	75.86109       	75.65018       	75.533646      	75.65888       	75.585884      	75.6082        	75.68213       	75.50231       	75.69322       	75.69228       	75.17417       	76.06067       	75.447426      	75.86106       	75.630905      	75.22243       	75.90028       	75.56725       	75.54666       	75.72634       	75.90827       	75.40867       	75.227234      	76.07509       	75.937225      	74.77582       	74.8456        	72.381714      	73.3139        	75.34514       	74.93719       	75.89911       	76.00046       	75.49699       	75.467926      	75.53269       	75.885666      	75.40452       	75.7222        	75.59017       	75.5071        	75.62319       	75.51434       	75.87592       	75.5067        	75.47316       	75.69243       	75.32157       	75.69983       	75.650085      	75.64643       	75.59368       	75.55361       	75.95302       	75.259285      	76.68528       	76.00783       	75.700226      	75.73077       	
75.54464       	75.779915      	75.650955      	74.40952       	73.19205       	72.67403       	73.729965      	76.162         	75.22129       	75.4706        	75.55513       	75.44824       	75.51054       	75.765465      	75.35554       	75.917435      	75.41334       	75.57147       	75.59545       	75.52083       	75.868614      	75.29616       	75.44966       	75.528885      	75.93108       	75.25723       	75.56162       	75.38511       	74.74958       	79.54261       	76.95072       	77.08516       	77.19844       	76.16535       	75.383064      	75.56226       	75.69851       	75.60214       	75.57429       	75.55843       	75.67161       	75.807465      	75.46674       	75.492905      	75.56095       	75.8715        	75.401474      	75.71112       	75.40636       	76.12373       	75.23974       	75.62878       	75.40876       	75.772224      	75.655014      	75.60642       	75.50773       	75.551384      	75.748474      	76.02124       	75.208435      	75.51549       	74.72332       	76.194466      	74.703125      	75.099495      	75.95319       	75.003235      	73.969795      	72.05755       	74.225136      	75.81477       	75.63423       	75.74548       	75.615974      	75.38048       	75.48545       	75.65903       	75.479965      	75.44213       	75.49131       	75.794495      	75.57007       	75.38932       	75.95483       	75.38905       	75.59399       	75.55051       	75.32268       	75.884224      	76.44887       	74.82636       	75.58893       	75.48956       	75.608215      	75.69255       	75.82319       	75.76093       	75.580246      	75.47438       	
75.26688       	75.86272       	75.47813       	73.64941       	73.95154       	73.9124        	72.51221       	75.50394       	75.649345      	75.84915       	75.58899       	75.40317       	75.70546       	75.67672       	75.20487       	75.92278       	75.61298       	75.40939       	75.59562       	75.828384      	75.58509       	75.3682        	75.46302       	75.53554       	75.89961       	75.53639       	75.249535      	75.15612       	74.20666       	78.93348       	77.25316       	77.02139       	76.19354       	77.109825      	75.36556       	75.619026      	76.20977       	75.157196      	75.58016       	75.77563       	75.41412       	75.584564      	75.596634      	75.8797        	75.42347       	75.51597       	75.533295      	75.924965      	75.51812       	75.69549       	75.59938       	75.608055      	75.728645      	75.1564        	76.05203       	75.08188       	76.09963       	75.62194       	75.57569       	75.39525       	75.65917       	75.094864      	74.831345      	74.542435      	74.61157       	75.83492       	76.10461       	75.65196       	73.903854      	73.14063       	73.67686       	75.54032       	75.33169       	75.69262       	75.727356      	75.747025      	75.35291       	75.7339        	75.289         	76.184875      	74.997826      	76.03183       	75.09387       	75.79943       	75.36369       	75.6106        	75.75994       	74.31542       	75.24111       	76.95646       	76.19689       	75.89365       	74.129         	75.62381       	75.70736       	75.614876      	75.95175       	75.63855       	75.71942       	75.73351       	
75.788475      	75.984184      	75.57754       	75.07039       	74.89027       	72.73024       	72.7508        	75.33174       	75.2197        	75.71437       	75.42561       	75.61204       	75.62684       	75.6811        	75.2337        	75.897514      	75.599915      	75.37036       	75.496155      	75.76737       	75.67396       	75.21006       	75.45598       	76.19101       	75.062325      	75.35487       	75.97713       	75.67876       	74.66116       	77.30737       	77.89705       	77.03596       	77.03179       	76.283134      	75.52117       	75.78546       	75.0216        	76.3016        	75.41442       	75.47581       	75.38342       	75.80029       	75.721306      	75.50267       	75.416275      	75.89186       	75.412445      	75.7152        	75.729195      	75.61457       	75.154396      	75.54589       	75.97202       	75.45388       	75.37209       	74.98481       	75.62331       	74.900215      	75.35639       	74.43147       	75.83329       	74.09514       	76.40404       	74.746735      	74.54038       	75.689224      	74.81535       	75.19919       	74.504265      	74.608444      	73.98781       	75.674835      	75.35414       	75.67769       	75.38654       	75.61875       	75.72791       	75.504364      	75.516716      	75.850334      	75.684944      	75.563675      	75.17003       	75.67375       	75.52881       	75.34838       	75.84116       	75.722534      	75.33925       	75.97735       	75.4928        	75.526184      	75.69765       	75.58294       	75.6314        	75.62974       	75.86291       	76.03684       	76.10232       	75.77776       	
75.89306       	74.999664      	75.67576       	75.55324       	74.94218       	73.92763       	71.941055      	75.35607       	75.54225       	75.218765      	75.33702       	75.95584       	75.63868       	75.53783       	75.47983       	75.73382       	75.62705       	75.72795       	75.33059       	75.66552       	75.82398       	75.51414       	75.39993       	75.79508       	75.41412       	75.71376       	75.31863       	75.63121       	75.0712        	75.14481       	79.03165       	77.45122       	76.215706      	76.74342       	75.65263       	75.604355      	75.54889       	75.902306      	75.049194      	75.97552       	75.53512       	75.51732       	75.796265      	75.148186      	75.90258       	75.59353       	75.608406      	75.42232       	75.01785       	75.41823       	76.293686      	74.96536       	75.70122       	74.925446      	76.5868        	74.11856       	75.06946       	75.534065      	75.90437       	74.41327       	74.78535       	75.046844      	75.80601       	75.348236      	74.77278       	74.83565       	75.20325       	74.4181        	74.48864       	75.722916      	75.48099       	75.38432       	75.817245      	75.5215        	75.756355      	75.34974       	76.23256       	75.44333       	75.336624      	75.7884        	75.76013       	75.3922        	75.62072       	75.69932       	75.72645       	75.42609       	75.49582       	75.55769       	75.40373       	75.798386      	75.66298       	75.46244       	75.76206       	75.09955       	75.411995      	75.65196       	75.67412       	76.48368       	75.949905      	74.957825      	
75.90677       	75.21791       	76.40149       	73.77108       	74.08555       	74.6869        	72.68326       	74.19851       	75.605736      	75.02137       	75.68531       	75.86223       	75.384155      	75.4277        	75.68511       	75.41201       	75.89636       	75.4601        	75.51256       	75.660324      	75.52792       	75.464615      	75.52479       	75.52362       	75.96778       	75.308464      	75.27865       	75.63899       	75.66589       	74.218735      	79.22201       	77.23665       	77.123474      	76.83843       	76.03539       	75.547         	75.337715      	75.954         	75.766136      	75.46024       	75.63698       	75.68372       	75.58128       	75.426346      	76.15075       	75.594124      	74.29332       	76.4911        	74.6816        	75.91348       	74.3531        	74.69993       	77.01634       	73.97378       	75.52767       	74.90394       	75.09262       	74.82975       	75.438484      	75.404396      	75.0434        	74.716286      	73.0157        	75.61545       	75.46676       	75.687485      	75.38652       	75.33502       	75.81781       	75.502815      	75.4864        	75.70491       	75.33929       	75.75368       	75.84646       	75.0888        	76.2234        	75.54425       	75.35657       	75.62985       	75.439514      	75.63256       	75.73288       	75.664024      	75.481186      	75.24655       	76.021515      	75.46546       	75.41212       	75.70953       	75.38196       	75.430695      	75.78293       	75.49029       	75.8918        	75.33761       	75.91379       	75.62352       	75.64464       	76.040215      	
75.521576      	75.617096      	76.160614      	75.01144       	75.39625       	73.43339       	73.030815      	73.295         	75.721565      	75.277565      	75.74414       	75.42499       	75.880775      	75.24873       	75.84025       	75.66336       	75.505554      	75.587524      	75.657295      	75.58901       	75.3413        	75.57546       	75.62085       	75.68529       	75.31663       	75.80913       	75.67007       	75.32796       	75.402115      	73.844215      	79.374         	77.68976       	76.90057       	76.77535       	76.11207       	75.609184      	75.575645      	75.65917       	75.61751       	74.83614       	76.54773       	75.65753       	75.14621       	75.62145       	75.26689       	75.459114      	75.55814       	74.80622       	74.99289       	74.60439       	75.54984       	75.2743        	75.616035      	74.44473       	74.63615       	75.29037       	74.80055       	74.47909       	75.23508       	73.71511       	75.659836      	75.57127       	76.03861       	75.4765        	75.62378       	75.31603       	75.72633       	75.63692       	75.35496       	75.59728       	75.5404        	75.271614      	75.9119        	75.377914      	75.49543       	75.578094      	75.76622       	75.353516      	75.75636       	75.522606      	75.64983       	75.71223       	75.72491       	75.645386      	75.44942       	75.42953       	75.5636        	75.35243       	75.651535      	75.73316       	75.861176      	75.24382       	75.60195       	75.1799        	75.806274      	75.39932       	75.6388        	76.023346      	76.751045      	76.66669       	
75.53431       	75.63737       	75.76713       	75.5446        	74.71626       	74.75606       	73.0133        	72.85034       	75.2769        	75.65277       	75.31992       	75.78728       	75.6787        	75.41411       	75.60568       	75.58111       	75.630035      	75.68621       	75.269226      	75.761406      	75.53948       	75.652824      	75.72939       	75.14995       	76.05245       	75.49841       	75.27678       	75.459564      	75.30712       	73.92096       	78.83288       	77.77245       	76.798676      	77.02709       	76.53654       	75.681404      	75.83814       	75.392494      	75.99506       	74.637764      	74.38729       	75.371056      	75.439995      	75.47541       	74.583336      	76.3727        	75.52746       	74.11024       	75.877426      	73.942726      	75.04541       	75.213646      	75.338776      	74.815994      	74.75185       	74.409615      	75.40714       	75.633965      	75.499794      	75.864944      	75.41506       	75.76248       	75.607475      	75.68037       	75.19441       	75.951614      	75.41071       	75.37877       	75.35321       	75.562225      	75.57101       	75.72406       	75.75366       	75.3154        	75.52594       	75.447         	75.385826      	75.88828       	75.45909       	75.66453       	75.31807       	75.65979       	75.56974       	75.60682       	75.555405      	75.58325       	75.65862       	75.74597       	75.36631       	75.69994       	75.61728       	75.39124       	75.61121       	75.37665       	75.658554      	75.57402       	75.56108       	75.874954      	76.26208       	76.08563       	
75.77859       	75.3426        	76.157616      	75.717445      	75.05047       	74.58223       	72.37174       	73.22685       	75.166275      	75.701         	75.372986      	75.897095      	75.57475       	75.420784      	75.62443       	75.55002       	75.710144      	75.49229       	75.29304       	75.81716       	75.618675      	75.62479       	75.27905       	75.64251       	75.624825      	75.517235      	75.51468       	75.395004      	75.514854      	75.38491       	75.18373       	79.31071       	77.587845      	76.42628       	76.23181       	75.300514      	75.92284       	75.55798       	75.430565      	75.53632       	74.48241       	75.72379       	75.10929       	75.130516      	74.829575      	75.20753       	75.09616       	74.91421       	75.160065      	73.91705       	75.5963        	75.45362       	75.58985       	75.43522       	75.71333       	75.68274       	75.57903       	75.60112       	75.597336      	75.98546       	75.48054       	75.391266      	75.61362       	75.79935       	75.534195      	75.353134      	75.53673       	75.78043       	75.452225      	75.34021       	75.16154       	75.75258       	75.7756        	75.58604       	75.594         	75.65471       	75.37119       	75.6407        	75.51032       	75.92584       	75.29102       	75.54418       	75.88435       	75.450645      	75.46851       	75.715195      	75.22696       	75.83424       	75.50569       	75.498474      	75.55816       	75.1932        	75.871         	75.72616       	75.011635      	75.79104       	75.68355       	75.86989       	75.862236      	75.99016       	
75.30799       	75.62911       	75.810585      	75.56142       	75.4489        	74.89454       	73.57324       	72.3121        	74.101         	75.36752       	75.83756       	75.48087       	75.76505       	75.22816       	75.389984      	75.80466       	76.15481       	75.14449       	75.47721       	75.85549       	75.37567       	75.81888       	75.45312       	75.5837        	75.552826      	75.51247       	75.51399       	75.57279       	74.9731        	75.84079       	75.32855       	78.7829        	76.3004        	75.92106       	76.29883       	76.60689       	75.85279       	75.596825      	75.15778       	74.991776      	75.23343       	74.35765       	76.572945      	75.00113       	74.23797       	73.721054      	75.477104      	75.5684        	74.963905      	76.25048       	75.98951       	75.34896       	75.46477       	75.58234       	75.56061       	75.70848       	75.41629       	75.46727       	75.367165      	75.59416       	75.94898       	75.355354      	75.681046      	75.56757       	75.644226      	75.60012       	75.58269       	76.06147       	75.18309       	74.30754       	76.99396       	75.77329       	75.1341        	75.52023       	75.62866       	75.114365      	75.71238       	75.91894       	75.328156      	75.471825      	75.65412       	75.52121       	75.5258        	75.85326       	75.73289       	75.489624      	75.55456       	75.74277       	75.602974      	75.133575      	75.71473       	75.89992       	75.50187       	75.50322       	75.58893       	75.549446      	75.5558        	75.58714       	75.869125      	76.07695       	
75.39081       	75.52614       	75.39916       	75.80083       	75.80238       	74.95092       	74.243576      	72.629234      	73.26488       	75.57404       	75.82608       	75.7605        	75.33797       	75.21161       	75.63145       	75.636284      	75.90496       	75.23639       	75.73611       	75.586815      	75.35439       	75.66499       	75.69194       	75.43137       	75.84947       	75.506325      	75.33336       	75.53256       	75.21468       	75.571045      	74.87338       	76.678955      	76.147736      	77.14203       	76.8125        	76.329414      	75.42904       	75.43049       	76.34246       	73.62771       	76.191315      	73.81868       	76.41373       	73.707245      	75.493614      	75.78006       	75.7974        	75.332436      	75.84444       	75.593025      	75.53268       	75.586136      	75.69417       	75.48484       	75.64214       	75.775856      	75.41093       	75.50065       	75.90101       	75.572655      	75.53358       	75.64331       	75.676414      	75.233536      	75.63722       	75.6065        	75.36053       	75.305176      	74.39994       	76.72253       	76.9052        	76.32172       	74.04216       	75.789246      	75.479256      	75.64875       	75.557304      	75.71721       	75.14911       	75.935326      	75.58246       	75.50825       	75.7869        	75.63733       	75.40904       	75.24113       	75.73238       	75.56266       	75.41362       	75.94077       	75.538826      	75.55402       	75.81327       	75.21665       	75.353615      	75.53331       	75.174095      	75.55949       	76.56411       	76.40434       	
75.48784       	75.42589       	75.73153       	75.50162       	75.77578       	74.74308       	74.87971       	72.69259       	72.77354       	75.61058       	75.63186       	75.395905      	75.54366       	75.7636        	75.36094       	75.778206      	75.610634      	75.53114       	76.05846       	75.30048       	75.64106       	75.59862       	75.453766      	75.2612        	75.78601       	75.58387       	75.33054       	75.99157       	75.32227       	75.47594       	75.61442       	75.57596       	75.05273       	77.44786       	77.00827       	75.23457       	75.35245       	74.60858       	76.23928       	74.27227       	75.94226       	75.3205        	75.41975       	75.95636       	75.60612       	75.64553       	75.12903       	75.85698       	75.21106       	75.490875      	75.84263       	75.566536      	75.49457       	75.66272       	75.59278       	75.54346       	75.44409       	75.77493       	75.708015      	75.63231       	75.397354      	75.53778       	75.41148       	75.09459       	76.369354      	75.607124      	75.98907       	75.14321       	75.57286       	75.60927       	75.31618       	75.52585       	75.63428       	75.40884       	75.677734      	75.20196       	75.895615      	75.55169       	75.78665       	75.59431       	75.61894       	75.74258       	75.34603       	75.778885      	75.58575       	75.45828       	75.30512       	75.58592       	75.71356       	75.16668       	75.79062       	75.595146      	75.807236      	75.064835      	75.584175      	75.752205      	75.09458       	76.85266       	77.04802       	75.736465      	
75.69151       	75.92226       	75.386185      	75.61481       	76.4228        	75.20008       	74.58359       	73.12772       	72.847984      	74.27414       	75.58933       	75.82633       	75.50844       	75.684845      	74.66744       	76.283195      	75.65748       	75.82013       	75.471306      	75.51188       	75.62171       	75.596725      	75.32747       	76.09502       	75.06066       	75.258385      	76.14915       	75.80274       	75.47237       	75.66117       	75.54457       	75.63854       	75.548874      	75.67013       	75.12112       	76.23528       	75.74362       	75.55243       	75.46246       	75.58156       	75.86399       	75.322044      	76.09206       	74.99511       	76.06169       	75.05139       	75.91745       	75.42749       	75.90667       	75.2395        	75.79618       	75.576836      	75.58453       	75.21175       	75.84821       	75.559044      	75.58543       	75.73325       	75.23826       	76.05072       	75.295654      	75.870995      	74.20431       	76.28025       	75.99452       	76.092896      	75.62393       	75.55607       	75.59484       	75.03408       	74.60478       	76.20027       	76.31489       	75.26177       	76.085304      	75.48611       	75.880775      	75.18978       	75.82151       	75.867065      	75.2763        	75.61401       	75.58373       	75.62137       	75.37748       	75.22728       	75.392456      	75.925674      	75.76542       	75.1923        	75.45307       	76.07648       	74.964714      	75.82955       	75.48337       	74.98377       	76.053894      	76.28202       	76.70731       	76.42169       	
75.69323       	75.583145      	75.73544       	75.568535      	75.66364       	75.747925      	75.11382       	73.29058       	73.19644       	72.95603       	75.775024      	75.75524       	75.39543       	75.84004       	75.267586      	75.40692       	75.85139       	75.63535       	75.57504       	75.3798        	75.77077       	75.60165       	75.40366       	75.99274       	75.10726       	75.947556      	75.58555       	75.74467       	75.3095        	75.680885      	75.6526        	75.63013       	75.39749       	75.67804       	75.68293       	76.043846      	75.33783       	75.60647       	75.655304      	75.44876       	75.497765      	75.53148       	75.89011       	75.45756       	75.78551       	75.421364      	75.51726       	75.63396       	75.91389       	75.46865       	75.457         	75.72377       	75.7556        	75.47098       	75.403915      	75.61258       	75.31983       	75.76216       	75.83287       	75.36426       	75.579636      	75.42882       	75.73429       	75.35464       	75.63834       	75.66022       	75.68774       	75.62201       	75.64919       	75.5306        	75.27661       	75.440346      	75.79362       	75.53967       	75.59223       	75.58536       	75.52334       	75.88308       	75.22244       	75.7881        	75.90099       	75.56279       	75.3792        	75.64294       	75.56366       	75.57097       	75.37926       	75.82735       	75.79289       	75.50611       	75.38036       	75.653656      	75.64106       	75.67806       	75.384         	75.58791       	75.67725       	75.977036      	76.46886       	76.219864      	
75.63479       	75.39606       	75.456696      	75.867         	75.99744       	75.47032       	74.44055       	74.26252       	72.84912       	73.68099       	74.73913       	76.08021       	75.300995      	75.4412        	75.73794       	75.61378       	75.60283       	75.500786      	75.2559        	76.12384       	75.67777       	74.82048       	76.11931       	75.35515       	75.570435      	76.09639       	75.38423       	75.76597       	75.16256       	75.650185      	75.92842       	75.35539       	75.56856       	75.69775       	75.73191       	75.64108       	75.50963       	75.83868       	75.60054       	75.28191       	75.93202       	75.50902       	75.560265      	75.35058       	75.672386      	75.735275      	75.46376       	75.48455       	75.82791       	75.78585       	75.23987       	75.877884      	75.40557       	75.72504       	75.304         	75.836525      	75.528         	75.41338       	75.803276      	75.648865      	75.52836       	75.51793       	75.553825      	75.46794       	75.588745      	75.68145       	75.714676      	75.723755      	75.24754       	75.84186       	75.327995      	75.71079       	75.55905       	75.38618       	75.704124      	75.53547       	75.44769       	75.63482       	75.871155      	75.39578       	75.73197       	75.66217       	75.06172       	75.95176       	75.581436      	75.53003       	75.51247       	75.62477       	75.86735       	75.53966       	75.40604       	75.5379        	75.845695      	75.286964      	75.42752       	75.59444       	75.519745      	76.17991       	75.90508       	75.68107       	
75.348724      	75.72089       	75.45147       	75.44641       	75.69434       	75.03195       	75.35147       	74.90133       	72.7854        	73.18732       	74.78518       	75.79888       	75.56288       	75.52509       	75.59823       	75.948616      	75.15125       	75.4425        	75.696846      	75.80957       	75.27716       	75.39473       	76.011604      	75.62602       	75.20638       	75.2746        	76.271866      	75.326515      	75.25474       	76.13807       	75.52456       	75.13068       	75.783554      	75.576         	75.670296      	75.79544       	75.498764      	75.705414      	75.50346       	75.528984      	75.68039       	75.57565       	75.459236      	75.95741       	75.4002        	75.64872       	75.75094       	74.9702        	75.95201       	75.32771       	75.251884      	75.68656       	75.41526       	75.70251       	75.74612       	75.32486       	75.47074       	75.95746       	75.33242       	75.731636      	75.6932        	75.43775       	75.90801       	75.31371       	75.45343       	75.74321       	75.46948       	75.708         	75.47101       	75.66755       	75.54694       	75.49896       	75.48526       	75.60216       	75.41441       	76.03205       	75.679985      	75.544655      	75.378555      	75.722984      	75.383514      	75.80107       	75.46829       	75.47757       	75.800735      	75.566246      	75.891         	75.54877       	75.60022       	75.21997       	76.00918       	75.490845      	75.549675      	75.576836      	75.556946      	75.4293        	75.39555       	75.984146      	75.96133       	75.819756      	
75.14363       	76.068504      	75.14592       	74.48017       	75.30897       	75.6278        	75.402466      	75.42671       	72.92444       	73.09545       	74.77102       	75.47325       	75.78441       	75.57998       	75.324936      	75.71346       	75.66097       	75.747665      	75.42908       	75.49262       	75.63316       	75.76568       	75.132095      	75.7946        	75.85392       	75.09467       	75.76215       	75.67133       	75.665726      	75.63977       	75.36549       	75.67701       	75.76004       	75.32956       	75.78635       	75.978294      	75.55203       	75.64915       	75.338066      	75.8647        	75.544395      	75.647835      	75.711105      	75.607185      	75.27812       	75.72972       	75.73922       	75.47369       	75.54558       	75.50526       	75.50971       	75.294975      	75.74319       	75.82262       	75.5701        	75.730194      	75.52894       	75.64049       	75.56073       	75.67564       	75.28047       	75.8414        	75.85502       	75.56302       	75.50431       	75.2847        	75.72617       	75.69019       	75.69911       	75.489006      	75.38302       	75.74151       	75.466354      	75.438835      	75.570694      	75.70099       	75.414185      	75.387535      	75.9899        	75.54161       	75.13038       	75.807945      	75.61092       	75.77402       	75.30876       	75.99039       	75.42131       	75.506         	75.50126       	75.746346      	75.54391       	75.65858       	75.60222       	75.56076       	75.424255      	75.60246       	75.07017       	75.81316       	76.299675      	76.26053       	
76.390686      	75.761475      	74.91765       	74.18353       	76.36195       	74.86048       	75.795815      	74.89701       	73.84234       	73.554886      	75.25247       	75.47035       	75.66916       	75.51933       	75.73429       	75.9739        	75.373         	75.44754       	75.74861       	75.655235      	75.58256       	75.391304      	75.55191       	75.95813       	75.35031       	75.34106       	75.54694       	75.54412       	76.04437       	75.50656       	75.40066       	75.90661       	75.62993       	75.484406      	75.55479       	75.90807       	75.797264      	75.37912       	75.36278       	75.87015       	75.528824      	75.41844       	75.142456      	76.079384      	75.71403       	75.45726       	75.59018       	75.58707       	75.81926       	75.436104      	75.74388       	75.49253       	75.58772       	75.202805      	75.75757       	75.84894       	75.35199       	75.57294       	75.696754      	75.565865      	75.700584      	75.67185       	75.66234       	75.6791        	75.42667       	75.63398       	75.72229       	75.455124      	75.61302       	75.591095      	75.41532       	75.41345       	75.65754       	75.60338       	75.573456      	75.56396       	75.73013       	75.51964       	75.66966       	75.58819       	75.65874       	75.690796      	75.509735      	75.6162        	75.6247        	75.35777       	75.72413       	75.496254      	75.6982        	75.43128       	75.895355      	75.41799       	75.74691       	75.55642       	75.358574      	76.073715      	75.70597       	75.57311       	76.01053       	76.103966      	
75.5975        	76.071304      	73.91063       	74.93877       	74.35523       	76.29524       	74.89198       	74.78679       	74.34078       	74.4962        	75.483635      	75.808556      	75.567314      	75.6592        	75.59638       	75.452034      	75.73795       	75.38917       	75.64364       	75.83328       	75.3758        	75.29927       	75.92506       	75.51605       	75.701706      	75.72663       	75.627365      	75.536476      	75.4481        	75.536095      	75.47474       	75.73276       	75.61044       	75.81647       	75.705124      	75.231476      	76.15135       	75.63502       	75.198395      	75.78084       	75.50126       	75.69921       	75.29656       	75.67618       	75.81602       	75.34615       	75.61543       	75.728004      	75.360016      	75.96515       	75.36052       	75.62965       	75.36399       	75.80658       	75.55754       	75.29651       	75.51845       	75.87605       	75.415054      	75.83409       	75.60517       	75.4608        	75.676765      	75.71349       	75.52882       	75.46239       	75.71423       	75.63814       	75.645874      	75.21521       	75.82081       	75.60364       	75.48759       	75.594505      	75.486084      	75.55971       	75.752144      	75.36916       	75.666534      	75.47642       	75.595375      	75.97451       	75.314384      	75.69155       	75.624916      	75.61734       	75.60988       	75.545395      	75.808975      	75.32298       	75.787895      	75.34886       	75.61545       	75.407974      	75.66395       	75.64944       	75.835686      	75.800934      	75.78896       	75.66319       	
74.90799       	75.458305      	74.187325      	75.26139       	73.20563       	75.64074       	75.69319       	75.43664       	75.379875      	75.5128        	75.75573       	75.37448       	75.70397       	75.58435       	75.66246       	75.14379       	75.598625      	75.69857       	75.82527       	75.576385      	75.74531       	75.52742       	75.58499       	75.485306      	75.75925       	75.41255       	75.63047       	75.634605      	75.75985       	75.34884       	75.706116      	75.58367       	75.33672       	75.82478       	75.6129        	75.772484      	75.58975       	75.691025      	75.65383       	75.34209       	75.43117       	75.77459       	75.3615        	75.75822       	75.58636       	75.66444       	75.64742       	75.739876      	75.307724      	75.64575       	75.80218       	75.51583       	75.541374      	75.28735       	75.718124      	75.84771       	75.39417       	75.29937       	75.725075      	75.20486       	75.65718       	75.74111       	75.62246       	75.58545       	75.540985      	75.59687       	75.51832       	75.79813       	75.54609       	75.6762        	75.624916      	75.2577        	75.69031       	75.43747       	75.55218       	75.61098       	75.778206      	75.59409       	75.53772       	75.44602       	75.77848       	75.62612       	75.52025       	75.733826      	75.5014        	75.42245       	75.68056       	75.767784      	75.46456       	75.58945       	75.89245       	75.49228       	75.31037       	75.495186      	75.66621       	75.28377       	76.28269       	76.11157       	76.06445       	75.08562       	
75.5145        	73.39892       	76.80454       	76.13886       	74.7107        	75.35748       	75.86717       	75.45993       	75.196526      	75.45251       	75.88018       	75.52457       	75.32187       	75.72156       	75.63512       	75.312805      	75.53992       	75.75337       	75.549515      	75.68854       	75.70661       	75.87895       	75.6706        	75.12786       	75.961716      	75.74222       	75.39013       	75.88054       	75.37405       	75.55733       	75.69837       	75.31785       	75.7779        	75.42802       	75.49746       	75.98974       	75.391014      	75.78925       	75.58086       	75.72356       	75.407364      	75.62476       	75.50291       	75.46691       	75.680336      	75.75659       	75.634476      	75.483086      	75.85089       	75.5928        	75.40152       	75.53778       	75.41763       	75.72906       	75.47764       	75.752304      	75.62479       	75.83824       	75.250275      	75.66186       	75.78091       	75.53432       	75.64406       	75.447716      	75.55531       	75.61245       	75.46195       	75.989975      	75.33833       	75.47648       	75.74979       	75.30749       	75.451935      	75.63748       	75.69466       	75.591805      	75.42637       	75.66451       	75.7171        	75.47304       	75.336914      	75.54281       	75.953         	75.66389       	75.38154       	75.64063       	75.72353       	75.53334       	75.8821        	75.41905       	75.55968       	75.72171       	75.31968       	75.461586      	75.66593       	75.137         	75.427734      	76.18777       	76.39525       	76.45005       	
75.887085      	75.38735       	75.51324       	75.72062       	75.47848       	75.48064       	75.59528       	75.55221       	75.51807       	75.64634       	75.28535       	75.69125       	75.57785       	75.92917       	75.425934      	75.49131       	75.62239       	75.68361       	75.642044      	75.47614       	75.79441       	75.51534       	75.53988       	75.642624      	75.579636      	75.42635       	75.535545      	76.12539       	75.34811       	75.644424      	75.24344       	76.07073       	75.39406       	75.65038       	75.91936       	75.279396      	75.47255       	75.749916      	75.66823       	75.81124       	75.462524      	75.60476       	75.76013       	75.1237        	75.952126      	75.60288       	75.401726      	75.63609       	75.31187       	75.89985       	75.72807       	75.6052        	75.60098       	75.69678       	75.35323       	75.62986       	75.484245      	75.790115      	75.66457       	75.34997       	75.47644       	75.77933       	75.73339       	75.3782        	75.551895      	75.458374      	75.74698       	75.65582       	75.61264       	75.32994       	75.73295       	75.49507       	75.56541       	75.569305      	75.40287       	75.69855       	75.67834       	75.44666       	75.579346      	75.86309       	75.40733       	75.57653       	75.84208       	75.25316       	75.53044       	75.391266      	75.75701       	75.564514      	75.55189       	75.697136      	75.6504        	75.33485       	75.45055       	75.65788       	75.4999        	75.37824       	75.13889       	76.05879       	76.87453       	75.62664       	
75.43897       	75.56372       	75.67177       	75.49977       	75.722046      	75.615616      	75.19232       	75.89737       	75.41715       	75.33098       	75.68865       	75.5219        	75.447235      	75.74808       	75.32932       	75.5619        	75.57377       	75.33865       	75.87609       	75.556595      	75.484085      	75.66695       	75.57024       	75.42773       	74.521225      	76.6736        	75.768295      	75.22541       	75.64668       	75.48611       	75.81209       	75.40593       	75.551315      	75.905846      	75.25373       	75.82905       	75.58154       	75.58491       	75.79264       	75.32375       	75.814285      	75.7081        	74.94807       	74.762436      	76.58689       	75.440834      	75.5905        	75.702446      	75.14269       	76.04125       	75.16314       	75.927536      	75.47069       	75.60258       	75.45496       	75.71766       	75.5352        	75.43926       	75.84198       	75.6063        	75.2439        	75.857895      	75.724556      	75.66303       	75.50907       	75.570435      	75.4947        	75.58746       	75.59392       	75.71142       	75.65984       	75.07097       	75.68544       	75.678406      	75.61767       	75.37868       	75.8548        	75.58256       	75.70538       	75.55619       	75.55183       	75.56735       	75.31988       	75.86594       	75.3696        	75.71532       	75.30925       	75.87881       	75.59845       	75.13241       	75.599014      	75.84463       	75.30878       	75.78223       	75.263176      	75.54701       	75.62598       	75.49524       	75.245026      	76.23365       	
75.77016       	75.32473       	75.50123       	75.73104       	75.70086       	75.28588       	75.53691       	75.919815      	75.1676        	75.63827       	75.68215       	75.487404      	75.61687       	75.578224      	75.695786      	75.576454      	75.49915       	75.625595      	75.59338       	75.264175      	75.77323       	75.60279       	75.959045      	75.080025      	74.62777       	76.706436      	75.91022       	74.606766      	75.95949       	75.236275      	75.750786      	75.387566      	75.63563       	75.75894       	75.38436       	75.71135       	75.42794       	75.68206       	75.84077       	75.48428       	75.68777       	74.24871       	77.30647       	76.37319       	74.9297        	75.2525        	75.499084      	75.44239       	75.59107       	75.668945      	75.59648       	75.62186       	75.49532       	75.77102       	75.34557       	75.56965       	75.784775      	75.609146      	75.33968       	75.5095        	76.08093       	75.489296      	75.34271       	75.62956       	75.679504      	75.389915      	75.64201       	75.70571       	75.51872       	75.523155      	75.383156      	75.88184       	75.42371       	75.54231       	75.50704       	75.62035       	75.656876      	75.09813       	75.92481       	75.630554      	75.213165      	75.90243       	75.938705      	75.38042       	75.72103       	75.25293       	75.85572       	75.60046       	75.23151       	75.80544       	75.859886      	75.299065      	75.19516       	75.90517       	75.49841       	75.38921       	75.04455       	76.32158       	79.2505        	81.31832       	
75.75186       	75.81165       	75.42477       	75.53258       	75.58098       	75.58133       	75.75443       	75.61272       	75.34531       	75.75078       	75.72928       	75.414         	75.60834       	75.26164       	76.141655      	75.43788       	75.42154       	75.58167       	75.76619       	75.68308       	75.30357       	75.94485       	75.34344       	75.72967       	75.37611       	75.71887       	75.65822       	75.571434      	75.695915      	75.649536      	75.44498       	75.738266      	75.74956       	75.104256      	75.75991       	75.65882       	75.63101       	75.511154      	75.76753       	75.22849       	76.27783       	74.89415       	76.777794      	75.71268       	74.69213       	75.29885       	75.5749        	75.57814       	75.80755       	75.702805      	75.30079       	75.82141       	75.60223       	75.661514      	75.32307       	75.712105      	75.56528       	75.69583       	75.55055       	75.56906       	75.77415       	75.431564      	75.666275      	75.59292       	75.6066        	75.396866      	75.65319       	75.64511       	75.66584       	75.534134      	75.493546      	75.74388       	75.315834      	75.73216       	75.71779       	75.011826      	75.92439       	75.382416      	75.74029       	75.77239       	75.10996       	75.50799       	75.758545      	75.55707       	75.48672       	75.50547       	75.87372       	75.47502       	75.492645      	75.6868        	75.511055      	75.686584      	75.312294      	75.424866      	76.04398       	75.57892       	74.78297       	76.91105       	80.35819       	81.76112       	
75.6373        	75.41687       	75.63392       	75.409096      	75.29994       	75.76996       	75.86752       	75.38067       	75.385895      	75.78412       	75.65351       	75.313934      	75.371376      	75.69064       	75.87495       	75.368484      	75.54131       	75.54867       	75.59117       	75.41252       	75.71592       	75.68707       	75.62243       	75.292564      	75.90763       	75.22744       	75.88914       	75.57689       	75.73318       	75.662735      	75.34133       	75.683105      	75.68725       	75.749565      	75.27232       	75.765144      	75.695885      	75.56469       	75.788475      	75.678696      	75.64581       	75.3445        	75.45087       	75.851524      	75.22094       	76.057434      	75.54401       	75.612434      	75.65825       	75.34247       	75.67999       	75.73488       	75.41635       	75.8034        	75.43027       	75.57299       	75.45544       	75.58627       	75.71674       	75.35689       	75.9242        	75.58684       	75.50338       	75.55462       	75.75845       	75.37977       	75.71581       	75.58109       	75.53643       	75.794136      	75.61746       	75.41344       	75.9382        	75.1474        	75.24121       	75.6394        	75.730415      	75.39602       	75.518196      	76.04572       	75.62817       	75.48792       	75.49345       	75.60067       	75.620445      	75.4047        	75.35562       	75.90394       	75.451385      	75.51538       	75.99485       	75.57185       	75.158714      	75.858406      	75.613594      	75.8908        	74.42186       	77.65261       	81.443405      	80.40214       	
75.8155        	75.35737       	75.811584      	75.58946       	75.53511       	75.53653       	75.541985      	75.65417       	75.5329        	75.51264       	75.42009       	75.61561       	75.44756       	75.67225       	75.64553       	75.40583       	75.71556       	75.82207       	75.732475      	75.35004       	75.89924       	75.490715      	75.6013        	75.495766      	75.669136      	75.596146      	75.546394      	75.67452       	75.41778       	75.63753       	75.47183       	75.30328       	76.1246        	75.28238       	75.63191       	75.36015       	75.552734      	76.11505       	75.37586       	75.314674      	75.97349       	75.343475      	75.7071        	75.56431       	75.3044        	75.79409       	75.37579       	75.67416       	75.7616        	75.25708       	75.93024       	75.49949       	75.26776       	75.69855       	75.73412       	75.411415      	75.55896       	75.64977       	75.53743       	75.5647        	75.41366       	75.76596       	75.93639       	75.25194       	75.59857       	75.64168       	75.30489       	75.75378       	75.521736      	75.3496        	75.84409       	75.54871       	75.89523       	75.41516       	75.35466       	75.49791       	75.78399       	75.47994       	75.66869       	75.51707       	75.54912       	75.66468       	75.45992       	75.91614       	75.48904       	75.2032        	75.98704       	75.84513       	75.64578       	75.57263       	75.461205      	75.27128       	75.6468        	75.42097       	75.46386       	75.59618       	74.877945      	77.01615       	80.28761       	81.351295      	
75.7031        	75.546394      	75.51906       	75.70633       	75.61241       	75.5158        	75.60895       	75.66938       	75.53527       	75.24574       	75.72174       	75.60198       	75.561966      	75.61806       	75.44256       	75.64516       	75.52633       	75.63087       	75.47942       	75.6888        	75.636246      	75.74348       	75.45143       	75.74671       	75.92512       	75.443115      	75.47234       	75.51837       	75.658104      	75.44179       	75.54475       	75.80078       	75.3354        	75.73756       	75.44757       	75.74864       	75.46781       	75.52094       	75.90615       	75.74219       	75.54109       	75.46048       	75.85113       	75.3636        	75.567986      	75.429375      	75.69665       	75.79976       	75.56368       	75.70196       	75.30679       	75.57868       	75.71574       	75.65828       	75.36286       	75.545364      	75.600395      	75.56594       	75.618645      	75.72702       	75.555565      	75.71705       	75.53268       	75.55435       	75.80963       	75.38371       	75.76942       	75.8474        	75.33033       	75.65459       	75.445015      	75.899345      	75.65126       	75.24423       	75.7927        	75.31183       	75.75          	75.657326      	75.52547       	75.444984      	75.575775      	75.65272       	75.84763       	75.79113       	75.277954      	75.54426       	75.883835      	75.510635      	75.465256      	75.67935       	75.721214      	75.233315      	75.72353       	75.63709       	74.774956      	76.396675      	75.6115        	75.436905      	79.25549       	81.00129       	
75.64224       	75.6391        	75.56917       	75.625         	75.62939       	75.63067       	75.43014       	75.669205      	75.59146       	75.554375      	75.31431       	75.69436       	75.592606      	75.40799       	75.55567       	75.623955      	75.81741       	75.484116      	75.36222       	75.84129       	75.46244       	75.37374       	75.67518       	75.91988       	75.51427       	75.2273        	76.05707       	75.672485      	75.50412       	75.461136      	75.54342       	75.375015      	75.669945      	75.87153       	75.573784      	75.493355      	75.63076       	75.58202       	75.46997       	75.934235      	75.710915      	75.49039       	75.27716       	75.81031       	75.69662       	75.53695       	75.57999       	75.84497       	75.39364       	75.37308       	75.6919        	76.02396       	75.344444      	75.449104      	75.90596       	75.359856      	75.56869       	75.56384       	75.500565      	75.61446       	75.85547       	75.4318        	75.51547       	75.6031        	75.63554       	75.87383       	75.24971       	75.51575       	75.758026      	75.877846      	75.45618       	75.57365       	75.54118       	75.474655      	75.38189       	75.84524       	75.35615       	75.67157       	75.4784        	75.63001       	75.897316      	75.693474      	75.52751       	75.56913       	75.17158       	75.77558       	75.44859       	75.72362       	75.57001       	75.5262        	75.863205      	75.26382       	75.52168       	75.60137       	75.50372       	75.325554      	74.86002       	76.37216       	79.15334       	81.146935      	
75.6958        	75.43281       	75.59219       	75.38289       	75.50233       	75.50986       	75.39315       	75.819695      	75.63524       	75.38475       	75.45773       	75.86924       	75.08259       	75.82741       	75.59209       	75.70842       	75.36946       	75.44338       	75.99404       	75.46478       	75.414825      	75.700134      	75.76207       	75.23248       	75.89072       	75.63338       	75.3883        	75.61948       	75.74546       	75.280396      	75.626884      	75.58881       	75.73155       	75.52966       	75.66156       	75.46647       	75.57624       	75.50018       	75.59857       	75.929085      	75.48308       	75.51527       	75.494064      	75.48081       	75.58372       	75.88332       	75.51328       	75.71731       	75.42497       	75.61137       	75.69876       	75.57675       	75.756         	75.508354      	75.58956       	75.55459       	75.789444      	75.57049       	75.56904       	75.50241       	75.62575       	75.67607       	75.678345      	75.62303       	75.42824       	75.49388       	74.94221       	76.28937       	75.83762       	74.90214       	73.83477       	76.64299       	76.03445       	74.66931       	75.326546      	74.29401       	75.45433       	75.80074       	75.60535       	75.830925      	75.397545      	75.60375       	75.30957       	75.6314        	75.809204      	75.448166      	75.33306       	75.72331       	75.62384       	75.67142       	75.6097        	75.69985       	75.54952       	75.23611       	75.46046       	75.37573       	74.81182       	75.95055       	79.1118        	80.63958       	
75.406525      	75.55584       	75.52253       	75.82604       	75.53722       	75.76649       	75.44052       	75.64042       	75.721634      	75.55906       	75.63107       	75.298164      	75.62531       	75.63662       	75.72308       	75.452225      	75.35715       	75.73089       	75.552216      	75.45478       	75.61957       	75.68129       	75.78003       	75.5825        	75.43536       	75.78581       	75.633514      	75.58542       	75.81159       	75.53796       	75.57309       	75.76295       	75.77064       	75.54153       	75.519165      	75.57494       	75.44039       	75.153656      	76.204956      	75.88905       	75.4186        	75.55895       	75.50049       	75.70858       	75.42157       	75.52356       	75.400085      	75.821335      	75.765915      	75.41396       	75.9499        	75.45776       	75.65091       	75.4786        	75.6452        	75.50032       	75.51494       	75.82381       	75.62999       	75.32729       	75.83674       	75.15923       	76.016304      	75.3514        	74.69597       	78.13392       	75.04749       	76.75757       	76.956085      	76.24914       	77.1132        	76.38107       	75.677414      	75.00994       	75.048195      	73.79997       	71.39148       	75.216095      	75.51235       	75.42396       	75.45778       	75.6161        	76.01438       	75.270004      	75.470215      	75.735664      	75.76432       	74.96527       	76.04334       	75.42844       	75.77251       	75.74193       	75.20264       	75.44366       	75.57553       	75.47896       	74.78762       	76.35016       	80.24246       	80.88007       	
75.538246      	75.38024       	75.61997       	75.75596       	75.60641       	75.64468       	75.45647       	75.68545       	75.45224       	75.92845       	75.5286        	75.475555      	75.23777       	75.4492        	75.43391       	75.60448       	75.914604      	75.536255      	75.57804       	75.47454       	75.68777       	75.7688        	75.40012       	75.58003       	75.81634       	75.43071       	75.72412       	75.37874       	75.2644        	75.82398       	75.57588       	75.700714      	75.73553       	75.461334      	75.76858       	75.483246      	75.66971       	75.70174       	75.49245       	75.65977       	75.69052       	75.44472       	75.61599       	75.582726      	75.53979       	75.74316       	75.60059       	75.384186      	75.66708       	75.787674      	75.60931       	75.49865       	75.53413       	75.60961       	75.879654      	75.54679       	75.191216      	75.719666      	75.585304      	75.557785      	75.755585      	73.88715       	77.471214      	77.191986      	78.132286      	76.63354       	75.88446       	76.05647       	76.27358       	75.358505      	75.883286      	75.75757       	75.89668       	75.324036      	75.27444       	75.08001       	71.12797       	73.70831       	75.46254       	75.88961       	75.5891        	75.32024       	75.718         	75.52195       	75.49055       	75.698204      	75.5206        	75.43525       	75.68316       	75.55734       	75.30641       	75.84758       	75.18407       	75.56728       	75.4646        	75.2256        	74.99116       	75.56044       	78.46152       	80.720924      	
75.400024      	75.40487       	75.6409        	75.69924       	75.401054      	75.715996      	75.58651       	75.41168       	75.60369       	75.96561       	75.41413       	75.42424       	75.711044      	75.35094       	75.50486       	75.64368       	75.55292       	75.55874       	75.56585       	75.70541       	75.577774      	75.75379       	75.37571       	75.77887       	75.766075      	75.57044       	75.34809       	75.70058       	75.74668       	75.40421       	75.46126       	75.369255      	75.79107       	75.59829       	75.455345      	75.63121       	75.39655       	75.68387       	75.70825       	75.711525      	75.61298       	75.52097       	75.85301       	75.33401       	75.5664        	75.84615       	75.668686      	75.45017       	75.5036        	75.7894        	75.4813        	75.57512       	75.34602       	75.24489       	75.72776       	75.47224       	74.85675       	76.6673        	76.835945      	75.20658       	77.716934      	76.511604      	77.22817       	75.59695       	76.334816      	75.70592       	75.739716      	75.49635       	75.4186        	75.27485       	75.813965      	75.46475       	74.62707       	76.27536       	74.2908        	74.30923       	72.92128       	71.81408       	75.55752       	75.57755       	75.8201        	75.64464       	75.18162       	75.79485       	75.41711       	75.41925       	75.47189       	75.83966       	75.84429       	75.28598       	75.66305       	75.66759       	75.47462       	75.24852       	75.75875       	75.43254       	75.386566      	74.90197       	77.02253       	79.039665      	
75.51308       	75.67341       	75.661194      	75.80257       	75.36162       	75.506195      	75.67766       	75.76767       	75.15457       	75.9891        	75.356415      	75.330574      	75.87093       	75.27369       	75.68932       	75.79041       	75.35614       	75.92829       	75.54132       	75.402565      	75.73314       	75.727936      	75.45078       	75.537125      	75.87454       	75.40774       	75.386375      	75.93784       	75.39136       	75.86179       	75.28595       	75.43742       	75.921005      	75.64591       	75.75995       	75.2929        	76.02823       	74.83336       	76.30153       	76.073         	75.12646       	75.63006       	74.961334      	76.182884      	75.64446       	75.61449       	75.38442       	75.40643       	75.692726      	75.71232       	75.49351       	75.18865       	75.09334       	76.699356      	77.9764        	77.166275      	75.57254       	76.44442       	76.1919        	76.09063       	76.12946       	75.96913       	75.4262        	75.739265      	75.55741       	75.54063       	75.7521        	75.57941       	75.45488       	75.6247        	75.48968       	75.837166      	75.46061       	75.87821       	75.56738       	75.116615      	72.97973       	72.05548       	74.90502       	75.5018        	75.31535       	75.58644       	75.72184       	75.5069        	75.65621       	75.61034       	75.47842       	75.58487       	75.656876      	75.58765       	75.489784      	75.5171        	75.83252       	75.29688       	75.49515       	75.30204       	75.26299       	75.07718       	77.39272       	78.94736       	
75.33095       	75.628426      	75.85209       	75.52049       	75.51532       	75.57887       	75.67751       	75.90092       	75.31857       	75.76973       	75.55862       	75.30609       	75.23833       	75.93835       	75.389366      	75.73099       	75.211945      	75.61313       	75.95537       	75.47479       	75.314354      	75.6562        	75.529274      	75.71279       	75.328545      	75.8519        	75.533745      	75.50567       	75.591805      	75.73181       	75.494446      	75.71819       	75.39298       	75.94971       	75.39425       	75.568924      	75.571396      	75.184906      	75.98972       	75.361145      	75.93839       	75.45118       	75.662186      	75.623795      	75.7006        	75.57031       	75.65811       	74.911476      	75.36499       	76.52823       	77.381546      	77.306114      	76.13355       	76.22216       	76.58068       	76.20599       	75.51286       	75.92596       	75.60883       	75.507614      	75.75689       	75.42786       	75.98722       	75.496124      	75.43669       	75.57689       	75.822845      	75.1643        	75.28599       	75.88803       	75.38634       	75.34537       	76.175446      	75.89349       	75.52634       	74.301285      	73.5373        	73.127594      	73.61253       	75.546135      	75.47054       	75.624306      	75.457344      	75.60675       	75.63869       	75.74021       	75.86111       	75.55147       	75.239914      	75.79259       	75.44987       	75.955734      	75.50039       	75.31301       	75.850945      	75.431145      	75.54659       	75.78697       	75.51012       	76.26655       	
75.40103       	75.50869       	75.57016       	75.86324       	75.69445       	75.23096       	75.80465       	75.54184       	75.49026       	75.844475      	75.428116      	75.72343       	75.58873       	75.1293        	75.57739       	75.77408       	75.72566       	75.60999       	75.369835      	75.46876       	75.58985       	75.56834       	75.51452       	75.55351       	75.5427        	75.227715      	76.01923       	75.74342       	75.435394      	75.59089       	75.55998       	75.58155       	75.548676      	75.427605      	75.48402       	75.72514       	75.4339        	75.66287       	75.41472       	75.664795      	75.56935       	75.67677       	75.58086       	74.01608       	77.77497       	77.54209       	75.22645       	76.18791       	77.14054       	76.35393       	76.18511       	76.34421       	74.70917       	75.93312       	75.73067       	75.83334       	75.42643       	75.20535       	75.988014      	75.34709       	75.882034      	75.43341       	75.17798       	76.41985       	75.00567       	75.18255       	76.48995       	75.2786        	75.63218       	75.36705       	74.99867       	76.9236        	76.093575      	74.829475      	75.646904      	74.80993       	73.28053       	72.869286      	73.906136      	75.40339       	75.76131       	75.467255      	75.5769        	75.771324      	75.648         	75.65085       	75.290924      	75.889496      	75.49197       	75.43542       	75.69481       	75.70891       	75.33566       	75.724594      	75.59343       	75.49439       	75.4324        	76.10032       	75.17595       	74.78518       	
75.79833       	75.659836      	75.68109       	75.68199       	75.35916       	75.87947       	75.60711       	75.43443       	75.57538       	75.50151       	75.74289       	75.53156       	75.52095       	75.72001       	75.03875       	75.52609       	75.681694      	75.65345       	75.74657       	75.34305       	75.81611       	75.537384      	75.66331       	75.426994      	75.78275       	75.559555      	75.52592       	75.69866       	75.35796       	75.56044       	76.09072       	75.09467       	75.69266       	75.74821       	75.22103       	75.43858       	75.79783       	75.53137       	75.45064       	75.4799        	74.78593       	78.16667       	75.969795      	77.32927       	77.30033       	76.43528       	75.657814      	75.78295       	75.83221       	75.867805      	75.37781       	75.58934       	75.66346       	75.62868       	75.86841       	75.43128       	75.47409       	75.66692       	75.3233        	75.76567       	75.45726       	75.86823       	75.458084      	75.620636      	75.922516      	75.48462       	75.40268       	75.717354      	75.73411       	75.084564      	75.72232       	76.370346      	74.77672       	76.41181       	75.91989       	75.04983       	75.12608       	72.03205       	72.76474       	75.21499       	75.3575        	75.732124      	75.53648       	75.36942       	75.77348       	75.517456      	75.652985      	75.577576      	75.315895      	75.60846       	75.43303       	75.75746       	75.58217       	75.68598       	75.26693       	75.682495      	75.439316      	75.77619       	76.05119       	75.8421        	
75.577065      	75.95465       	75.68486       	75.10498       	75.884964      	75.41038       	75.68671       	75.53182       	75.72724       	75.8514        	75.08623       	75.581154      	75.50146       	75.64987       	75.37189       	75.91098       	75.75697       	75.483345      	75.46817       	75.51866       	75.86245       	75.42171       	75.5519        	75.59413       	75.610275      	75.700775      	75.68654       	75.410934      	75.771645      	75.56122       	75.24502       	75.7607        	75.55005       	75.46691       	75.64162       	75.27113       	75.56923       	75.70622       	74.21685       	77.55024       	78.68728       	78.116035      	75.933014      	76.1805        	75.71538       	75.56551       	75.66268       	75.88666       	75.22894       	75.54143       	75.76147       	75.678566      	75.60577       	75.69495       	75.38384       	75.746086      	75.54865       	75.478424      	75.6601        	75.78479       	75.584175      	75.483215      	75.629005      	75.86043       	75.13149       	75.907234      	75.58016       	75.53291       	75.84227       	75.34817       	75.853775      	75.10779       	75.5151        	75.99335       	75.577644      	74.686386      	74.92806       	73.52015       	72.269684      	75.095894      	75.58907       	75.655876      	75.343445      	75.79813       	75.61173       	75.58669       	75.56487       	75.55035       	75.46295       	75.778915      	75.4513        	75.22083       	75.83891       	75.06433       	75.412926      	75.70553       	75.14279       	75.666565      	76.28846       	75.65745       	
75.42609       	75.5687        	75.75632       	75.471985      	75.64853       	75.70496       	75.47117       	75.08001       	75.92145       	75.547966      	75.227325      	75.676056      	75.19561       	75.84759       	75.38989       	75.0991        	76.49762       	75.99644       	74.7261        	75.64666       	75.70281       	75.57261       	75.303925      	75.637924      	75.64272       	75.60383       	75.589386      	75.60333       	75.44475       	75.57982       	75.56869       	75.87522       	75.31085       	75.60674       	75.37347       	75.73563       	75.24095       	75.04478       	77.633575      	78.167114      	77.4857        	77.1914        	75.7166        	75.12571       	76.11528       	75.36472       	75.99119       	75.17863       	75.36194       	75.945724      	75.4247        	75.452286      	75.95929       	75.655655      	75.49723       	75.44679       	75.45466       	75.82859       	75.6077        	75.29215       	75.75528       	75.560265      	75.581856      	75.604904      	75.396385      	75.82184       	75.64927       	75.82533       	75.541824      	75.560356      	75.686646      	75.72173       	75.55342       	75.73893       	75.51067       	75.26568       	74.58443       	72.69886       	73.39062       	74.29882       	75.869125      	75.45375       	75.474266      	75.74855       	75.87684       	75.369316      	75.59415       	75.20739       	75.461235      	75.99752       	75.28267       	75.56904       	75.74775       	75.63465       	75.44534       	75.08845       	75.11279       	76.00379       	76.09558       	75.3303        	
75.63219       	75.56304       	75.69943       	75.42258       	75.71709       	75.439186      	75.76832       	75.75635       	75.68021       	75.39208       	75.54506       	75.44845       	75.62329       	75.816284      	75.18111       	75.33585       	76.668915      	75.75328       	74.81425       	75.4421        	75.854546      	75.26159       	75.59296       	75.7601        	75.46656       	75.47035       	75.64308       	75.614555      	75.46962       	75.80206       	75.232666      	75.960396      	75.60947       	75.485886      	75.36751       	75.51617       	75.80539       	74.04951       	78.43607       	78.44909       	77.0014        	76.61162       	76.344         	75.51842       	75.58769       	75.424675      	75.716995      	75.877464      	75.239586      	75.27488       	76.06179       	75.5178        	74.65314       	76.0906        	75.73378       	75.46725       	75.46778       	75.63821       	75.54961       	75.526855      	75.52066       	75.69881       	75.79696       	75.326645      	75.606766      	75.87972       	75.44141       	75.573616      	75.65939       	75.72622       	75.60892       	75.542244      	75.71691       	75.87588       	75.36231       	75.28053       	75.03397       	74.53496       	71.62907       	73.78862       	75.63492       	75.485176      	75.51347       	75.833374      	75.78715       	75.34939       	75.8115        	75.66367       	75.58486       	75.7277        	75.28945       	75.58128       	75.863434      	74.50091       	76.31523       	75.56056       	75.61126       	75.56908       	76.51974       	76.03289       	
75.6894        	75.766426      	75.58623       	75.273674      	75.80984       	75.272575      	75.85899       	75.66178       	75.67708       	75.574684      	75.50422       	75.626976      	75.34328       	75.99084       	75.34471       	75.37567       	75.513565      	75.79135       	75.834236      	75.15672       	75.61612       	75.77501       	75.59877       	75.276024      	75.680374      	75.68418       	75.38793       	75.51251       	75.750175      	75.75631       	75.706245      	75.205315      	75.580215      	75.56166       	75.5262        	75.06417       	75.852036      	74.616425      	76.5452        	79.107056      	76.45872       	77.26912       	76.439064      	75.9894        	75.50993       	75.18068       	76.0637        	75.4041        	75.63502       	75.645226      	75.515816      	75.14594       	75.86168       	76.385544      	76.07918       	74.41179       	75.65977       	75.9375        	75.42519       	75.65285       	75.502495      	75.662346      	75.66905       	75.40982       	75.54775       	75.88653       	75.88021       	75.152954      	75.685326      	75.50159       	75.65587       	75.332596      	75.76124       	75.83882       	75.49402       	75.77672       	74.7192        	74.76205       	72.89504       	72.698074      	75.38848       	76.03749       	75.04772       	75.42316       	75.53042       	75.72739       	75.2115        	75.851715      	75.62303       	75.6309        	75.73013       	75.625084      	75.32719       	75.48731       	75.40643       	75.61238       	75.39176       	76.0474        	75.870865      	75.526634      	
75.75809       	75.81198       	75.42483       	75.74209       	75.54151       	75.48816       	75.9203        	75.22026       	75.62449       	75.59591       	75.550964      	75.63939       	75.29273       	75.511505      	75.757126      	75.66861       	75.43346       	75.68423       	75.50458       	75.51996       	75.61297       	75.844574      	75.17114       	75.83377       	75.56165       	75.70718       	75.53816       	75.506744      	75.140564      	76.1191        	75.43092       	75.20645       	76.0105        	75.14658       	75.63675       	75.11039       	75.74789       	74.866844      	75.603226      	78.8854        	77.48489       	77.22833       	77.05951       	75.904686      	75.75557       	75.04535       	76.41957       	75.163704      	75.548874      	75.70637       	75.61794       	75.75909       	75.566536      	75.306366      	75.721466      	75.93888       	75.233116      	75.88646       	75.67213       	75.21294       	75.86512       	75.48775       	75.42276       	76.2369        	75.66801       	74.72777       	75.957565      	75.52064       	75.655914      	75.74305       	75.52373       	75.57675       	75.78727       	75.294304      	75.77417       	75.89655       	75.15945       	74.8575        	73.51807       	71.994415      	75.28172       	75.654366      	75.61195       	75.61499       	75.36729       	75.472916      	75.260506      	76.06342       	75.699326      	75.4478        	75.573166      	75.67815       	75.29255       	75.83003       	75.22736       	75.7072        	75.4382        	75.74806       	76.40268       	75.93182       	
75.803185      	75.67313       	75.60273       	75.29316       	75.906235      	75.675514      	75.428696      	75.69225       	75.49862       	75.58229       	75.697464      	75.47649       	75.236984      	75.7802        	75.506004      	75.6451        	75.72688       	75.345825      	75.9379        	74.96893       	75.642204      	76.15766       	75.289246      	75.98265       	75.49514       	75.463974      	75.48074       	75.527374      	75.80179       	75.607605      	75.52641       	75.48588       	75.36373       	75.85762       	75.70491       	75.164604      	75.8019        	75.233986      	73.67345       	78.61607       	77.233         	77.65713       	77.29089       	75.996765      	75.539116      	75.61685       	75.751945      	75.608765      	75.40769       	75.77663       	75.61314       	75.55152       	75.37903       	75.84374       	75.51593       	75.5142        	75.41008       	76.25252       	75.272095      	75.64431       	75.8696        	75.60864       	75.5018        	74.99243       	76.80682       	74.721954      	75.4223        	75.84642       	75.61812       	75.510086      	75.507706      	75.67966       	75.640625      	75.50727       	75.89294       	75.773834      	75.497475      	74.79125       	73.875824      	72.124756      	74.03142       	75.48489       	75.95065       	75.5387        	75.25949       	75.739494      	75.99963       	75.4005        	75.466965      	75.61296       	75.4255        	75.761635      	75.46088       	75.71966       	75.44436       	75.452255      	75.192604      	76.25708       	76.16297       	75.25361       	
75.77629       	75.73064       	75.58382       	75.55334       	75.519104      	75.614586      	75.696175      	75.60118       	75.36618       	75.16751       	76.22407       	77.540115      	75.89863       	74.61527       	74.67618       	74.15877       	75.250374      	75.830215      	75.546005      	75.63776       	75.23908       	75.68165       	75.53237       	75.851006      	75.10684       	75.67158       	75.61232       	75.68258       	75.62328       	75.562195      	75.61556       	75.65762       	75.45091       	75.745995      	75.26413       	75.15134       	75.779305      	75.32333       	73.93728       	77.90382       	77.81109       	76.344955      	77.38583       	76.88227       	75.319595      	75.935036      	75.35636       	75.42601       	75.713585      	75.53038       	76.2462        	75.00869       	75.84888       	75.73256       	75.46863       	75.485954      	75.6729        	75.63753       	75.51973       	75.600105      	75.362335      	75.72335       	75.590645      	75.57514       	75.21185       	76.063965      	75.32638       	75.877235      	75.77855       	75.5026        	75.656166      	75.64108       	75.348         	75.61019       	76.05491       	75.80593       	74.810455      	74.78375       	74.35118       	72.739914      	73.73514       	75.47548       	75.8664        	75.41882       	75.74319       	75.569496      	75.61416       	75.46241       	75.50164       	76.055214      	74.90784       	75.94937       	75.816765      	75.30965       	75.39995       	75.466225      	75.0764        	75.77716       	76.1485        	76.01351       	
75.20639       	75.441246      	75.35916       	75.64625       	75.15645       	75.764435      	75.23924       	76.372986      	76.85719       	77.488785      	77.67375       	76.39701       	76.21689       	75.08988       	74.2781        	74.02085       	72.279625      	75.528206      	75.562126      	75.72222       	75.497765      	75.42698       	75.707466      	75.49806       	75.33336       	75.535416      	75.82503       	75.66899       	75.54343       	75.42381       	75.85597       	75.3829        	75.13612       	75.83826       	75.60761       	75.40963       	75.38173       	75.41414       	74.49324       	77.839554      	77.69296       	76.78227       	76.95341       	77.28781       	75.41681       	76.24761       	75.70516       	75.34992       	75.099045      	75.981         	75.93933       	75.06614       	75.62651       	75.370804      	75.91646       	75.430756      	75.89465       	75.504135      	75.56788       	75.82651       	75.52196       	75.475746      	75.56397       	75.48278       	75.30786       	75.68394       	76.17628       	75.323456      	75.60804       	75.847664      	75.27812       	75.95747       	75.67354       	75.42036       	75.76644       	75.68193       	75.69765       	75.02167       	74.118484      	72.92972       	72.51428       	75.65021       	75.58992       	75.1404        	76.022675      	75.538284      	75.471085      	75.6203        	75.170876      	75.408295      	76.26833       	75.59913       	75.76238       	75.38414       	75.58786       	75.21154       	75.39615       	75.66509       	76.24634       	76.09548       	
75.76705       	74.84993       	74.7123        	78.746445      	76.8732        	77.34296       	75.9675        	75.77184       	76.356476      	76.253235      	75.81291       	75.54899       	75.989525      	75.095345      	75.16631       	73.974594      	70.66956       	74.05881       	75.85572       	75.42787       	75.87589       	75.39637       	75.33667       	75.65068       	75.95814       	75.40659       	75.577705      	75.549065      	75.59156       	75.10351       	75.88091       	75.608086      	75.480125      	75.6049        	75.36335       	75.57381       	75.49438       	75.19607       	75.563         	75.27177       	78.42865       	77.40354       	77.387955      	76.59173       	76.18135       	75.578835      	75.7878        	75.62458       	75.38802       	75.86379       	75.492165      	75.61097       	75.307785      	75.83361       	75.53525       	75.46569       	75.82644       	75.556335      	75.65117       	75.740555      	75.66012       	75.25996       	75.88282       	75.5192        	75.694664      	75.58416       	75.310905      	75.791405      	75.49144       	75.70832       	75.604866      	75.59261       	75.6069        	75.46781       	75.61438       	75.8618        	75.82714       	74.97445       	75.224976      	73.38877       	71.562355      	75.10797       	75.5742        	75.26194       	75.76076       	75.55217       	75.83301       	75.397484      	75.39963       	75.761024      	75.390045      	75.708786      	75.77385       	75.52605       	75.4343        	75.30783       	75.404045      	75.67996       	76.560265      	76.21361       	
75.68667       	76.69307       	76.62709       	76.854546      	76.5615        	76.26997       	75.18956       	75.883385      	75.9329        	75.04949       	75.723206      	75.6394        	76.30566       	75.25747       	74.94577       	74.90584       	72.07526       	70.29194       	74.945724      	75.777         	75.64571       	75.699524      	75.61595       	75.42014       	75.508         	75.56863       	75.34716       	75.933716      	75.460106      	75.18441       	75.83555       	75.37305       	75.71349       	75.69571       	75.27542       	75.836136      	75.25838       	75.42829       	75.74714       	74.342606      	77.29789       	77.846565      	77.6011        	77.19728       	76.63602       	75.619835      	75.58667       	75.82657       	75.089165      	75.4599        	76.063354      	75.78546       	74.84411       	76.15006       	76.419876      	74.49229       	75.593         	75.7038        	75.30565       	75.3377        	75.61126       	75.299774      	76.02802       	75.411224      	76.0482        	75.40544       	75.292206      	76.05931       	75.30759       	75.75544       	75.74353       	75.50711       	75.76549       	75.45683       	75.53371       	75.594765      	76.03264       	75.212105      	75.43507       	73.84762       	71.91842       	74.06963       	75.628105      	75.56922       	75.12553       	75.89225       	75.61304       	75.79936       	75.44038       	75.30666       	75.89769       	75.30347       	75.40181       	75.89052       	75.178444      	75.35201       	75.34607       	75.90146       	76.21124       	76.03915       	
