# www.neaspec.com
# Scan:	 	Whitelight Imaging
# Project:	 	20251007_PS
# Description:	 	
# Date:	 	10/07/2025 13:27:15
# Scanner Center Position (X, Y):	[µm]	49.99	50.01	 
# Rotation:	[°]	0	 	 
# Scan Area (X, Y, Z):	[µm]	5.000	5.000	0.000
# Pixel Area (X, Y, Z):	[px]	100	100	1
# Interferometer Center/Distance:	[µm]	548.096	0.000	 
# Averaging:	 	1	 	 
# Integration time:	[ms]	5	 	 
# Wavenumber Scaling:	 	1.000000	 	 
# Laser Source:	 	4.5-15 µm nano-FTIR laser
# Detector:	 	R
# Target Wavelength:	[µm]	7.502	 	 
# Demodulation Mode:	 	Fourier
# Tip Frequency:	[Hz]	241,340.500	 	 
# Tip Amplitude:	[mV]	45.700	 	 
# Tapping Amplitude:	[nm]	77.130	 	 
# Modulation Frequency:	[Hz]	0.000	 	 
# Modulation Amplitude:	[mV]	0.000	 	 
# Modulation Offset:	[mV]	0.000	 	 
# Setpoint:	[%]	79.75	 	 
# Regulator (P, I, D):	 	4.206850	8.625812	1.000000
# Tip Potential:	[mV]	0.000	 	 
# M1A Scaling:	[nm/V]	0.426	 	 
# M1A Cantilever Factor:	 	1,000	 	 
# Q-Factor:	 	487.4	 	 
# Version:	 	2.1.11536.0
76.229256      	76.84019       	76.08843       	76.144844      	76.39226       	76.34311       	76.43913       	76.183784      	76.12572       	76.43382       	76.276         	76.33788       	76.15961       	75.89979       	76.364845      	77.25599       	79.37376       	78.187386      	77.46448       	77.63998       	76.37013       	76.52419       	75.90629       	76.68787       	76.24326       	76.27964       	76.364716      	76.24842       	76.741936      	76.11517       	76.179375      	76.49007       	76.346886      	76.27867       	76.43664       	76.4542        	76.1334        	76.43512       	76.53782       	76.37985       	76.28279       	76.45728       	75.94659       	76.19675       	76.57577       	75.95305       	76.74887       	75.42508       	76.278244      	75.816635      	76.92484       	74.698074      	75.00137       	77.361984      	75.519745      	74.03542       	73.98046       	75.9681        	75.9692        	76.27445       	76.763016      	76.19349       	76.49579       	75.96973       	76.60026       	76.7504        	76.096176      	76.36678       	76.01158       	76.63517       	76.27583       	76.07939       	76.476494      	76.50848       	76.31898       	76.433495      	76.38009       	76.30706       	76.31264       	76.555565      	76.26879       	76.42894       	76.734024      	76.2336        	76.12392       	76.45372       	76.6225        	75.82853       	76.6331        	76.588196      	76.422386      	76.40674       	76.051155      	76.49108       	76.27931       	76.20613       	76.313255      	76.8513        	76.374535      	76.40538       	
76.44031       	76.585976      	76.26754       	76.320656      	76.572365      	76.373474      	76.22728       	76.45451       	76.168365      	76.23635       	76.17218       	75.981026      	76.35102       	76.79455       	76.002235      	76.136856      	80.60594       	78.09779       	77.47991       	76.38253       	77.02772       	76.24748       	76.4487        	76.82256       	76.06146       	76.3072        	76.455086      	76.29992       	76.79514       	76.02272       	76.36275       	76.253525      	76.41534       	76.04413       	76.54305       	76.47482       	76.11935       	76.283325      	75.90052       	76.96364       	76.52845       	76.09207       	75.81458       	76.08535       	74.873055      	76.15254       	76.211655      	76.055626      	76.39934       	75.2558        	75.63365       	76.56834       	75.459915      	75.28535       	74.61328       	74.93576       	75.77255       	76.611         	76.45687       	75.98803       	76.12385       	76.6243        	76.35061       	76.42969       	76.08049       	76.355545      	76.61327       	76.142944      	76.14317       	76.77578       	76.45526       	76.1895        	76.44251       	76.391716      	76.43333       	76.20331       	76.272766      	76.4414        	76.34999       	76.11395       	76.66511       	75.91259       	76.70754       	76.29          	76.64079       	76.22625       	76.19577       	76.6998        	76.51041       	76.068115      	76.34567       	76.393456      	76.12657       	76.1241        	76.24255       	75.878334      	76.70758       	77.35276       	76.950005      	76.26846       	
76.47909       	76.86965       	75.76959       	76.67025       	75.88784       	76.35089       	76.58687       	76.50011       	76.25515       	76.24933       	76.42492       	76.28377       	76.04701       	76.05017       	76.412636      	75.97489       	78.95305       	78.56369       	78.221275      	77.3354        	76.9542        	76.64335       	75.92541       	76.5814        	76.02103       	76.22857       	76.982735      	76.12517       	76.41907       	76.18614       	76.22599       	76.38702       	76.06284       	76.35671       	76.12021       	76.30235       	75.89708       	76.10866       	74.12354       	76.27407       	76.3587        	76.27756       	76.18301       	76.12651       	76.28717       	77.4269        	75.51843       	75.44377       	76.07529       	75.12148       	76.14109       	76.32879       	75.605736      	74.84315       	75.39517       	76.44215       	76.36388       	76.45957       	76.18474       	76.35248       	76.65742       	75.96327       	76.83908       	76.28838       	75.98431       	76.56424       	76.28745       	76.319305      	76.1982        	76.548035      	76.399315      	76.00109       	76.68803       	76.27658       	76.22735       	76.54929       	76.2324        	76.336426      	76.323944      	75.972305      	76.71455       	76.1204        	76.59064       	75.86647       	75.97718       	76.01672       	77.317184      	76.476814      	76.277466      	75.42858       	76.67443       	76.08859       	76.07346       	76.67809       	76.04243       	76.08367       	77.00686       	77.89577       	78.314         	76.564674      	
76.259155      	76.77041       	75.72552       	76.511246      	76.538956      	76.21821       	76.34382       	76.17802       	76.28486       	76.4186        	76.27547       	76.17658       	76.27254       	76.32224       	76.55775       	75.22157       	78.24672       	79.04838       	78.469536      	77.693375      	76.63229       	76.51901       	76.07365       	76.3337        	75.71681       	76.78657       	76.893654      	76.075134      	75.742         	76.47482       	76.30366       	76.739174      	76.65297       	76.518036      	76.059326      	74.69128       	76.459816      	75.22282       	75.966286      	75.30546       	75.40053       	77.0472        	74.81363       	75.38418       	76.56495       	75.863144      	75.849815      	76.51062       	76.05325       	74.91013       	76.60525       	75.93622       	76.71094       	76.062584      	76.03987       	76.51616       	76.41895       	76.05373       	76.96975       	76.41966       	76.209915      	76.72552       	76.17969       	75.49195       	76.4005        	76.458145      	76.45115       	76.08564       	76.584915      	76.622215      	76.06017       	76.502235      	76.2356        	76.22502       	76.454765      	76.21047       	76.28064       	76.74924       	76.14655       	76.090515      	76.332405      	76.82166       	75.94697       	76.23295       	76.57968       	76.39619       	76.04391       	76.51152       	76.074234      	76.6537        	76.153595      	76.31915       	76.561325      	75.718414      	75.97742       	76.54836       	75.964516      	77.036255      	76.51617       	76.300186      	
76.31335       	76.24243       	76.31492       	76.15076       	76.602646      	76.17263       	76.41783       	76.44293       	76.198555      	76.57001       	76.23058       	76.2497        	76.285126      	76.484924      	75.65382       	76.20522       	77.180275      	79.35346       	77.83809       	77.64825       	77.14044       	76.40647       	75.87442       	76.89693       	76.37912       	76.02663       	76.67068       	76.79317       	75.983154      	75.12646       	76.878975      	75.63222       	76.295204      	76.9242        	76.357445      	74.14318       	76.50052       	75.10712       	76.15053       	75.47474       	75.20402       	75.49          	74.91503       	76.31511       	75.59917       	76.20734       	76.31221       	76.23467       	75.91848       	76.72373       	77.11098       	75.610916      	76.40524       	76.37449       	76.09576       	76.23436       	76.52282       	76.35951       	76.29953       	76.16603       	76.687325      	76.50602       	76.3816        	76.34823       	76.096886      	76.12076       	76.758705      	76.24908       	76.356804      	76.376724      	76.493996      	76.469826      	76.26581       	76.55954       	76.32008       	76.23281       	76.43046       	76.58139       	75.910065      	76.59663       	76.31709       	76.67994       	76.0157        	76.58542       	76.49694       	76.38315       	76.35348       	76.312805      	76.139015      	76.67149       	76.19534       	76.43238       	75.83182       	76.19499       	77.4714        	75.17133       	75.852554      	76.76049       	77.2173        	76.68259       	
76.316795      	76.23132       	76.53452       	76.24225       	76.137535      	76.34089       	76.155396      	75.736084      	77.15237       	76.35978       	76.113464      	76.42501       	76.21377       	75.98066       	76.61658       	75.77501       	77.1659        	79.78455       	77.84215       	77.77651       	77.091225      	76.14314       	75.70204       	76.297386      	76.53804       	76.76154       	74.74365       	75.83203       	76.07606       	75.345894      	76.92066       	75.622765      	76.2444        	76.18227       	75.59795       	76.387405      	75.517654      	75.28192       	76.08858       	74.596725      	76.24499       	76.26507       	75.32631       	77.228745      	76.25344       	76.49512       	76.59728       	76.25304       	76.130486      	76.83878       	75.26685       	77.05369       	76.95209       	75.75719       	76.37414       	76.41475       	76.1578        	76.23665       	76.41316       	76.32198       	75.98662       	76.675224      	76.4035        	76.490074      	76.012276      	75.940125      	76.16366       	76.890884      	76.18797       	76.702805      	76.50171       	75.0917        	77.19376       	76.30479       	76.0434        	76.527405      	75.66642       	76.86135       	76.55138       	76.17629       	76.49347       	76.34128       	76.51909       	76.419876      	76.03268       	76.73415       	76.006775      	76.628136      	75.54772       	77.27029       	76.710785      	75.81856       	75.571495      	76.54659       	76.72221       	75.55715       	78.1261        	76.028824      	75.67048       	75.968         	
76.300156      	76.12219       	76.15086       	76.60566       	76.37163       	76.17255       	76.56235       	76.694084      	75.88358       	76.438515      	76.15935       	76.13239       	76.20919       	76.21338       	76.165306      	75.89151       	75.968315      	79.886856      	78.50597       	77.101295      	76.85305       	76.28846       	76.66524       	75.84193       	75.83557       	76.815834      	76.40956       	75.3499        	75.34936       	75.89678       	75.8461        	76.663376      	76.07158       	77.4548        	75.59796       	75.26009       	75.95986       	74.330696      	76.72627       	76.92408       	76.15455       	76.574356      	76.22695       	76.40317       	75.87705       	76.77442       	76.3066        	76.20003       	75.877686      	76.64543       	77.06407       	75.862915      	76.67052       	76.490395      	76.57591       	75.958725      	76.57572       	76.062         	76.11621       	76.730064      	76.32036       	75.94896       	76.547646      	76.47943       	76.49378       	75.88394       	76.40646       	76.32598       	76.96696       	76.076416      	76.22554       	75.93979       	77.1187        	76.12565       	76.67295       	76.24666       	75.94604       	75.976875      	77.15157       	76.27933       	75.87572       	76.38633       	76.39637       	76.59502       	76.15386       	76.74204       	76.12412       	76.319176      	76.90956       	76.40531       	75.741         	76.12804       	76.740265      	75.7266        	76.428505      	75.88163       	76.03577       	77.221954      	77.55528       	76.0881        	
76.60345       	76.06903       	76.29934       	76.43926       	76.29406       	76.32587       	76.3826        	76.12985       	76.72526       	76.08267       	76.54745       	76.546005      	75.98067       	76.57228       	76.310196      	75.90614       	74.93737       	78.97208       	77.95774       	76.80888       	77.731186      	76.89172       	76.640656      	76.093864      	75.54072       	76.359566      	76.34566       	75.314766      	76.05346       	75.79418       	75.19675       	75.65771       	74.35934       	76.709625      	76.53647       	75.91209       	76.57541       	76.33559       	76.641235      	76.31697       	76.046196      	76.38157       	76.37061       	76.35669       	76.4184        	76.138855      	75.77396       	76.99639       	76.104576      	76.3617        	76.52619       	75.949066      	75.66899       	77.07164       	76.20732       	76.62803       	76.04429       	76.29881       	76.53246       	76.15925       	76.348305      	76.32402       	76.631996      	76.1552        	76.21819       	76.21506       	76.549614      	76.22441       	76.30499       	76.56329       	76.47865       	75.807014      	76.44538       	76.69191       	76.12797       	76.63465       	75.55323       	77.00844       	76.40982       	76.19001       	76.21854       	76.064224      	76.742966      	76.32118       	76.9291        	75.783516      	76.69          	76.62236       	76.291664      	76.51675       	76.068535      	76.74912       	76.07099       	75.80394       	76.29724       	76.19376       	76.74631       	76.17354       	76.813324      	77.465645      	
76.396614      	76.29989       	75.99186       	76.95544       	76.108635      	76.21668       	76.68886       	76.19811       	75.80787       	76.985115      	75.82275       	76.72123       	76.07508       	76.329636      	76.19421       	76.37581       	76.17523       	76.0437        	76.067825      	79.14933       	77.85588       	76.84102       	76.021645      	76.46545       	75.90846       	76.27536       	75.24916       	75.13274       	76.34876       	76.18487       	75.733345      	76.55764       	76.07953       	76.29798       	76.85457       	74.399826      	77.364876      	76.636284      	77.32121       	75.44767       	76.22182       	76.02658       	77.02869       	76.01415       	76.42071       	76.56138       	75.96585       	75.86656       	76.69506       	76.639824      	76.07318       	76.333496      	76.11803       	76.639694      	76.16912       	76.49894       	75.994156      	76.3634        	76.06344       	76.748024      	76.29724       	76.11488       	76.239334      	76.72357       	75.82306       	76.50866       	76.37595       	76.299225      	75.73525       	76.94541       	76.20489       	76.520676      	76.50606       	76.22759       	76.392494      	76.51138       	76.216545      	76.36726       	76.56102       	76.241234      	76.32007       	76.359184      	76.55079       	76.38686       	76.15782       	76.621704      	76.48421       	76.02658       	76.61554       	76.34239       	75.62257       	76.51795       	76.65363       	76.29332       	76.685936      	76.59438       	74.866295      	76.40954       	76.73907       	77.16532       	
76.477585      	76.78988       	76.271805      	76.18478       	76.40175       	76.60028       	76.611435      	76.3363        	75.79161       	76.40234       	76.75274       	75.97637       	76.41434       	76.13609       	76.592545      	76.31485       	76.09357       	75.656944      	75.4858        	78.475105      	77.5791        	76.87942       	76.63677       	75.74882       	74.714355      	76.29846       	76.20984       	76.61275       	76.29063       	76.19644       	76.421326      	76.42164       	76.22518       	76.18273       	76.88675       	76.99309       	75.73897       	76.290436      	76.70578       	76.30599       	76.04511       	76.201416      	76.496185      	75.91431       	76.737656      	76.58809       	76.44915       	76.40686       	75.94814       	76.1122        	77.19544       	76.30709       	75.87153       	76.56009       	76.81235       	75.66177       	76.463875      	76.41803       	76.25021       	76.0045        	76.27584       	76.454025      	75.96531       	76.11307       	76.55459       	76.58098       	76.05261       	77.06047       	76.188965      	75.739         	76.662704      	76.59504       	76.78839       	75.19128       	76.335594      	76.24476       	76.791954      	76.416046      	75.951416      	76.91115       	76.12819       	76.41419       	76.48604       	76.13426       	76.49117       	76.15689       	76.36538       	76.7289        	75.81558       	75.21915       	77.51082       	75.91595       	76.37856       	76.271         	76.3529        	76.192764      	75.88166       	76.59469       	78.0087        	77.38786       	
76.51411       	76.86899       	76.07323       	76.09999       	76.6771        	76.1699        	76.07511       	76.59363       	76.26417       	76.56762       	76.458176      	76.07089       	76.29166       	76.59201       	76.418274      	76.22737       	76.63891       	75.66097       	77.259995      	75.47684       	76.69876       	76.50504       	76.44328       	76.47329       	76.453125      	76.109764      	76.77082       	76.0762        	76.63334       	76.576096      	76.26368       	76.54912       	76.63527       	75.14298       	77.27699       	76.6942        	75.88443       	75.96412       	76.65535       	76.37913       	76.2299        	75.98534       	76.61952       	76.38815       	76.40459       	76.48025       	76.34352       	76.542915      	75.860214      	76.6718        	76.36992       	76.30189       	75.77427       	76.76651       	76.56701       	76.16328       	76.1946        	76.516556      	76.3283        	76.06517       	76.59848       	75.91936       	76.59409       	76.395355      	76.217155      	76.43142       	76.257416      	76.329216      	76.58556       	76.2057        	76.671646      	76.39836       	76.243996      	76.47854       	76.60459       	76.04797       	75.86383       	75.47038       	77.83137       	76.77665       	76.46933       	76.38306       	76.23928       	76.22747       	76.91918       	76.222534      	76.25136       	76.56821       	76.52174       	76.42676       	75.992805      	77.06313       	75.71048       	76.063484      	76.36625       	76.125084      	76.208786      	75.62703       	76.4094        	76.788246      	
75.84093       	76.56261       	76.021904      	75.8172        	76.85955       	76.3501        	76.25058       	76.69944       	76.08556       	76.21104       	76.624504      	76.489         	76.165085      	76.621284      	76.180084      	76.15626       	76.6067        	76.418236      	76.61564       	76.099236      	76.62949       	76.15134       	76.29707       	76.6124        	76.67363       	76.231766      	76.48382       	76.31334       	76.15967       	76.4393        	76.27388       	76.402245      	76.41171       	76.26444       	76.629005      	76.33897       	76.43157       	76.465195      	76.06868       	76.42234       	76.49098       	76.11724       	76.57495       	76.4144        	76.14897       	76.3899        	76.33584       	76.46479       	76.09394       	76.78099       	76.00935       	76.41105       	76.66203       	76.248245      	76.503075      	76.05364       	76.17641       	76.616875      	76.1956        	76.33965       	76.57384       	76.15668       	76.1811        	76.648026      	76.33656       	75.92652       	76.78982       	76.70701       	75.64872       	76.427414      	76.42555       	76.38392       	76.44832       	76.41419       	76.03253       	76.2965        	76.5316        	76.632675      	76.01161       	76.01452       	76.38098       	76.65677       	76.50469       	76.25027       	76.47876       	76.59042       	75.57811       	76.51819       	77.241615      	75.54471       	76.59184       	76.60915       	76.4519        	76.32842       	75.47948       	76.74762       	76.53247       	77.05314       	77.90329       	77.12183       	
76.17301       	76.522095      	76.51127       	76.07915       	76.3396        	76.51505       	76.357506      	76.4776        	76.11865       	76.22931       	76.94432       	76.19978       	76.1605        	76.49606       	76.33655       	76.088326      	76.33822       	76.433334      	76.51591       	76.580124      	76.30973       	76.302864      	76.54169       	76.53205       	76.30102       	76.3923        	76.537544      	76.39468       	76.22315       	75.87653       	77.08206       	76.35554       	75.80479       	76.97338       	76.1718        	76.46403       	76.38792       	76.18551       	76.66724       	76.262115      	76.47782       	76.25658       	76.652084      	76.0912        	76.4132        	76.38465       	76.13542       	76.19274       	76.814766      	76.35406       	76.42745       	76.01868       	76.522865      	76.27317       	76.91891       	75.47433       	76.319016      	76.23041       	76.28909       	76.275406      	76.6311        	75.98223       	76.56504       	76.518456      	75.941666      	76.576546      	76.216866      	76.21694       	76.52826       	76.26616       	76.56229       	76.61187       	75.93058       	76.43462       	76.34705       	76.329956      	76.33928       	76.48056       	76.34369       	76.358055      	76.46926       	75.79906       	76.724464      	76.93898       	75.53105       	76.30337       	76.692055      	76.33508       	76.73875       	76.107315      	76.23108       	76.609886      	75.99156       	76.74313       	76.26449       	76.67554       	76.371056      	76.4205        	76.64867       	76.76432       	
76.12715       	76.19901       	75.95138       	76.61508       	76.40214       	76.13101       	76.39692       	76.68583       	76.218475      	76.27977       	76.7419        	76.130226      	76.61965       	75.88307       	76.733345      	75.887695      	76.20251       	76.45769       	76.6737        	76.05829       	76.11657       	76.71763       	76.66324       	76.21038       	76.32466       	76.5919        	76.43833       	76.440895      	75.79474       	76.67712       	76.36681       	76.27859       	76.52059       	76.33263       	76.17883       	76.39062       	76.22055       	76.22639       	76.719215      	76.23415       	76.52861       	76.41216       	76.158646      	76.45562       	76.21796       	76.34348       	76.640915      	76.2789        	76.23066       	76.42383       	76.03424       	76.588875      	76.24313       	76.30509       	76.118484      	76.69999       	76.10799       	76.10302       	76.55101       	76.0097        	75.28471       	76.86865       	77.370804      	76.04341       	76.36987       	76.451836      	76.21435       	76.43368       	76.36438       	76.34832       	76.56086       	76.354744      	76.19844       	76.44978       	75.50876       	77.11449       	76.50621       	75.96157       	76.60371       	76.17428       	75.90215       	76.92661       	76.17917       	76.15245       	76.66414       	76.49838       	76.06252       	76.664955      	76.28454       	76.207825      	76.35505       	76.13234       	76.49714       	76.55497       	76.18526       	77.01476       	76.782295      	75.52997       	76.14243       	76.87542       	
76.23857       	75.872314      	76.605865      	76.15279       	76.50888       	76.36096       	76.150246      	76.637314      	76.50309       	76.29406       	76.299416      	76.44979       	76.56641       	75.91362       	76.64669       	76.41539       	76.512886      	76.25795       	76.11915       	76.59021       	76.35475       	76.644646      	76.377464      	76.26853       	76.39254       	76.36124       	76.245224      	76.53366       	76.22785       	76.20259       	76.399826      	76.43625       	76.33913       	76.182236      	76.633224      	76.10257       	76.599464      	76.13106       	76.27491       	76.650154      	76.269295      	76.28882       	76.56613       	76.293205      	76.18918       	76.51769       	76.38345       	76.128105      	76.42152       	76.41236       	76.36674       	76.33747       	75.941154      	76.847176      	76.06331       	76.6977        	76.34386       	76.1877        	75.855415      	76.79417       	76.20258       	76.47126       	76.248535      	76.261665      	76.64853       	76.23303       	76.5022        	76.43336       	76.467896      	76.292534      	76.08101       	76.46963       	76.203476      	76.51708       	76.46454       	76.483246      	76.04315       	76.52719       	76.50942       	75.948265      	76.25106       	76.47581       	76.21655       	76.554855      	76.537766      	75.882866      	76.630554      	76.56288       	76.04468       	76.48957       	77.04365       	76.277824      	75.72616       	75.98691       	75.99337       	76.679276      	76.06189       	76.29223       	76.97189       	76.94484       	
76.25804       	76.4236        	76.40315       	76.11406       	76.89118       	76.24392       	76.414474      	76.183754      	76.58753       	76.37585       	76.33304       	76.49062       	76.07915       	76.38563       	76.16782       	76.65321       	76.26318       	76.415146      	76.58509       	76.10217       	76.26997       	76.61875       	76.67397       	76.29105       	76.29836       	76.51589       	76.139114      	76.21616       	76.361176      	76.756165      	75.99783       	76.41493       	76.46578       	76.37817       	76.51388       	75.95809       	76.60531       	76.3736        	76.25974       	76.33512       	76.49038       	76.17727       	76.40018       	76.462425      	76.2452        	76.25406       	76.688065      	76.37477       	76.12307       	76.53556       	75.881004      	76.89824       	76.42186       	76.28361       	76.38934       	76.24658       	76.55562       	75.79806       	76.111206      	76.48237       	76.435905      	76.44337       	76.105225      	76.59146       	76.1578        	76.23313       	76.41557       	75.975945      	76.92718       	76.19404       	76.25384       	76.44411       	76.09338       	76.170135      	76.68501       	76.23555       	76.2466        	76.41919       	76.3082        	76.68586       	76.19674       	76.27472       	76.18023       	76.454445      	76.468506      	76.229355      	76.63054       	76.30115       	76.061195      	76.80384       	76.30674       	75.867744      	76.892         	75.87752       	76.395065      	76.55353       	76.453186      	76.64391       	76.20872       	76.54792       	
76.51709       	76.367645      	76.352165      	76.45061       	76.01265       	76.411224      	76.60535       	76.01933       	76.296585      	76.60111       	76.1601        	76.48103       	76.34285       	76.18699       	76.11362       	76.45225       	76.64535       	76.31184       	76.203125      	76.22589       	76.637886      	76.012024      	76.87076       	76.56067       	76.435295      	76.14016       	75.79907       	76.85094       	76.16309       	76.22722       	76.50471       	76.260025      	76.3515        	76.47192       	76.241615      	76.06887       	76.595         	76.285164      	76.482414      	76.18108       	76.382416      	76.5152        	76.31355       	76.26249       	75.11321       	77.38822       	76.822334      	75.90458       	76.222946      	76.540146      	76.230415      	76.16886       	76.3133        	76.756134      	75.58952       	77.12137       	76.487564      	75.81166       	75.78571       	77.27222       	76.141846      	76.40037       	76.17221       	74.938774      	77.181595      	77.24638       	75.90455       	76.37941       	76.32645       	76.36944       	76.335144      	76.317764      	76.51663       	76.330124      	76.417534      	74.84665       	77.65636       	77.16048       	75.631516      	76.500015      	76.53392       	76.50414       	76.36716       	76.35501       	76.257164      	76.52639       	76.38994       	76.260635      	76.294365      	76.691795      	76.264725      	76.384895      	76.16127       	75.96806       	76.73633       	76.02588       	76.32161       	76.891525      	76.62512       	76.46509       	
76.35329       	76.46712       	76.371994      	76.46301       	76.107086      	76.898315      	76.08107       	76.435394      	76.1924        	76.47324       	76.32691       	76.54917       	76.29284       	76.38326       	76.221405      	75.99318       	76.70866       	76.152664      	76.36709       	76.44052       	76.42072       	76.599625      	76.274666      	76.44777       	76.10691       	76.61957       	76.10854       	76.652176      	76.216866      	76.459404      	76.45039       	76.14332       	76.349815      	76.480934      	76.10996       	76.50881       	76.21611       	76.553986      	76.22854       	76.612404      	76.44973       	76.22231       	76.25266       	76.03316       	76.72489       	76.2343        	76.55586       	76.241585      	76.242355      	76.51302       	76.32565       	76.21397       	76.60417       	76.516685      	76.071106      	76.59641       	76.250175      	76.08228       	75.33741       	77.214516      	76.39081       	76.4955        	76.11463       	76.63319       	76.52033       	76.052185      	76.54091       	76.47599       	76.12237       	76.462685      	76.333206      	76.10223       	76.37991       	76.43246       	76.50357       	76.20438       	76.2071        	76.67693       	76.28902       	76.504776      	76.17332       	76.3329        	77.00838       	75.66401       	76.33985       	76.385704      	76.465706      	76.3377        	76.28239       	76.18413       	76.3843        	76.68573       	76.09893       	76.60755       	76.175995      	75.76968       	75.964714      	79.87514       	81.31897       	80.27756       	
76.2439        	76.421455      	76.36759       	76.09153       	76.2552        	76.57656       	76.21494       	76.42979       	76.762054      	76.47601       	76.220985      	76.04341       	76.62526       	76.22917       	76.43748       	76.0645        	76.51377       	76.56081       	76.52191       	76.202866      	76.202255      	76.36772       	76.30412       	76.91249       	76.364494      	75.88825       	76.66473       	76.264336      	76.14069       	76.43876       	76.17632       	76.084236      	76.4971        	76.343605      	76.13458       	76.889854      	76.07976       	76.398094      	76.54872       	76.18307       	76.2768        	76.40568       	75.93554       	76.205444      	76.78829       	76.57688       	76.40643       	75.94539       	76.63092       	76.507996      	76.252464      	76.50777       	76.29203       	76.154755      	76.55815       	76.02317       	76.62305       	76.032875      	76.172585      	76.33739       	76.39623       	76.30662       	76.4504        	76.272026      	76.3265        	76.67026       	76.16392       	76.43159       	76.33526       	75.93363       	76.47341       	76.527855      	76.22557       	76.528435      	76.32313       	76.283745      	76.886795      	75.35348       	76.74969       	76.3707        	76.208244      	76.69429       	76.2659        	76.21779       	76.45785       	76.418846      	76.43669       	76.34103       	76.48334       	76.45115       	76.276184      	75.555664      	77.20933       	77.67605       	76.934616      	78.167305      	78.40578       	77.709335      	77.98981       	77.84269       	
76.57235       	76.202034      	76.13914       	76.51343       	76.0833        	76.642685      	76.370735      	76.12514       	76.6503        	76.11539       	76.43958       	76.21868       	76.59977       	76.16362       	76.6489        	76.24524       	76.38263       	76.50415       	76.12603       	76.55704       	76.28238       	76.59781       	76.38213       	76.16606       	76.64085       	76.31157       	76.63128       	76.19771       	76.25607       	76.492676      	76.35495       	76.3634        	76.49008       	76.30079       	76.45395       	76.35965       	76.3335        	76.3218        	76.38136       	76.3504        	76.43929       	76.3207        	76.30388       	76.42807       	76.4274        	76.19945       	76.51626       	76.2795        	76.44809       	76.32432       	76.33727       	76.08465       	76.39755       	76.785515      	76.172516      	76.36276       	76.59661       	76.025566      	76.49148       	76.23076       	76.058556      	76.53026       	76.38963       	76.34443       	76.066444      	76.78477       	76.30373       	76.35436       	76.40555       	76.296906      	76.2162        	76.27683       	76.51507       	76.40745       	75.90992       	76.62691       	76.37221       	76.119446      	76.24397       	76.51733       	76.59931       	76.03267       	76.41926       	76.23573       	76.26702       	76.09378       	76.13217       	76.45094       	76.8524        	77.35736       	78.141655      	78.29018       	77.57919       	76.89704       	76.484795      	77.294         	77.0036        	76.25619       	76.33127       	76.67511       	
76.77259       	76.13505       	76.4692        	76.66524       	76.07303       	76.28283       	76.64774       	76.18314       	76.172165      	76.66528       	76.12215       	76.35657       	76.49404       	76.297775      	76.41499       	76.48471       	76.32047       	76.425995      	76.27998       	76.19877       	76.450966      	76.40224       	76.31173       	76.57106       	76.553665      	76.59781       	76.281395      	76.26005       	76.363914      	76.31413       	76.37826       	76.14493       	76.59495       	76.38808       	76.143486      	76.4341        	76.31881       	76.39607       	76.19338       	76.56417       	76.35572       	76.21508       	76.29938       	76.40077       	76.34726       	75.77938       	76.20889       	76.01161       	76.72197       	76.515724      	76.40602       	76.50389       	75.86302       	76.725365      	76.32194       	76.2227        	76.647804      	76.43617       	75.73436       	76.421005      	76.50943       	76.049194      	76.48385       	76.27611       	75.890076      	76.683235      	76.456314      	76.06554       	76.68917       	76.11863       	76.45172       	76.53546       	76.147285      	76.53105       	76.24562       	76.29087       	76.342186      	76.31949       	76.30438       	76.500854      	76.113106      	76.731155      	76.38864       	76.097885      	76.378265      	75.968956      	76.206894      	79.492165      	78.82072       	77.347916      	76.395935      	76.795296      	76.96125       	76.5221        	76.48138       	75.96445       	76.33001       	76.34793       	76.35938       	77.37408       	
76.616295      	76.46324       	76.26889       	76.47733       	76.08148       	76.51717       	76.43551       	76.11414       	76.56876       	76.46291       	75.89741       	76.72948       	76.4172        	76.41366       	76.32415       	76.143105      	76.57423       	76.283485      	76.426865      	76.27126       	76.39589       	76.51946       	75.95676       	76.70179       	76.38354       	76.55421       	76.146996      	76.748024      	76.49084       	76.06832       	76.45085       	76.223366      	76.57601       	76.542145      	76.090614      	76.34596       	76.39188       	76.254555      	76.664505      	76.12976       	76.55383       	76.136566      	76.51392       	76.18022       	76.31498       	76.20912       	76.57834       	76.204926      	76.35877       	76.55188       	76.339745      	76.34714       	76.34425       	75.11627       	77.412445      	76.34801       	76.44232       	76.38544       	76.19754       	76.04127       	76.67259       	75.89696       	76.23925       	76.408104      	76.235405      	76.29459       	76.390884      	76.37565       	76.63085       	76.01154       	76.51527       	76.00135       	76.49199       	76.400116      	76.39597       	76.400345      	76.471794      	76.080605      	76.266174      	76.57527       	76.39141       	76.20829       	76.75162       	75.74332       	74.98536       	78.07311       	79.149826      	78.424545      	78.05868       	76.99507       	76.143616      	76.56076       	76.234406      	76.3125        	76.278275      	76.621704      	76.19459       	76.41245       	76.87271       	76.20264       	
76.34257       	76.075775      	76.515816      	76.304565      	76.44022       	76.48089       	76.15843       	76.5988        	76.48366       	76.27143       	76.54371       	75.951035      	76.44533       	76.463745      	76.46955       	76.11089       	76.53211       	76.30152       	76.28082       	76.50087       	76.15941       	76.37573       	76.31428       	76.64675       	76.237434      	76.70477       	76.6141        	75.97511       	76.46208       	76.41728       	76.18205       	76.39121       	76.39808       	76.44976       	76.20804       	76.50803       	76.40694       	76.21163       	76.59517       	76.40074       	76.19589       	76.29271       	76.42499       	76.676704      	75.99076       	76.59138       	76.163025      	76.172005      	76.489494      	76.25139       	76.38643       	76.032166      	76.41653       	77.01453       	75.98372       	76.40847       	76.380264      	76.312195      	76.19054       	76.30603       	76.21326       	76.30086       	76.22994       	76.37442       	76.373535      	76.541504      	76.21838       	76.46905       	76.219604      	76.28228       	76.747025      	75.995674      	76.613884      	76.171684      	76.42151       	76.228065      	76.32063       	76.39952       	76.1834        	76.5529        	76.05221       	76.4729        	75.89335       	76.67386       	75.45353       	79.94062       	78.774284      	77.82702       	77.07338       	76.658806      	76.22807       	75.50193       	77.451965      	76.99004       	75.49601       	75.94784       	75.67441       	75.89921       	77.03991       	77.04588       	
76.4978        	76.70848       	76.26573       	75.87918       	76.54071       	76.56203       	75.973656      	77.009964      	76.35173       	76.1241        	76.35562       	76.23214       	76.69822       	76.21854       	76.582756      	76.55332       	76.11389       	76.20103       	76.403496      	76.47308       	76.13562       	76.37996       	76.52093       	76.48237       	76.42255       	76.429085      	76.367294      	76.373634      	76.28849       	76.19395       	76.47653       	76.14832       	76.63077       	75.68863       	77.749016      	75.9718        	76.25795       	76.33945       	76.57786       	75.97198       	76.061874      	76.48541       	76.74256       	76.2974        	76.39502       	76.381226      	76.40588       	76.02612       	76.43762       	76.623825      	76.4763        	76.27099       	76.17895       	76.44271       	76.508705      	76.23822       	76.320625      	76.26846       	76.46217       	76.148705      	76.47848       	76.35814       	76.76144       	75.497955      	76.26771       	76.35503       	76.38957       	76.21032       	76.53187       	76.08661       	76.48132       	76.538414      	76.24872       	76.063545      	76.72057       	76.20026       	76.467125      	76.13941       	76.45031       	76.509026      	76.01845       	76.24728       	76.43295       	76.01254       	76.240906      	80.310646      	77.7229        	77.60854       	77.668106      	76.66288       	76.32656       	76.22615       	76.35732       	76.92709       	75.52533       	76.6297        	75.95006       	75.948975      	77.162315      	77.105064      	
76.38668       	76.29403       	76.650276      	76.26074       	76.35765       	75.95186       	76.47967       	76.33875       	76.206215      	76.371925      	76.39845       	76.45286       	76.52137       	75.96992       	76.660095      	76.60566       	76.2267        	76.28694       	76.62815       	76.379524      	76.38565       	76.04578       	76.69836       	76.23938       	76.20121       	76.488         	76.26442       	76.604836      	76.32393       	76.10792       	76.29566       	76.351166      	75.23317       	77.322426      	77.53043       	76.76995       	75.34874       	75.94513       	76.88063       	76.441086      	76.39519       	75.793         	76.42937       	76.50373       	76.19139       	76.179825      	76.192665      	76.62116       	76.375946      	76.11903       	76.6084        	76.28976       	76.164276      	76.623955      	76.21857       	76.3484        	76.11357       	76.35758       	76.49358       	76.00941       	76.006355      	76.89871       	76.228806      	76.336426      	76.273026      	76.43401       	76.27401       	76.21009       	76.53139       	75.98388       	76.26621       	76.77789       	76.472046      	76.127205      	76.3449        	76.64707       	76.55541       	75.93765       	76.68025       	76.23801       	75.99897       	76.3323        	76.29111       	76.398834      	74.943184      	80.097824      	78.6686        	76.81456       	77.598015      	77.43552       	76.31825       	76.459045      	75.90677       	76.87995       	76.34696       	76.009224      	76.32872       	75.97542       	76.60929       	77.22711       	
76.19219       	76.495476      	76.238106      	76.3557        	76.612274      	76.48596       	76.20116       	76.111015      	76.544014      	76.53351       	76.05117       	76.21372       	76.55849       	76.37827       	76.31561       	76.42172       	76.27977       	76.17976       	76.526474      	76.31241       	76.31077       	76.67977       	76.31984       	76.374146      	76.324814      	75.64754       	77.10432       	76.330284      	75.93735       	76.817154      	76.21882       	76.13684       	76.4083        	76.31221       	76.27094       	76.481514      	76.25387       	76.48167       	76.53201       	76.07594       	76.61168       	76.36211       	76.540405      	76.24138       	76.55267       	75.94215       	76.25411       	76.73121       	76.402115      	76.24643       	76.379974      	76.43854       	76.24775       	76.54062       	76.26188       	76.50576       	75.94568       	76.34296       	76.746086      	76.06871       	76.36338       	76.103775      	76.62922       	76.23784       	76.34456       	76.46747       	76.164825      	76.675964      	76.24158       	76.347595      	76.60506       	76.27822       	76.251076      	76.091866      	76.54805       	76.2352        	76.13459       	76.83366       	76.32923       	76.13801       	76.53259       	76.32434       	76.45344       	76.05654       	74.92797       	79.08375       	78.41008       	77.63241       	77.37468       	77.69907       	76.28805       	76.12771       	75.685074      	76.63718       	76.6216        	75.75855       	77.59844       	75.990906      	76.321655      	76.75372       	
76.525215      	76.578545      	76.42317       	76.347946      	76.50646       	76.15066       	76.17705       	76.61296       	76.2586        	76.138756      	76.77498       	76.206314      	76.35073       	76.46923       	75.92497       	76.73777       	76.14685       	76.35696       	76.27179       	76.82383       	76.23755       	76.39981       	76.18413       	76.3708        	76.335304      	76.144775      	76.47149       	76.53568       	76.44572       	76.49206       	76.35758       	76.34439       	76.21436       	76.33755       	76.215805      	76.345406      	76.63777       	76.41068       	76.06057       	76.574234      	76.30093       	76.41705       	76.10496       	76.660095      	76.123055      	76.717415      	75.99685       	76.40709       	76.69908       	76.05901       	76.52227       	76.313614      	76.08622       	76.582405      	76.23606       	75.09456       	76.947556      	75.78594       	77.58152       	76.22188       	76.20859       	76.416405      	76.32904       	76.168976      	76.41933       	76.31462       	76.22341       	76.705124      	76.15111       	76.11415       	76.719864      	76.65022       	76.05453       	76.10793       	76.33753       	76.51949       	76.25933       	76.49758       	76.21952       	76.338974      	76.32795       	76.32272       	76.21285       	76.148094      	75.99545       	77.55807       	79.34524       	77.51038       	77.70409       	77.24071       	77.09749       	76.1765        	76.32128       	76.30811       	76.32681       	75.87215       	76.06619       	76.11107       	77.008545      	76.48276       	
76.46868       	76.348495      	76.37663       	76.46671       	76.321785      	76.36455       	76.47303       	76.05699       	76.277626      	76.60802       	76.09909       	76.458145      	76.32152       	76.77088       	76.12352       	76.15836       	76.483246      	76.318726      	76.21039       	76.41947       	76.56541       	76.33164       	76.447586      	76.15038       	76.57513       	76.31548       	76.1608        	76.43552       	76.660286      	76.3831        	76.07468       	76.43616       	76.47338       	76.48755       	76.1845        	76.566055      	75.98718       	76.373726      	75.80281       	76.95841       	75.89839       	76.680405      	76.44337       	76.29762       	76.34529       	76.52115       	76.28713       	76.40459       	76.23919       	76.34688       	76.41817       	76.39501       	76.27746       	76.19808       	76.059975      	76.40666       	78.35235       	79.05153       	77.491196      	76.147354      	75.21001       	74.95889       	73.308334      	74.265114      	76.1324        	76.69395       	76.13764       	76.31576       	76.46658       	76.330475      	76.416336      	76.495056      	75.97962       	76.446266      	76.67585       	76.398186      	76.418884      	76.354485      	76.22738       	76.41469       	76.1081        	76.435394      	76.02486       	76.30976       	76.179565      	75.590996      	80.26603       	78.37924       	77.87185       	77.52215       	77.12826       	75.93317       	76.07684       	76.47168       	76.81063       	76.17616       	76.34834       	76.1418        	76.50448       	76.44223       	
76.23902       	75.83976       	76.84263       	76.27544       	76.34501       	76.55824       	76.13695       	76.44465       	76.24743       	76.22599       	76.37097       	76.59098       	76.00591       	76.716805      	76.35416       	76.31361       	76.5167        	76.53193       	76.27072       	76.20728       	76.09942       	76.75012       	76.2935        	76.30853       	76.34318       	76.93666       	75.57407       	76.44886       	76.26052       	76.686485      	76.55613       	76.03147       	76.65695       	76.0736        	76.61615       	76.26644       	76.205055      	76.65675       	76.12857       	76.37251       	76.380196      	76.4036        	76.1099        	76.47059       	76.37768       	76.28261       	76.09215       	76.19241       	76.5984        	75.65113       	76.845         	76.03701       	76.96141       	79.25578       	77.94223       	76.49493       	76.598076      	77.33058       	76.35261       	76.64967       	75.4531        	75.53155       	73.86208       	73.438644      	76.30469       	76.535095      	76.438324      	76.16821       	76.27157       	76.54811       	76.215866      	76.53943       	76.12176       	76.261246      	76.5622        	76.2605        	76.580956      	76.225105      	76.35398       	76.456985      	76.23443       	76.26707       	76.30028       	76.25012       	76.32831       	74.89583       	79.88974       	78.54281       	77.304886      	77.6448        	77.57663       	76.517815      	76.35017       	76.60307       	76.75414       	75.4275        	76.18279       	76.610466      	76.69551       	76.45612       	
75.98024       	76.15815       	76.71697       	76.0816        	75.98493       	76.83373       	76.67132       	75.84408       	76.47845       	76.32292       	75.69217       	77.25366       	76.73433       	75.23364       	76.29512       	76.56684       	76.47728       	76.26499       	76.58092       	75.88075       	76.66953       	76.01014       	76.790764      	76.61388       	76.37783       	76.40014       	76.252975      	76.74867       	76.16955       	76.75008       	75.9723        	76.271126      	76.23565       	76.374146      	76.27597       	76.4624        	76.577805      	76.18706       	76.14332       	76.18184       	76.55871       	76.60416       	76.24397       	76.3666        	76.09175       	76.5932        	75.30723       	78.56386       	77.91043       	77.893456      	76.82833       	77.30095       	76.55757       	76.88098       	76.824905      	76.53345       	76.44249       	76.44717       	76.67723       	75.03453       	75.19606       	75.80622       	74.744194      	71.89549       	75.8384        	76.5517        	76.480576      	76.30923       	76.35938       	76.403404      	76.45659       	76.415054      	76.45159       	76.29966       	76.07463       	76.39758       	76.699295      	76.21346       	76.33167       	75.6515        	76.81319       	76.44525       	76.2312        	76.35634       	76.525696      	75.83784       	76.5679        	79.55816       	77.40601       	77.87201       	77.24949       	76.21733       	76.79391       	76.17108       	76.43824       	76.13515       	76.26576       	76.45837       	76.75338       	77.09087       	
76.53075       	76.4285        	76.70801       	76.21033       	76.03232       	76.49056       	76.32344       	76.39707       	76.5233        	76.19916       	76.6264        	76.47542       	76.28821       	76.33661       	76.16315       	76.44897       	76.15252       	76.76264       	76.662796      	75.8094        	75.96067       	76.22712       	76.31923       	76.37597       	76.41338       	76.40182       	76.29183       	76.436455      	76.61959       	76.161865      	76.33818       	76.54484       	76.008         	76.75711       	76.2687        	76.22351       	76.30216       	76.12161       	76.47581       	76.59467       	76.20155       	75.61539       	77.27283       	78.33358       	76.73565       	77.757904      	77.30989       	77.09212       	77.09437       	76.63574       	76.64924       	76.09067       	76.489174      	76.50074       	75.90014       	76.162025      	76.81139       	76.173164      	76.05774       	76.88606       	75.943016      	75.20895       	74.34873       	73.371346      	74.97325       	76.13982       	76.68398       	76.352776      	76.46452       	76.24746       	75.906006      	76.64766       	76.2709        	76.451454      	76.629585      	76.47774       	75.85212       	76.634995      	76.81408       	75.759544      	76.62923       	76.185         	76.10207       	76.6214        	75.93206       	75.712715      	77.38485       	79.36824       	77.69924       	77.20691       	77.3635        	76.791824      	76.50829       	76.04969       	76.52856       	76.19247       	76.38276       	76.7332        	76.4628        	76.69476       	
76.73804       	75.72672       	76.47957       	76.21308       	76.472534      	76.52567       	76.313675      	76.25375       	76.45038       	76.30093       	76.39436       	76.68404       	75.69295       	76.36646       	76.4282        	76.25557       	76.42309       	76.73453       	75.913216      	76.33849       	76.44262       	76.490105      	76.20375       	76.56953       	76.135315      	76.60492       	76.162285      	76.29776       	76.94646       	76.10584       	76.3679        	76.47684       	76.5498        	75.94135       	76.37914       	76.48418       	75.91241       	76.00205       	75.53523       	78.56024       	77.599396      	77.85151       	77.11973       	76.806564      	77.216866      	76.950935      	76.24507       	76.69405       	76.05994       	76.4205        	76.35029       	76.45452       	76.02908       	76.7722        	76.27964       	76.33394       	76.50676       	76.36145       	76.18871       	76.70552       	75.17538       	76.49823       	73.52194       	74.45595       	74.0751        	76.44578       	76.5838        	76.37163       	76.32171       	76.222305      	76.414375      	76.22346       	76.08696       	76.60147       	76.3446        	76.32521       	76.33474       	76.59316       	76.21502       	76.30545       	76.211174      	76.412476      	76.276924      	76.066696      	76.10774       	76.107254      	77.095795      	79.081795      	78.02345       	77.37787       	77.492935      	77.16591       	76.538185      	76.200615      	76.65691       	76.164566      	76.37438       	75.90749       	76.354324      	76.35308       	
76.673386      	75.53798       	76.39674       	76.47157       	76.419945      	76.36172       	76.22804       	76.46439       	76.46019       	76.43401       	76.27077       	76.16307       	76.377525      	76.35355       	76.64481       	76.13186       	76.2751        	76.499405      	76.352165      	76.21306       	76.286125      	76.28367       	76.495125      	76.324066      	76.41382       	76.00931       	76.66554       	76.58014       	76.231674      	76.57243       	75.79254       	77.22484       	75.86622       	74.30282       	78.95722       	79.12263       	76.98822       	76.51783       	77.19619       	77.30953       	76.58986       	76.61444       	76.40467       	76.59487       	76.28338       	76.24175       	76.72292       	76.11839       	76.29026       	76.571785      	76.349754      	76.09673       	76.830536      	76.305534      	76.48052       	76.29959       	76.33589       	76.33385       	76.49555       	76.53034       	75.71334       	75.16703       	75.56329       	74.05063       	73.80616       	76.17238       	76.721054      	76.24572       	76.20284       	76.33981       	76.38102       	76.341934      	76.40931       	76.45311       	76.41175       	76.1183        	76.27826       	76.53237       	76.36694       	76.16995       	76.14275       	76.547165      	76.28366       	76.3398        	76.14376       	76.277176      	75.13075       	79.41849       	78.9601        	77.681274      	77.19309       	77.55281       	76.267525      	76.27204       	76.16358       	76.3294        	75.698456      	77.023544      	77.68958       	77.04589       	
76.47442       	76.29032       	76.25327       	76.604         	76.48403       	76.353264      	75.951744      	76.65393       	76.286545      	76.32223       	76.410126      	76.39933       	76.1701        	76.4578        	76.59007       	75.978294      	76.497055      	76.61807       	76.22185       	76.334114      	76.12037       	76.310486      	76.58518       	75.79903       	76.941696      	75.95243       	76.54545       	76.31896       	76.49914       	76.5888        	77.25649       	76.43785       	78.975334      	77.24541       	76.62212       	77.87508       	76.43445       	76.20362       	76.61787       	76.387665      	76.219955      	76.36626       	76.481064      	76.23933       	76.5124        	76.41178       	76.26892       	76.39543       	76.29449       	76.41582       	76.611336      	76.09546       	76.246445      	76.756096      	76.37553       	76.170334      	76.67928       	76.294         	76.129974      	76.689125      	76.2047        	76.17625       	75.72179       	73.36905       	72.565735      	74.82805       	76.08416       	76.381805      	76.538284      	76.061966      	75.91152       	76.80075       	76.40421       	76.12739       	76.50347       	76.57426       	76.12442       	76.57783       	76.53166       	76.08976       	76.064735      	76.179085      	76.224396      	76.203865      	75.57445       	76.72779       	75.448586      	77.96213       	79.7591        	77.89548       	77.50368       	77.68053       	76.509575      	76.68008       	76.026505      	76.304794      	76.27952       	76.44853       	76.79832       	76.270836      	
75.60157       	76.609856      	76.39098       	76.140526      	76.45953       	76.381935      	76.41825       	76.34696       	76.4738        	76.277756      	76.55618       	75.7448        	76.98078       	75.82305       	76.412506      	76.29593       	76.418755      	76.43215       	76.604515      	76.242485      	76.16048       	76.296265      	76.0556        	76.90361       	76.04607       	76.35424       	75.28865       	77.44453       	79.67758       	77.99231       	77.17783       	77.05031       	76.00425       	76.99551       	76.14655       	76.58787       	76.00334       	76.46746       	76.63046       	76.275055      	76.3276        	76.155334      	76.73972       	76.23256       	76.32553       	76.39868       	76.69143       	76.007515      	76.479164      	76.08175       	76.50738       	76.371284      	76.67265       	75.968475      	76.58507       	76.39283       	76.458305      	76.33993       	76.24009       	76.050224      	76.32718       	76.54019       	74.34009       	74.72203       	72.835526      	75.28936       	76.03272       	76.23717       	76.67346       	76.68381       	76.06097       	76.30239       	76.41878       	76.338615      	76.20691       	75.99985       	76.68414       	76.42116       	76.07121       	76.258606      	76.6088        	75.99629       	76.01283       	76.54412       	76.10952       	76.64014       	76.22129       	75.96764       	79.341354      	78.299545      	77.29509       	77.86884       	76.81853       	76.04112       	76.73846       	76.19434       	76.41791       	76.69342       	76.74364       	75.357864      	
76.28286       	75.99887       	76.62178       	76.415886      	76.39706       	76.12338       	76.5612        	76.146126      	76.48511       	76.38995       	76.390785      	76.30447       	76.2386        	76.92274       	76.246346      	76.2656        	76.27334       	76.534706      	76.51474       	76.24861       	76.197876      	76.04281       	76.578445      	76.46781       	75.45178       	75.43697       	79.34731       	79.36235       	78.77179       	76.59571       	76.375946      	76.60982       	76.0856        	76.275375      	76.57372       	76.28928       	76.43061       	76.58194       	76.04297       	76.58366       	76.199524      	76.33159       	76.51937       	76.4899        	76.20652       	76.16386       	76.60942       	76.15939       	76.32962       	76.405914      	76.55524       	76.11953       	76.19973       	76.06313       	76.69399       	76.21668       	76.6836        	76.019455      	76.38127       	76.22714       	76.52652       	76.37          	75.37689       	74.845726      	73.879364      	72.58413       	76.14974       	76.50231       	76.68236       	76.09662       	76.39923       	76.05587       	76.39702       	76.36861       	76.34641       	76.53414       	76.55885       	76.26617       	76.17191       	76.62627       	76.26403       	76.14993       	76.35308       	76.38387       	76.122635      	75.87051       	76.49833       	75.9563        	79.56135       	77.75576       	77.714455      	77.687675      	77.358574      	75.97573       	76.79297       	76.28145       	75.82619       	77.07285       	76.514915      	75.73216       	
76.21613       	76.25239       	76.631836      	76.39827       	76.255806      	76.37848       	76.11441       	76.35322       	76.30128       	76.61064       	76.410255      	76.4174        	75.81693       	76.846596      	76.1265        	76.70428       	76.1756        	76.465324      	76.164116      	76.14947       	76.31328       	76.31141       	76.23943       	75.96698       	74.76359       	80.61184       	78.50494       	78.315384      	77.6751        	76.2329        	76.12132       	76.30282       	76.68086       	76.11459       	76.6501        	76.10085       	76.4435        	76.33896       	76.4143        	76.381165      	76.39889       	76.07555       	76.171974      	76.59197       	76.40922       	76.44146       	76.322525      	76.46685       	76.45948       	76.34653       	76.00869       	76.61331       	76.46236       	76.21707       	76.50438       	76.28912       	76.47114       	76.77599       	76.1862        	76.50554       	76.50541       	75.841835      	76.42927       	75.429924      	72.74849       	73.857445      	76.48141       	76.21985       	76.49083       	76.214066      	76.46226       	76.19947       	76.51105       	76.20676       	76.50466       	76.19961       	76.38942       	76.363266      	76.36887       	76.37707       	76.20002       	76.49173       	76.188965      	76.31455       	76.346794      	76.57284       	76.23679       	74.54755       	79.45376       	78.57096       	77.954124      	77.50187       	77.412605      	76.085106      	76.47742       	75.9276        	76.15387       	76.823524      	77.023994      	76.6715        	
75.72696       	76.5135        	76.45945       	76.2814        	75.961525      	76.743065      	76.44656       	76.246796      	76.36617       	76.55224       	76.37439       	76.3307        	76.37044       	75.959076      	76.43911       	76.28496       	76.57964       	76.23858       	76.26779       	77.05869       	75.35081       	76.259125      	76.659325      	75.93976       	76.044014      	79.648476      	78.02249       	77.10156       	77.75049       	76.844666      	76.43821       	76.31391       	76.42771       	76.50416       	76.15347       	76.402885      	76.58905       	76.279366      	76.23634       	76.41462       	76.4095        	76.37273       	76.30533       	76.34863       	76.212746      	76.404655      	76.36874       	76.564865      	76.18182       	76.351105      	75.87577       	76.88587       	76.462685      	76.55026       	76.30781       	76.4567        	76.17894       	76.5282        	76.059616      	76.99203       	76.51691       	75.985886      	76.28848       	75.60712       	72.64155       	73.16769       	75.48444       	76.330025      	76.14078       	76.41008       	76.25338       	76.51756       	76.532394      	76.12162       	76.252464      	76.75282       	76.28429       	76.23569       	76.24247       	76.40938       	76.21298       	76.51849       	76.18397       	76.226555      	76.55215       	76.42619       	76.18917       	75.91202       	77.14338       	79.5132        	77.835045      	76.48836       	77.954315      	76.937416      	76.3624        	76.27288       	76.16957       	76.605545      	76.50994       	76.091675      	
76.051674      	76.32174       	76.315445      	76.4216        	76.2517        	76.35037       	76.538506      	76.34775       	76.32729       	76.61692       	76.058105      	76.31238       	76.66935       	76.10292       	76.51893       	76.48602       	76.49059       	76.12454       	76.54705       	76.21          	76.15362       	76.21763       	75.99571       	76.12212       	76.56322       	79.4517        	77.84909       	77.429756      	76.703125      	77.59219       	76.108864      	76.54553       	76.12047       	76.45389       	76.338554      	76.41242       	76.23636       	76.376785      	76.176155      	76.497856      	76.00026       	76.59652       	76.26698       	76.4919        	76.34245       	76.27059       	76.76165       	76.26573       	76.54343       	76.20361       	76.53123       	76.54645       	76.13957       	76.278915      	76.773026      	76.0449        	76.377266      	76.576675      	76.02469       	76.51995       	76.428024      	76.79499       	76.02922       	75.89641       	74.71369       	72.07208       	75.31143       	76.308975      	76.17257       	76.83819       	76.3178        	76.06818       	76.27438       	76.46962       	76.193954      	76.25822       	76.62816       	76.424194      	76.28955       	76.59002       	76.18454       	76.34797       	76.663055      	76.11138       	76.33948       	76.483505      	75.89514       	76.25258       	75.66047       	80.2124        	78.17222       	77.67473       	77.56335       	76.453804      	76.09491       	76.00902       	76.262215      	76.63281       	77.38397       	76.846664      	
75.71715       	76.29813       	76.61734       	76.04859       	76.62262       	76.24033       	75.96305       	76.67492       	76.091194      	76.365326      	76.62801       	76.39505       	76.13903       	76.36624       	76.08921       	76.88858       	76.0408        	75.56539       	77.19856       	76.07912       	75.79729       	76.43465       	76.28977       	76.2583        	74.66105       	80.17629       	77.38568       	78.15303       	77.62381       	77.359955      	76.10175       	76.77944       	75.8757        	76.367874      	76.136475      	76.39158       	76.554825      	76.59036       	76.03671       	76.38737       	76.31107       	76.428154      	76.42353       	76.52592       	76.28038       	76.56542       	76.29105       	76.20659       	76.33967       	76.419716      	75.78276       	76.54839       	76.61142       	75.19727       	76.00539       	77.532745      	75.14252       	77.19917       	76.20353       	76.831985      	75.84905       	77.49314       	76.08643       	75.72635       	74.84217       	73.33611       	73.027954      	76.43915       	76.15834       	76.30094       	76.086105      	76.49587       	76.380806      	76.40873       	76.386856      	76.3888        	76.1869        	76.460335      	76.02883       	76.44774       	76.51193       	76.27023       	76.0059        	76.480385      	76.232895      	76.38565       	76.44817       	76.12493       	75.86322       	80.543495      	78.689926      	76.58318       	77.10092       	77.69655       	76.077644      	75.32346       	78.25297       	76.20684       	75.74289       	75.83958       	
76.38567       	76.04317       	76.228836      	76.34421       	76.55215       	76.63473       	76.36253       	76.210686      	76.30542       	76.38178       	76.71262       	76.04604       	76.53824       	76.31794       	76.42164       	76.03204       	76.602806      	76.26293       	76.24331       	76.084404      	76.25647       	76.36262       	76.219826      	75.77705       	75.50729       	79.12702       	78.52122       	77.800545      	77.28107       	77.64451       	76.18032       	76.76096       	76.22232       	76.428024      	76.2276        	76.29657       	76.85453       	76.00911       	76.370544      	76.08623       	76.56109       	76.49384       	76.48672       	76.469475      	76.11093       	76.062775      	76.90672       	75.94614       	76.746185      	75.83713       	76.941         	76.295944      	75.96628       	76.964935      	76.00037       	76.64284       	76.717415      	76.74846       	74.311646      	77.39051       	76.301384      	76.80104       	75.358         	76.451164      	75.3171        	73.3083        	73.394485      	75.535355      	76.609116      	76.06614       	76.832535      	76.18805       	76.40017       	76.258736      	76.46208       	76.07571       	76.43687       	76.51488       	76.23725       	76.19382       	76.4287        	76.284386      	76.31582       	76.2725        	76.21738       	76.196304      	76.5592        	75.95575       	75.9642        	79.21275       	77.80763       	78.13554       	77.526665      	77.72314       	76.83031       	75.23768       	75.69336       	76.3291        	77.39548       	78.42184       	
75.58379       	76.74922       	76.48106       	76.18476       	76.345634      	76.0197        	76.7505        	76.29212       	76.36131       	75.93756       	76.5105        	76.44804       	76.073204      	76.64561       	75.87828       	76.609375      	76.25348       	76.53324       	76.39631       	76.67802       	75.652374      	76.565926      	75.389595      	76.37696       	76.19063       	76.88313       	78.98327       	78.260025      	77.50685       	77.317795      	76.83696       	76.056725      	76.371796      	76.22033       	76.32231       	76.34718       	76.49816       	76.688324      	75.66693       	76.78397       	75.93207       	76.35268       	76.6163        	76.31351       	76.53972       	76.362236      	76.29839       	76.451385      	76.338615      	76.181755      	76.77307       	76.013435      	76.39357       	75.803185      	77.11326       	76.806595      	75.5529        	75.23435       	77.66934       	76.79883       	75.92302       	76.7356        	76.05179       	75.76785       	75.7638        	73.2293        	73.99914       	75.93392       	76.18948       	76.47599       	76.65798       	75.95829       	76.43738       	76.384224      	76.0598        	76.80606       	76.34826       	76.327866      	76.37927       	76.14367       	76.27277       	76.42501       	75.95809       	76.68589       	75.77557       	76.66554       	76.29295       	76.36816       	75.61287       	77.28386       	79.435875      	78.15903       	76.152336      	77.6935        	76.938835      	76.873955      	75.62324       	77.34038       	77.47583       	75.47447       	
76.11191       	74.9912        	72.581955      	72.79973       	76.530266      	76.14364       	76.52858       	76.17005       	76.23712       	76.46293       	76.513435      	76.045616      	76.51281       	76.24681       	76.31623       	76.136635      	76.62228       	76.35789       	76.03702       	76.396805      	76.77324       	75.761986      	76.15763       	76.21299       	76.08687       	75.876976      	80.660706      	78.010056      	77.98395       	77.1393        	77.0126        	76.12086       	76.395386      	76.28208       	74.8315        	77.46043       	77.36947       	77.0003        	75.18906       	76.36079       	76.34475       	76.32164       	76.185265      	76.86913       	76.201805      	76.01229       	76.57599       	76.014         	76.56328       	76.49128       	76.16916       	76.36456       	76.44196       	76.47473       	75.92591       	76.44628       	74.88786       	77.94723       	77.8168        	75.735085      	76.28309       	76.43669       	76.78646       	74.74994       	76.27503       	73.1728        	74.0304        	75.777115      	76.23213       	76.65649       	75.815         	76.814125      	76.2757        	75.99941       	76.64842       	76.18221       	76.39906       	76.44761       	76.311455      	76.27574       	76.14307       	76.508545      	76.15354       	76.29559       	76.479355      	76.36183       	76.30032       	76.397125      	75.67624       	76.47135       	79.71493       	77.583275      	76.75576       	78.120804      	77.43395       	76.04729       	76.489235      	76.166466      	75.95737       	77.030975      	
75.74228       	75.42223       	74.281296      	72.05735       	76.11442       	76.06795       	76.3333        	76.35273       	76.14794       	76.50629       	76.53185       	76.26933       	76.36378       	76.33778       	76.29543       	76.605705      	75.91711       	76.29425       	76.68612       	76.25292       	76.32922       	75.99267       	76.54795       	76.0882        	75.94202       	75.744514      	79.57596       	78.59159       	77.23039       	76.74737       	77.962456      	76.791824      	76.21719       	76.08735       	76.79837       	76.45163       	76.31365       	76.53012       	76.04683       	76.774475      	76.230644      	76.451775      	76.334915      	76.36192       	76.37239       	76.188446      	76.501976      	76.36448       	76.499725      	76.20277       	76.34202       	76.05213       	76.2298        	76.8648        	75.74534       	76.697136      	76.70814       	76.064354      	76.7175        	76.11358       	76.320984      	76.29287       	76.73116       	75.8695        	75.0389        	74.254105      	73.878         	74.826744      	76.42859       	76.25843       	76.43773       	76.34425       	76.21976       	76.492516      	76.53444       	76.24667       	76.35987       	76.49781       	76.383286      	76.07939       	76.38239       	76.243355      	76.728386      	76.20936       	76.2318        	76.45977       	76.28327       	76.36096       	76.11572       	74.69759       	80.27362       	78.1529        	78.037865      	77.585144      	76.8042        	76.008194      	75.819         	76.31786       	77.304955      	77.795296      	
76.26608       	75.89912       	73.58047       	72.13504       	76.56837       	75.826645      	76.13423       	76.016014      	76.940285      	76.04206       	76.2862        	77.10411       	75.59381       	76.35909       	76.34452       	76.51056       	76.30001       	76.58644       	76.340775      	76.09412       	76.329155      	76.28477       	76.48467       	75.46784       	76.1793        	75.33489       	78.09473       	79.312325      	77.35436       	77.22855       	78.17448       	76.977684      	75.72599       	77.07524       	76.156654      	76.17823       	76.36664       	76.57716       	75.68622       	76.66737       	76.83359       	75.91916       	76.63675       	76.01403       	76.55615       	76.18747       	76.47787       	76.3017        	76.42724       	76.627495      	76.40667       	75.997925      	76.63976       	76.74889       	76.330086      	76.211205      	76.09548       	76.7392        	76.50475       	76.75377       	75.99729       	76.00706       	76.40772       	76.43888       	75.81406       	75.26079       	72.50234       	74.50832       	75.81406       	76.47727       	76.32834       	76.27544       	76.57758       	76.11765       	76.60627       	76.28094       	76.20894       	76.33594       	76.58109       	76.29135       	76.39829       	76.18731       	76.512856      	76.395935      	76.25126       	76.45535       	76.047226      	76.41346       	75.9493        	74.95656       	80.5244        	78.773506      	77.260254      	77.320366      	76.99985       	76.10266       	75.52785       	76.25939       	77.915565      	77.26943       	
76.280365      	75.98747       	75.01506       	72.42489       	74.989655      	76.62597       	76.07872       	76.60527       	75.77986       	76.071915      	77.52332       	75.41447       	76.27597       	76.26768       	76.70121       	75.667915      	76.03434       	77.21288       	75.600655      	76.69249       	75.90976       	76.36673       	76.318306      	76.40196       	76.12124       	76.18489       	75.73368       	79.297356      	78.56384       	77.615036      	77.779236      	76.00172       	77.27116       	76.26909       	76.18145       	76.32621       	76.658424      	76.40726       	76.44022       	76.50184       	76.18977       	76.55376       	76.274605      	76.45268       	76.24722       	76.6182        	76.05635       	76.57989       	76.14525       	76.33337       	76.225204      	76.72893       	75.70427       	76.88372       	76.59246       	76.29912       	76.22728       	76.69957       	76.43202       	76.21278       	76.84586       	74.92721       	77.80387       	76.35672       	76.0355        	76.1637        	73.70746       	71.92665       	75.878845      	76.24807       	76.503296      	76.17441       	76.31881       	76.42645       	76.29045       	75.700455      	76.74062       	76.50623       	76.1619        	76.428154      	76.32362       	76.55554       	76.12563       	76.345184      	76.274124      	76.41703       	76.41342       	76.04829       	76.2665        	75.222145      	78.74351       	78.89302       	78.16492       	77.82265       	77.25748       	76.2024        	76.23081       	76.473404      	76.46271       	76.41759       	
76.344086      	75.9704        	75.75567       	73.27711       	75.15556       	76.05355       	75.67688       	76.796394      	75.52933       	77.19361       	76.39153       	75.43965       	76.25457       	77.30349       	75.780594      	75.93309       	76.45002       	78.00743       	75.202774      	76.152214      	76.19571       	76.6452        	76.50846       	75.83285       	76.20279       	76.555916      	74.8934        	79.72044       	78.9605        	77.71059       	77.13831       	76.92855       	76.44495       	76.58288       	76.17288       	76.21378       	76.41581       	76.68398       	76.23251       	76.21997       	76.524315      	76.453835      	76.49267       	76.17125       	76.6829        	76.226685      	76.28429       	76.26751       	76.33878       	76.582924      	76.28376       	76.45777       	76.3507        	76.50073       	76.04454       	76.47166       	76.4341        	76.0433        	76.93587       	76.22313       	76.41539       	76.40299       	76.43629       	76.144135      	76.40926       	75.78831       	74.45453       	73.024895      	75.06653       	76.213264      	76.31842       	76.47285       	76.50957       	75.89721       	76.284096      	76.629234      	75.98977       	76.41548       	76.49697       	76.255394      	76.41928       	76.55816       	75.76242       	76.77533       	75.98132       	76.02708       	76.452866      	76.38359       	76.292694      	76.32978       	75.47959       	80.07716       	77.88877       	76.916855      	77.85425       	77.094635      	76.096054      	76.14632       	77.00156       	77.23779       	
75.612915      	76.161766      	75.48033       	72.88882       	74.03816       	76.85799       	76.86017       	75.524895      	76.37757       	76.31098       	76.295746      	76.36057       	76.383385      	76.37219       	76.1626        	76.247406      	76.38512       	76.557755      	76.37759       	75.65267       	76.50056       	76.20055       	76.67481       	75.91951       	76.71939       	75.62204       	75.98596       	77.84293       	78.85323       	77.15054       	78.24932       	77.3128        	76.63404       	76.17833       	76.23594       	76.10309       	76.77742       	76.35002       	76.21072       	76.54973       	76.1154        	76.67838       	76.21793       	76.23333       	76.47483       	76.042625      	76.74253       	76.22089       	76.55221       	76.373634      	76.68863       	75.66329       	76.76981       	76.37872       	76.81781       	75.96231       	76.57521       	76.0037        	76.71218       	76.266945      	76.49479       	76.447784      	76.23707       	75.97945       	76.51433       	76.169044      	75.02112       	72.88231       	74.40883       	76.286224      	76.40734       	76.2491        	76.193565      	76.17995       	76.64096       	76.46849       	76.56484       	75.85195       	75.97318       	76.596         	76.35204       	76.37328       	75.972336      	76.553505      	76.133736      	76.56654       	76.22975       	76.21249       	76.362366      	75.993065      	75.2021        	80.02347       	78.180786      	77.509705      	78.0267        	76.944374      	76.080414      	77.00016       	77.44087       	76.074036      	
76.34238       	76.774216      	75.96463       	73.98425       	73.56575       	74.71833       	76.335075      	76.12729       	76.115105      	76.49585       	76.30279       	76.02358       	76.2379        	75.95121       	77.66013       	77.082695      	75.37134       	76.18404       	76.66704       	76.23469       	76.56094       	76.2632        	76.17414       	75.933525      	76.43647       	75.80807       	75.68937       	76.82878       	80.42761       	77.85779       	77.37944       	77.9486        	76.21114       	76.30257       	76.78104       	75.78626       	76.83597       	76.23585       	76.44472       	75.62138       	76.35834       	77.094986      	76.17737       	76.3126        	76.37488       	75.94198       	76.73723       	76.55337       	76.19728       	75.7571        	76.95322       	76.422966      	76.232414      	76.21467       	76.55879       	76.05155       	76.46882       	76.54817       	76.38282       	76.30945       	76.26919       	76.60459       	76.109726      	76.32049       	75.48293       	76.31048       	75.333275      	73.8903        	74.399025      	76.179825      	76.24064       	76.04302       	76.68104       	76.15698       	76.53619       	76.19005       	76.40913       	76.51384       	76.22184       	76.464745      	75.83642       	77.40409       	75.77092       	76.09688       	76.26507       	76.27587       	76.26314       	76.20689       	76.479164      	75.964325      	75.128075      	79.258224      	78.50924       	78.3233        	77.860405      	77.118996      	76.11672       	76.886154      	76.42463       	76.51194       	
76.534744      	75.7377        	75.42371       	74.93037       	73.19247       	74.88194       	76.43069       	76.297134      	76.03936       	76.670265      	76.380295      	75.99186       	76.48496       	76.11168       	76.078735      	77.003876      	76.09317       	76.42338       	76.28503       	76.36997       	76.42281       	76.38878       	76.05754       	76.086174      	76.73588       	76.12081       	75.975945      	76.28564       	79.25064       	78.078964      	78.05012       	77.60699       	76.03998       	75.70429       	76.85533       	76.44962       	76.824745      	75.74072       	76.029816      	76.767456      	76.618866      	76.45898       	76.26063       	75.981026      	76.75666       	76.261955      	75.75372       	77.23691       	75.875984      	76.782394      	75.63458       	76.738075      	76.41396       	76.0157        	75.992516      	75.497536      	76.95658       	77.066734      	75.12515       	77.25982       	77.45084       	76.152275      	75.852036      	76.790985      	75.72508       	74.88079       	75.5146        	73.50188       	72.86149       	74.14195       	76.377525      	76.324844      	76.194         	76.72776       	76.22025       	76.14423       	76.27233       	76.587         	76.309105      	76.276665      	76.33037       	76.32206       	76.70251       	76.259605      	76.23854       	76.28344       	76.38787       	76.04824       	76.098145      	76.88383       	75.52443       	77.194336      	79.68331       	77.82852       	77.491135      	76.65608       	75.69685       	76.46083       	76.7339        	75.28775       	
76.03191       	75.98902       	76.325035      	74.88491       	73.04203       	74.01209       	76.56526       	76.10126       	76.55048       	76.088066      	76.55468       	76.36594       	76.528496      	76.369934      	76.07475       	76.68872       	76.44622       	75.921814      	76.70397       	76.71564       	75.52901       	76.4734        	76.03401       	76.4602        	76.36244       	75.918945      	75.874756      	75.21317       	80.84882       	78.41219       	77.75997       	77.34893       	76.42282       	75.7898        	77.103745      	76.10882       	75.524796      	75.6595        	77.76428       	77.664185      	75.089905      	76.26953       	76.45422       	76.22175       	76.468185      	75.84256       	77.28593       	76.28384       	76.49994       	76.04567       	76.4003        	77.08138       	75.70338       	76.192726      	76.536766      	76.2532        	76.32188       	76.48919       	76.6093        	76.2229        	76.51671       	76.30525       	75.974205      	76.88268       	76.66768       	75.75174       	75.76921       	74.169785      	73.075294      	74.91174       	76.50773       	76.19852       	76.0178        	76.71957       	76.177765      	76.58527       	75.85175       	76.63091       	76.73164       	75.96266       	76.39423       	76.44687       	76.564445      	76.152885      	76.48334       	76.424164      	75.898964      	76.44661       	75.98315       	76.435646      	75.99038       	76.77523       	79.9276        	77.61627       	76.70661       	76.99036       	77.67205       	77.104294      	74.96278       	75.4498        	
76.33049       	76.06615       	75.86888       	75.4579        	73.1879        	73.06826       	76.05091       	76.37285       	76.52095       	76.00481       	76.58511       	76.4745        	76.50411       	76.05321       	76.689835      	75.609375      	76.986         	76.038284      	76.26958       	76.40089       	76.07747       	76.71613       	76.23883       	76.23041       	76.563194      	76.16946       	76.28489       	74.59225       	80.11307       	78.9259        	77.2343        	77.482086      	76.25207       	77.289505      	76.55921       	76.07807       	76.775826      	76.206535      	75.68438       	76.96133       	76.212875      	76.39544       	76.681         	75.96697       	76.70342       	76.12007       	76.73857       	76.19679       	76.200386      	76.483665      	76.5173        	76.2067        	76.51664       	76.343025      	76.51236       	76.387474      	76.24357       	76.40753       	76.26426       	76.51095       	76.21735       	76.30758       	76.52443       	76.710625      	76.83415       	76.170235      	75.66015       	75.18404       	72.24496       	74.545906      	76.50589       	76.22298       	76.25747       	76.481415      	75.929016      	76.82377       	76.421684      	76.24503       	76.570335      	76.029         	76.52525       	76.37665       	76.45811       	76.08315       	76.509926      	76.36842       	76.1322        	76.49755       	76.218636      	76.38666       	76.42188       	75.80679       	78.44722       	76.70408       	76.76557       	78.296         	77.62801       	74.83034       	75.96752       	75.26576       	
76.14742       	77.02193       	76.06812       	75.35656       	73.5965        	73.467865      	76.054214      	76.274216      	76.26776       	76.39117       	76.32216       	76.501495      	76.376396      	76.33778       	74.693016      	77.48444       	77.21687       	75.727974      	76.32368       	76.749695      	75.94317       	76.33844       	76.55457       	75.93785       	76.91739       	75.97137       	75.93785       	75.0371        	78.126144      	79.96182       	78.37921       	77.44579       	77.29947       	76.42206       	75.89845       	76.70883       	76.53404       	75.98676       	76.76409       	76.1469        	76.571526      	76.29835       	76.25378       	76.38216       	76.09419       	76.4078        	76.23312       	76.088974      	76.408875      	76.61719       	76.33067       	76.22468       	75.94066       	76.27546       	76.60451       	76.45486       	76.29443       	76.32856       	76.68593       	76.13374       	76.31477       	76.38268       	76.42208       	75.9418        	76.99858       	77.015366      	75.890656      	74.844696      	74.33584       	72.30288       	75.74691       	76.307396      	76.38601       	76.33532       	76.554695      	76.26276       	76.56488       	76.21517       	76.42623       	76.05334       	76.50646       	76.43998       	76.5173        	76.07623       	76.10303       	76.42182       	76.2895        	76.36502       	76.32733       	76.16242       	75.94957       	76.0738        	77.210884      	77.68459       	78.592766      	77.2934        	76.85683       	76.25896       	75.1589        	75.25325       	
76.179375      	75.90508       	75.62698       	76.16568       	73.299         	73.652         	75.12862       	76.33871       	76.58417       	76.149376      	76.401634      	76.50447       	76.27533       	75.48288       	76.18148       	77.41992       	75.94471       	76.54807       	76.14187       	76.37358       	76.343445      	76.40439       	76.20746       	76.596214      	76.17263       	76.21057       	76.27262       	75.65062       	76.367874      	80.858536      	77.981964      	77.1467        	77.06203       	74.999535      	77.90063       	77.34423       	75.57513       	76.80752       	76.88615       	75.953415      	76.3032        	76.9382        	75.86744       	76.32335       	76.92202       	76.059555      	76.35149       	76.60167       	75.925545      	76.34719       	76.330956      	76.528145      	76.463135      	76.219475      	76.760475      	76.25482       	76.12919       	76.53753       	76.4969        	76.035324      	76.73752       	76.2491        	76.1161        	76.78453       	74.68995       	77.06675       	76.981735      	75.65697       	73.11106       	73.46511       	75.2022        	76.38886       	75.83773       	76.68476       	76.61133       	76.3803        	76.23437       	76.383575      	75.94845       	76.53465       	76.49184       	76.23994       	76.475586      	76.22407       	75.99228       	76.56927       	76.613655      	76.09546       	76.5594        	76.258736      	76.50125       	76.379654      	75.8984        	75.93761       	78.37336       	77.74475       	76.45548       	76.25801       	74.68251       	73.465836      	
76.16619       	76.47501       	76.18925       	76.14655       	75.38975       	72.52194       	74.15449       	76.53755       	76.333466      	76.02443       	76.351364      	76.49527       	76.235725      	76.12368       	76.59442       	76.41874       	76.16864       	76.55224       	76.19507       	76.65119       	75.96859       	76.679184      	76.14343       	76.741005      	76.369         	76.02735       	76.299545      	76.122284      	74.6994        	79.902145      	78.37705       	78.004456      	77.83548       	76.40493       	76.37898       	76.90948       	76.223434      	75.89315       	76.648506      	76.39537       	76.228004      	76.327835      	75.97676       	77.09703       	76.74255       	75.78876       	76.36632       	76.57044       	76.23348       	76.56588       	76.184204      	76.17473       	76.463196      	76.0226        	76.781364      	76.37738       	76.451324      	76.13461       	76.122444      	76.70935       	76.03775       	76.48649       	76.25283       	76.25476       	76.71889       	75.85637       	76.24944       	75.228485      	75.09569       	73.4007        	74.6421        	76.45865       	76.54549       	76.44636       	76.31047       	76.15531       	75.75459       	76.82841       	76.79237       	76.114044      	75.90355       	76.64828       	76.33659       	76.21148       	76.506935      	76.3612        	76.04866       	76.32576       	76.31717       	76.563416      	76.45076       	76.39536       	76.137146      	76.11548       	76.38478       	76.56436       	77.068535      	76.07459       	76.11177       	76.3047        	
76.193794      	76.549934      	75.45109       	76.31882       	75.38617       	74.10276       	72.94339       	76.196915      	76.71056       	76.17661       	76.45516       	75.895905      	76.18177       	76.84477       	76.37033       	76.38937       	76.07906       	76.41952       	76.23623       	76.33496       	76.57141       	76.22827       	76.4434        	76.19443       	76.15162       	76.58361       	76.00229       	76.04027       	75.72521       	77.440445      	79.27587       	77.53629       	77.84731       	77.21901       	76.36529       	76.32757       	76.81848       	76.121         	76.48465       	76.16584       	76.56321       	76.21          	76.601295      	76.83957       	76.01063       	75.83989       	76.3079        	76.262535      	76.62202       	75.875755      	76.61439       	76.18448       	76.846054      	76.43011       	75.888054      	76.68164       	76.089714      	76.58319       	76.74097       	75.98345       	76.32936       	76.46325       	76.51785       	76.46887       	75.885056      	77.11492       	76.23197       	75.65364       	74.92993       	73.31387       	73.9869        	76.3055        	76.283966      	76.64068       	76.37902       	76.05385       	76.22868       	76.702194      	76.31663       	76.38747       	76.18057       	76.41312       	76.37486       	76.6629        	76.08834       	76.43537       	76.36732       	76.396194      	76.12441       	76.42225       	76.37455       	76.133224      	76.19839       	76.39773       	75.682365      	76.68988       	76.88004       	76.64139       	76.066864      	76.4867        	
76.47289       	76.09924       	76.414055      	75.1713        	76.03046       	75.06883       	72.72707       	75.3457        	76.2726        	76.62979       	76.259476      	75.96646       	76.52193       	76.732376      	75.71523       	76.76574       	76.483925      	76.37193       	76.28305       	76.30946       	76.62076       	76.35076       	75.69621       	76.6698        	76.19088       	76.47288       	76.518654      	76.1413        	75.6761        	76.15762       	79.35963       	78.703415      	77.78997       	77.10596       	76.11494       	76.30146       	76.97399       	76.22447       	77.07631       	75.328186      	76.320206      	76.34015       	76.57165       	76.38117       	76.39847       	76.12034       	76.86751       	75.982376      	76.45596       	76.27116       	76.444824      	76.476616      	76.09544       	76.74447       	76.180084      	76.43296       	76.33467       	76.817535      	76.30697       	76.29348       	76.42501       	76.291115      	76.21769       	76.729355      	76.32062       	76.664085      	76.24133       	76.16351       	75.18757       	73.49332       	73.56467       	76.01369       	76.18767       	76.35723       	76.09581       	76.18048       	76.59947       	76.54432       	76.33468       	76.07603       	76.5295        	76.345         	76.13356       	76.63518       	76.321144      	76.38224       	76.35879       	76.27702       	76.402916      	76.14931       	76.50362       	76.52893       	76.033005      	76.131004      	76.467255      	76.44178       	76.461945      	77.1488        	77.04781       	76.354004      	
76.27921       	76.415985      	76.52824       	75.89705       	75.96705       	74.32563       	73.972275      	74.286865      	76.520035      	76.22419       	76.23233       	76.48232       	76.48825       	76.26955       	76.37529       	76.468254      	76.74504       	76.016884      	76.04718       	76.58359       	76.37644       	76.40485       	76.32251       	76.26698       	76.34723       	75.90781       	77.00133       	75.91814       	76.101555      	75.89566       	79.71424       	77.21735       	77.87601       	77.441864      	76.443         	76.31435       	76.466675      	76.314255      	76.34159       	76.35051       	76.409706      	76.4717        	76.50123       	76.091286      	76.65129       	76.20946       	76.30221       	76.24306       	76.52793       	76.1298        	76.059044      	76.585464      	75.76098       	76.09437       	77.613815      	75.75634       	76.38003       	76.429245      	76.05607       	76.613205      	76.5619        	76.76734       	74.95006       	76.4848        	76.86803       	76.73816       	76.53565       	76.43844       	75.921776      	74.0302        	72.950226      	74.210625      	76.24627       	76.437294      	76.50704       	76.05794       	76.4005        	76.604164      	76.36658       	76.092224      	76.48476       	76.43985       	76.60494       	76.11695       	76.25583       	76.53984       	76.28268       	76.21173       	76.149864      	75.982376      	76.441826      	77.51641       	75.62618       	76.32632       	76.217125      	76.454735      	76.316284      	77.173996      	77.03514       	76.122986      	
76.26173       	76.95041       	76.77645       	75.885605      	75.09042       	74.55142       	74.25264       	73.676895      	76.00586       	76.1952        	76.53028       	76.40755       	76.38983       	76.46894       	76.30281       	75.98268       	76.22519       	76.7506        	76.398346      	76.13523       	76.74899       	76.141464      	76.407234      	76.29411       	76.350975      	76.21436       	76.27288       	76.35494       	75.87046       	75.69158       	79.80592       	77.78654       	77.453094      	77.561264      	77.4469        	75.98085       	76.41129       	76.23858       	76.49559       	76.402504      	76.429924      	76.34049       	76.056564      	76.81532       	76.34806       	76.335175      	76.23456       	75.99676       	76.80346       	76.17629       	76.49351       	76.5616        	76.46291       	75.87588       	76.3107        	76.96981       	76.1591        	76.55549       	76.272064      	75.13564       	76.307045      	76.819145      	76.67272       	76.369354      	76.06795       	74.75865       	76.2468        	76.90152       	75.910545      	74.66446       	73.95059       	74.04278       	76.3391        	76.08588       	76.7113        	76.238174      	76.197266      	76.763756      	76.26445       	76.39742       	76.532684      	76.22294       	76.29626       	76.076126      	76.45615       	76.15088       	76.427315      	76.2707        	74.64503       	77.44266       	77.2           	76.876884      	76.34916       	75.418465      	76.542206      	76.46741       	76.416534      	77.35766       	77.02814       	75.99608       	
76.32699       	76.155396      	76.257645      	76.52674       	76.00862       	75.493256      	73.0522        	73.77322       	75.93905       	75.79134       	76.61926       	76.595955      	76.27796       	76.16161       	76.33775       	76.64103       	76.25999       	76.38303       	76.66258       	76.35027       	75.792786      	76.82352       	75.86468       	76.296196      	76.35802       	76.25434       	76.057434      	76.699326      	75.73762       	75.286934      	79.2363        	77.99428       	77.66877       	78.15396       	76.95388       	76.16256       	76.64155       	76.14634       	76.37121       	76.76897       	76.11464       	76.35997       	76.46339       	76.61964       	76.318596      	76.41533       	75.87074       	76.390335      	76.830246      	76.32435       	76.26443       	76.25545       	76.50089       	76.18685       	76.43492       	76.36983       	77.00156       	75.70472       	75.35104       	76.11197       	75.34285       	76.44024       	75.93533       	76.04199       	75.69906       	75.23151       	77.102325      	76.61443       	75.11085       	75.296776      	74.4565        	75.54513       	76.14121       	76.4332        	76.23023       	76.37359       	76.30105       	76.59722       	76.303894      	76.39724       	76.62161       	76.33162       	76.17009       	76.30412       	76.29141       	76.33285       	76.30547       	76.480865      	76.27984       	76.13803       	76.63772       	76.46065       	76.13814       	76.18899       	76.55182       	76.64178       	76.32397       	76.90546       	76.88494       	76.65349       	
76.29461       	76.26905       	75.938225      	75.9516        	75.83533       	75.709114      	74.54707       	72.96094       	75.75849       	76.02811       	76.43195       	75.859085      	76.7296        	76.32905       	76.297646      	76.618935      	76.024284      	76.44003       	76.50684       	75.96613       	76.621414      	76.207726      	76.46055       	76.10729       	76.79053       	76.283356      	75.95674       	76.28657       	76.531715      	75.53158       	76.76089       	79.96445       	77.66169       	77.35488       	77.55666       	76.39873       	76.05831       	76.825806      	76.68428       	75.85251       	76.42305       	76.39294       	76.36715       	76.367805      	76.349365      	76.479614      	76.18733       	76.684906      	76.187904      	76.37161       	76.090416      	76.495384      	76.996735      	75.441826      	75.58234       	76.26359       	75.555565      	76.950485      	74.5943        	75.02036       	76.54853       	76.004         	76.43182       	76.42758       	75.644035      	75.83235       	75.55267       	75.34406       	76.635345      	74.60365       	75.71905       	76.26032       	76.37778       	76.645515      	76.30613       	76.278755      	76.09395       	76.829384      	76.36245       	76.244225      	76.13514       	76.501686      	76.4977        	76.282135      	76.12124       	76.71527       	76.23873       	76.04285       	76.14189       	76.2768        	76.4232        	75.74348       	76.77498       	76.37809       	75.953674      	76.40689       	76.0479        	76.68272       	77.05128       	76.01739       	
76.08328       	76.2976        	76.04205       	77.25481       	75.2446        	75.55733       	74.433685      	73.90038       	74.623055      	76.706696      	76.13481       	76.060745      	76.3402        	76.31458       	76.24112       	76.435745      	75.91587       	76.77141       	76.30664       	76.06562       	76.617805      	76.392784      	76.22994       	76.148186      	76.36774       	76.27105       	76.461426      	76.0473        	76.422745      	76.065926      	76.28895       	79.221756      	78.30902       	78.234116      	77.702736      	76.16058       	76.5085        	76.305084      	76.381996      	76.57267       	76.47051       	76.12299       	76.18623       	76.238365      	76.383606      	76.77792       	75.92401       	74.978195      	77.07228       	75.89909       	75.49962       	76.72611       	75.53717       	76.766945      	75.8929        	76.59779       	75.04095       	76.508514      	75.611496      	76.32514       	76.21677       	74.22871       	77.27031       	75.3618        	74.45259       	76.18488       	76.40141       	76.37836       	76.06386       	76.53666       	76.33527       	76.10505       	76.60689       	75.91413       	76.21749       	76.61043       	76.09858       	76.77237       	76.13931       	76.33538       	76.3794        	76.28519       	76.498024      	76.46698       	76.37525       	76.157875      	76.46476       	76.47367       	75.63503       	76.976585      	76.108604      	76.19093       	76.68925       	76.18835       	76.26762       	76.41812       	76.46141       	77.23926       	76.19154       	75.77991       	
76.47278       	76.332664      	76.420135      	76.83851       	76.09412       	75.48297       	75.70063       	72.669846      	74.60244       	76.25122       	76.10427       	76.44346       	75.67519       	77.16238       	76.03248       	76.35087       	76.3714        	76.60848       	76.44782       	76.32023       	76.398155      	75.9755        	76.60752       	76.22118       	76.45057       	76.143         	75.628654      	77.27437       	76.232124      	76.25927       	74.65922       	80.57014       	78.356285      	77.58577       	77.47467       	76.8771        	76.12095       	76.64383       	76.377075      	76.53879       	76.01238       	76.84263       	75.90206       	76.62287       	75.71808       	75.66156       	75.56351       	77.07708       	75.1654        	75.82985       	76.406166      	75.32779       	76.13446       	76.245056      	76.00188       	75.92678       	75.90635       	75.5829        	75.169624      	76.07108       	74.687065      	76.47232       	76.435646      	76.589775      	76.22905       	76.35739       	76.36135       	76.386635      	76.5061        	76.302925      	75.87532       	76.528015      	76.072205      	76.497055      	76.28173       	76.43938       	76.28574       	76.6431        	76.12776       	76.47366       	76.41878       	76.27391       	76.323494      	76.494576      	76.46758       	75.88152       	76.70266       	76.47429       	76.166275      	76.26499       	76.4141        	76.46147       	76.12517       	76.42739       	75.98881       	76.5657        	76.14588       	76.39478       	77.73238       	77.47241       	
76.39515       	76.4293        	76.58703       	76.461494      	75.28777       	76.73733       	75.66979       	72.93746       	73.72534       	76.00826       	76.5051        	75.933075      	76.423935      	76.83725       	76.18327       	76.08084       	76.66862       	76.34438       	76.4158        	75.94707       	76.54803       	76.146416      	76.44721       	76.30308       	76.15405       	76.54408       	76.476845      	76.21419       	76.12508       	75.94995       	74.996376      	80.24204       	77.923004      	77.00822       	78.14864       	77.70903       	75.809         	76.65283       	76.33184       	76.24198       	76.27015       	75.25682       	76.17001       	76.89545       	75.52427       	75.28542       	75.32986       	76.91274       	75.73897       	76.513794      	74.36515       	76.18652       	76.032524      	75.705215      	75.5177        	75.85775       	75.75992       	76.12789       	76.593506      	75.98975       	76.33258       	76.26806       	76.61164       	76.26498       	76.48257       	76.30898       	76.32449       	76.44192       	76.151665      	76.39651       	76.20846       	76.40108       	76.61583       	76.2264        	76.06402       	76.62605       	76.26485       	76.18926       	76.479294      	76.41224       	76.253174      	76.34595       	76.34017       	76.642296      	76.54575       	76.23675       	76.27421       	76.17667       	76.6103        	76.18512       	76.33564       	76.53738       	76.07948       	76.43327       	76.129395      	76.368004      	76.324104      	76.2718        	76.49186       	77.13963       	
76.344376      	76.29818       	76.18551       	77.00485       	76.29106       	76.119606      	75.10337       	73.43265       	73.66527       	75.88995       	76.522964      	75.78188       	76.98154       	76.27387       	76.042564      	76.66767       	76.198105      	76.39895       	76.33789       	76.20642       	76.39655       	76.28972       	76.66443       	76.21766       	76.16832       	76.59901       	76.167946      	76.29466       	76.20647       	76.23982       	76.02655       	76.09503       	79.7294        	78.03377       	77.32216       	76.7685        	76.01711       	76.67808       	76.55961       	76.222885      	76.11055       	76.833466      	74.32844       	77.83624       	75.38868       	75.53712       	74.72691       	75.99039       	75.64444       	77.25545       	74.28112       	74.7282        	76.240555      	76.52762       	76.44971       	76.1755        	76.43953       	76.29857       	76.33893       	76.47789       	76.53291       	76.13151       	76.57779       	76.15273       	76.52237       	76.451195      	76.28221       	76.43673       	75.86703       	76.58166       	76.33136       	76.42203       	76.19966       	76.2262        	76.47769       	76.37426       	76.40498       	76.02945       	76.44031       	76.49694       	76.45768       	76.09164       	76.43494       	76.67505       	76.360245      	75.98439       	76.35111       	76.24832       	76.73258       	75.70991       	76.71834       	76.33595       	75.57022       	77.202354      	75.30331       	76.48637       	76.60378       	76.85522       	78.17645       	77.21713       	
76.51095       	76.15368       	76.54569       	75.87744       	76.96832       	75.74469       	75.25273       	75.00275       	73.04728       	74.63317       	76.85237       	75.60085       	76.172         	76.33905       	76.29341       	75.89674       	76.85297       	76.72775       	75.811844      	76.59379       	76.36042       	76.29279       	76.08928       	76.47275       	76.30634       	76.33556       	76.35935       	76.32604       	76.09973       	75.81431       	76.40001       	76.33298       	79.40912       	77.18281       	76.32331       	78.219376      	75.554405      	76.99977       	76.84521       	76.17274       	75.96396       	75.3526        	75.852974      	77.82648       	74.67332       	75.64503       	75.75643       	74.90114       	75.67778       	76.40327       	76.37285       	76.26862       	76.53234       	76.498955      	76.25476       	76.53601       	76.38781       	76.29829       	76.19624       	76.58041       	76.372955      	76.22657       	76.3277        	76.5044        	76.51337       	76.12419       	76.205215      	76.53697       	76.68661       	75.828156      	75.48375       	77.37427       	76.77171       	75.80666       	76.04806       	76.16533       	76.66016       	75.880035      	76.85446       	76.50826       	76.31953       	76.355316      	76.31045       	76.15442       	76.46954       	76.3884        	76.29904       	75.72758       	77.33345       	75.99436       	76.42824       	76.35087       	76.7704        	76.206276      	75.691696      	76.34804       	76.38145       	76.79959       	77.07272       	76.66775       	
76.00879       	75.95919       	76.654144      	76.03571       	75.873955      	76.91545       	75.90766       	75.01514       	73.326355      	73.80452       	76.65126       	76.427986      	76.200035      	76.35344       	76.070786      	76.36813       	76.47784       	76.554146      	76.16006       	76.275345      	76.42055       	76.034546      	76.49539       	75.88718       	76.56731       	76.781815      	76.38988       	76.084625      	76.241646      	76.357544      	75.8982        	75.63554       	78.13693       	76.21656       	78.1373        	78.18064       	76.348946      	76.41499       	76.212265      	77.248825      	74.78387       	76.49075       	74.554436      	76.91985       	74.61462       	76.64934       	76.46225       	76.146286      	76.27177       	76.34762       	76.28755       	76.382256      	76.378914      	76.51941       	76.10721       	76.37687       	76.57757       	76.48205       	76.38455       	76.14315       	76.548805      	76.298744      	76.240265      	76.545204      	76.04023       	76.30305       	76.34928       	76.45998       	76.301994      	76.01566       	75.9165        	77.551125      	76.867905      	75.39838       	76.52333       	76.26023       	76.19284       	76.23435       	76.57231       	76.06262       	76.77379       	76.25374       	76.144         	76.55868       	76.51324       	76.43735       	76.09985       	76.27622       	76.44516       	76.19539       	76.54238       	76.63806       	76.36282       	76.10582       	75.7812        	76.2365        	76.52294       	76.382164      	76.67181       	76.532135      	
76.362854      	76.13843       	76.699745      	76.04298       	75.9563        	76.063705      	76.59072       	75.52575       	73.49738       	72.92703       	76.552086      	76.17792       	76.23807       	76.593666      	76.00297       	76.59741       	76.21768       	76.50517       	76.25574       	76.701675      	76.25098       	76.34653       	76.4233        	76.293724      	76.132095      	76.38632       	76.417885      	76.03251       	76.76307       	76.2294        	75.76185       	76.44818       	75.81882       	76.32253       	78.210175      	77.500626      	75.87439       	76.105675      	75.54674       	76.246925      	76.23683       	76.18042       	75.97482       	76.642456      	76.676414      	76.07971       	76.54352       	76.33722       	76.32518       	75.98375       	76.42663       	76.73504       	75.961716      	76.57784       	76.43276       	76.34281       	76.27317       	76.461296      	76.491356      	76.19753       	76.224594      	76.47555       	76.21657       	76.425255      	76.44955       	76.2321        	76.40768       	76.1577        	76.432144      	76.39365       	76.13446       	76.36343       	76.60322       	76.157814      	76.18782       	76.51588       	76.2683        	76.37289       	76.28125       	76.349525      	76.33447       	76.1489        	76.52504       	76.43467       	76.4926        	76.28645       	76.65407       	75.97511       	75.9013        	76.99351       	75.41213       	76.257996      	76.7983        	76.635414      	75.30812       	77.34959       	76.90114       	75.644165      	76.23358       	76.45574       	
76.300316      	76.048256      	76.8012        	76.40248       	76.212395      	77.10534       	75.282135      	75.29602       	74.34892       	73.630936      	75.21617       	76.38173       	76.48176       	76.12595       	76.799774      	75.96345       	76.63592       	76.263275      	76.19637       	76.11951       	76.344955      	76.42761       	76.587         	76.033264      	76.63084       	76.50537       	76.28233       	76.4488        	76.520134      	76.109024      	76.4918        	76.22064       	76.42895       	76.46517       	76.46218       	76.35942       	76.45635       	76.61205       	76.39863       	76.25915       	76.50789       	76.518005      	76.14471       	76.255295      	76.33876       	76.731476      	76.21851       	76.31141       	76.309105      	76.411385      	76.19048       	76.44018       	76.26413       	76.17257       	76.498276      	76.7125        	76.19075       	76.26525       	76.4907        	76.40252       	76.25905       	76.41156       	76.25028       	76.43042       	76.30355       	76.28445       	76.254555      	76.48742       	76.162895      	76.583336      	76.132225      	76.24042       	76.28505       	76.13335       	76.89712       	76.26799       	76.15299       	76.759514      	75.958565      	76.53283       	76.636734      	76.08565       	76.67763       	76.55135       	75.24323       	76.61447       	76.24881       	76.120285      	76.429504      	76.65025       	76.48924       	76.14015       	76.37284       	76.67672       	76.040016      	76.57152       	76.282684      	76.860054      	76.90336       	76.144424      	
76.6698        	76.496056      	76.38931       	76.71748       	76.21917       	76.71458       	76.25775       	75.80886       	75.457794      	72.18568       	74.41158       	76.497765      	76.5328        	76.135254      	76.16887       	76.747055      	76.07917       	76.48908       	76.46337       	76.258896      	76.36977       	76.42746       	76.2962        	76.29791       	76.49478       	75.9595        	76.87014       	76.247856      	76.50062       	76.019516      	76.48871       	76.35392       	76.32548       	76.182175      	76.34152       	76.728386      	76.5604        	76.63088       	76.16466       	76.28869       	76.71162       	76.36448       	76.11003       	76.488335      	76.346924      	76.415344      	76.204895      	76.06099       	76.73673       	76.34976       	76.278435      	76.66788       	76.090065      	76.26947       	76.5326        	76.43139       	76.27829       	76.045364      	76.71111       	76.250496      	76.20282       	76.51804       	76.31282       	76.67246       	76.00341       	76.14919       	76.67345       	76.377594      	76.2813        	76.305756      	76.31441       	76.24277       	76.39534       	76.27689       	76.23627       	76.26741       	76.4879        	76.37309       	76.26949       	76.125496      	76.65601       	76.39775       	76.2295        	76.5985        	76.07079       	76.64588       	76.36503       	76.274734      	76.43706       	76.42093       	76.33565       	76.472984      	76.47382       	76.17191       	76.368996      	75.86662       	76.22775       	77.01723       	76.82936       	77.75213       	
76.64982       	76.3103        	76.48298       	76.28405       	76.263176      	76.34457       	75.916374      	75.654686      	75.92744       	72.990166      	73.88474       	75.550125      	76.92973       	76.15972       	76.46272       	76.20495       	76.49901       	76.229614      	76.54822       	76.46022       	76.38334       	76.36991       	76.153694      	76.41531       	76.2725        	76.41222       	76.43885       	76.08694       	76.434166      	76.44069       	76.23172       	76.69835       	76.25742       	76.27205       	76.42646       	76.24152       	76.755         	76.27245       	76.18467       	76.69324       	76.028244      	76.650894      	76.24348       	76.421616      	76.47454       	76.43282       	76.29181       	76.36054       	76.291824      	76.29621       	76.34766       	76.433136      	76.61284       	76.152214      	76.322876      	76.378334      	76.372116      	76.24052       	76.26576       	76.48816       	76.19664       	76.65141       	76.19276       	76.39374       	76.29401       	76.54393       	76.18748       	76.76788       	76.259285      	76.14015       	76.65839       	76.11836       	76.144585      	76.32594       	76.06517       	76.50642       	76.49655       	76.33477       	76.07576       	76.53199       	76.41919       	76.58804       	76.26907       	75.995285      	76.70992       	76.2444        	76.62739       	76.222275      	76.3467        	76.46466       	76.14556       	76.53854       	76.08268       	76.548325      	75.90777       	76.520294      	76.17296       	76.1928        	76.54042       	76.70631       	
76.47219       	76.31409       	76.17388       	76.16633       	76.52775       	76.02772       	76.300125      	76.49747       	74.420044      	73.791405      	73.877525      	75.65929       	76.73124       	76.33469       	76.467186      	76.30015       	76.44035       	76.27426       	76.24632       	76.26831       	76.82486       	76.01673       	76.26975       	76.52828       	76.403206      	76.281425      	76.24745       	76.67036       	76.348816      	76.079895      	76.442116      	76.70699       	76.205536      	76.518654      	76.17381       	76.38089       	76.63366       	76.44504       	76.13769       	76.370804      	76.183136      	76.3845        	76.39935       	76.346054      	76.45999       	76.08146       	76.59011       	76.396515      	75.85951       	76.59738       	76.51951       	76.392555      	76.3494        	76.03961       	76.73372       	76.3153        	76.153145      	76.475296      	76.560036      	76.23045       	76.30977       	76.57207       	76.272804      	76.2616        	76.46009       	76.42745       	76.44017       	76.30443       	76.44445       	76.10565       	76.61801       	76.28487       	76.24407       	76.15591       	76.56426       	76.39656       	76.14331       	76.262         	76.716835      	75.6902        	76.68628       	76.317665      	76.5046        	76.28142       	76.11844       	76.36819       	76.41241       	76.50535       	76.24689       	76.48861       	76.24219       	76.31132       	76.46938       	76.27037       	76.55186       	76.33001       	76.33381       	76.65503       	76.61134       	75.579765      	
75.87147       	75.99016       	75.44308       	76.423584      	75.38281       	76.22176       	76.33616       	76.24733       	76.36112       	74.40763       	73.36166       	75.32261       	76.09459       	76.461296      	76.461685      	76.39349       	76.21988       	76.340546      	76.41123       	76.466194      	76.30342       	76.14719       	76.55209       	76.3186        	76.41809       	76.438156      	76.33458       	76.3691        	76.3994        	76.21538       	76.511154      	76.109695      	76.5818        	76.35772       	76.29612       	76.48773       	76.43061       	76.53723       	76.441795      	76.30088       	76.43636       	76.33358       	76.457664      	76.46883       	76.30102       	76.203735      	76.33599       	76.408875      	76.20976       	76.547134      	76.371666      	76.028824      	76.376274      	76.614815      	76.26934       	76.405235      	76.52409       	76.210724      	76.46388       	76.15539       	76.55659       	76.35244       	76.333496      	76.52675       	76.32392       	76.317116      	76.0592        	76.781334      	76.384705      	76.48042       	76.11333       	76.12603       	76.6847        	76.15922       	76.21065       	76.25132       	76.483635      	76.61534       	76.05124       	76.72274       	76.34673       	75.93159       	76.76968       	76.26393       	76.77599       	75.518074      	76.45057       	76.42724       	76.57178       	76.2619        	76.59388       	75.96802       	76.49428       	76.61287       	76.32708       	76.19711       	76.691         	76.20444       	76.58521       	76.38389       	
75.86032       	74.44187       	76.15548       	76.61283       	74.69187       	76.3749        	75.90724       	76.28262       	76.048325      	74.50832       	74.102806      	75.927216      	76.01342       	76.910545      	76.19442       	76.44641       	76.591675      	76.12181       	76.416         	76.39669       	76.310814      	76.19151       	76.33518       	76.579124      	76.68087       	76.036354      	76.2054        	76.40197       	76.153404      	76.71566       	76.50778       	76.25619       	76.20543       	76.49881       	76.375145      	76.27735       	76.61552       	76.711845      	76.01233       	76.39339       	76.40065       	76.05488       	76.63348       	76.13961       	76.374466      	76.476845      	76.41305       	76.16055       	76.42598       	76.305374      	76.64916       	76.10214       	76.46608       	76.41771       	76.26818       	76.37973       	76.391945      	76.260414      	76.51564       	76.285614      	76.18604       	76.579895      	76.57736       	76.144165      	76.496445      	76.21408       	76.28576       	76.54756       	76.21801       	76.27231       	76.39854       	76.226295      	76.43332       	76.255035      	76.23675       	76.63341       	76.23454       	76.441315      	76.53097       	76.156654      	76.229324      	76.41904       	76.29534       	76.2313        	76.57181       	76.513466      	76.42383       	76.11247       	76.41107       	76.6349        	76.20579       	76.508644      	76.345085      	76.05493       	76.67917       	76.258064      	76.498604      	76.48037       	76.527275      	76.62962       	
76.136284      	75.98385       	75.413124      	75.99925       	76.43262       	74.579994      	76.94651       	75.707115      	75.47949       	75.39928       	75.43222       	76.44848       	76.24355       	76.27151       	76.1292        	76.642876      	76.262115      	76.29395       	76.234886      	76.62295       	76.467224      	76.18542       	76.352165      	76.348175      	76.36275       	76.34199       	76.32214       	76.184265      	76.581635      	76.36903       	76.369026      	76.36236       	76.43194       	76.25568       	76.431946      	76.64969       	75.96219       	76.84338       	76.354965      	76.412346      	76.55746       	76.000626      	76.476814      	76.47436       	76.480545      	76.19543       	76.18298       	76.41411       	76.22123       	76.4263        	76.57713       	76.44137       	76.36024       	76.29933       	76.45099       	76.50888       	76.16325       	76.500496      	76.30668       	76.24182       	76.43695       	76.464355      	76.03413       	76.46097       	76.58075       	76.22522       	76.43647       	76.40546       	76.216805      	76.356255      	76.16611       	76.58433       	76.39745       	76.00462       	76.3928        	76.54519       	76.28428       	76.27265       	76.366005      	76.34705       	76.34441       	76.26028       	76.56133       	76.20452       	76.53904       	76.08734       	76.49157       	76.35924       	76.31999       	76.47342       	76.41158       	76.22054       	76.43369       	76.19591       	76.23499       	76.28787       	76.15379       	76.36019       	76.7326        	77.07706       	
75.77291       	76.86854       	74.60324       	74.991         	76.30532       	75.51362       	74.93578       	76.24567       	76.09479       	76.34747       	76.40955       	76.27266       	76.429985      	76.151924      	76.43956       	76.45135       	76.00629       	76.40809       	76.538734      	76.21229       	76.204124      	76.59911       	76.413055      	76.30837       	76.33598       	76.5255        	76.42327       	76.45861       	76.08302       	76.44375       	76.11879       	76.61108       	76.70208       	75.70006       	76.81223       	76.31107       	76.52451       	76.38697       	76.56365       	76.172424      	76.39315       	76.41386       	76.506676      	76.126945      	76.431885      	76.646225      	76.12          	76.42443       	76.27994       	76.50799       	76.32017       	76.22007       	76.45934       	76.52623       	76.1123        	76.548096      	76.45336       	76.37041       	76.279816      	76.33705       	76.28432       	76.4985        	76.45107       	76.21071       	76.15591       	76.65174       	76.42616       	76.47518       	75.91993       	76.74873       	76.18573       	76.13341       	76.34939       	76.21982       	76.387596      	76.18354       	76.625244      	76.156876      	76.42839       	76.33337       	76.36274       	76.40332       	75.94187       	76.77991       	76.38968       	76.3024        	76.30982       	76.14986       	76.66607       	76.217026      	75.898674      	76.84162       	75.972595      	76.26495       	76.3646        	76.28542       	76.34759       	76.33636       	76.297676      	76.75736       	
76.019135      	75.75482       	75.33283       	76.5056        	76.75015       	75.74027       	76.45649       	76.24964       	75.8633        	76.41551       	76.39703       	76.5764        	76.28231       	76.238945      	76.16494       	76.50784       	76.202255      	76.63325       	76.37751       	76.21684       	76.50805       	76.35375       	76.52649       	76.44503       	76.124954      	76.29114       	76.62016       	76.35997       	76.40744       	76.26482       	76.297035      	76.26604       	76.534386      	76.32693       	76.51673       	76.08219       	76.74734       	76.22558       	76.559         	76.33651       	76.30616       	76.3809        	76.64069       	76.23792       	76.15263       	76.52578       	76.304855      	76.595406      	76.336525      	76.36357       	76.55076       	76.17635       	76.349236      	76.3669        	75.98753       	76.634766      	76.56806       	76.11388       	76.61829       	76.30523       	76.48484       	76.31276       	76.3841        	76.27731       	76.48965       	76.11761       	76.35165       	76.417786      	76.55005       	76.52661       	76.300095      	76.444695      	76.18417       	76.432106      	76.03763       	76.5216        	76.28285       	76.45503       	76.17158       	76.57663       	76.10177       	76.258766      	76.64282       	76.422         	76.34448       	76.238144      	76.50563       	76.35898       	76.37829       	76.55035       	76.83577       	75.62226       	76.25266       	76.34789       	76.21845       	75.99054       	76.47556       	76.65118       	76.764366      	76.346985      	
76.39786       	76.762665      	76.31295       	76.32821       	76.456474      	76.03374       	76.51589       	76.214325      	76.41622       	76.21255       	76.32952       	76.14075       	76.45194       	76.590706      	76.12012       	76.209335      	76.48039       	76.34963       	76.42531       	76.51228       	76.197136      	76.51026       	76.54725       	76.10628       	76.47471       	76.35018       	76.38287       	76.370346      	76.30143       	76.411804      	76.52283       	76.07284       	76.58472       	76.49843       	76.20063       	76.434975      	76.14791       	76.51611       	76.593925      	76.42105       	76.53111       	76.25835       	76.31973       	76.597725      	76.30044       	76.32978       	76.30471       	76.30103       	76.20192       	76.17681       	76.75187       	76.41084       	76.27645       	76.3443        	76.04192       	76.58476       	76.45166       	76.35497       	76.27773       	76.30298       	76.593765      	76.287125      	76.413795      	76.31772       	76.19342       	76.59649       	76.25782       	76.3146        	76.544136      	76.236176      	76.0191        	76.52669       	76.25094       	76.501915      	76.30609       	76.23751       	76.553925      	76.389694      	76.267525      	76.35229       	76.25966       	76.41688       	76.4585        	76.206474      	76.48325       	76.253105      	76.16356       	76.3795        	76.36124       	76.298676      	76.66755       	76.206795      	76.32222       	76.31506       	76.29341       	76.48679       	76.283554      	76.25348       	76.47908       	76.409836      	
76.47348       	76.22144       	76.39375       	76.44798       	76.05002       	76.443146      	76.63161       	76.19059       	76.47591       	76.12528       	76.441795      	76.22277       	76.319405      	76.559006      	76.21762       	76.09292       	76.82367       	76.15071       	76.24636       	76.20665       	76.70674       	76.416374      	76.16906       	76.57322       	76.22981       	76.11608       	76.450966      	76.718636      	76.4065        	76.18927       	76.207245      	76.39485       	76.38082       	76.503975      	76.28451       	76.37956       	76.69957       	75.974464      	76.720345      	76.26139       	76.06181       	76.34577       	76.3565        	75.925064      	76.50117       	76.70726       	76.35446       	76.256035      	76.53422       	76.2519        	76.33892       	76.210556      	76.432         	76.32849       	76.66728       	76.1598        	76.31208       	76.495094      	76.33493       	76.246254      	76.46038       	76.337494      	76.28737       	76.6155        	76.269684      	76.33261       	76.49112       	75.817024      	76.72005       	76.16019       	76.24637       	76.47061       	76.11415       	76.3792        	76.22053       	76.56641       	75.90232       	76.562325      	76.29906       	76.445526      	76.37252       	76.31336       	76.30026       	76.57376       	76.35054       	76.30392       	76.43077       	76.19545       	76.336006      	76.39495       	76.16215       	76.34074       	76.40895       	76.32341       	76.332115      	76.34849       	76.55603       	76.50508       	75.77704       	76.54646       	
76.58835       	76.2772        	75.93815       	76.5667        	76.16911       	76.57548       	76.28746       	76.09535       	76.744026      	76.18929       	76.18752       	76.36395       	76.429436      	76.16221       	76.45332       	76.24637       	76.702675      	76.28877       	76.03491       	76.62687       	76.340065      	76.42959       	76.02051       	76.88606       	75.78318       	75.83492       	77.26149       	76.69382       	75.62286       	76.40573       	76.399666      	76.31988       	76.47517       	76.264946      	76.49111       	76.2729        	76.22219       	76.46527       	76.63201       	76.50718       	75.84396       	76.46946       	76.365326      	76.44818       	77.10324       	76.09033       	76.08635       	76.054695      	76.79411       	76.09726       	76.48792       	76.38027       	76.421524      	76.460335      	76.09969       	76.515114      	76.28786       	76.50615       	76.42814       	76.37998       	76.23098       	76.570496      	76.25804       	76.34313       	76.65091       	76.31394       	76.23094       	76.32266       	76.44103       	76.31655       	76.37255       	76.37775       	76.41001       	76.1509        	76.32105       	76.36063       	76.315796      	76.15725       	76.434784      	76.568474      	76.42164       	76.07547       	76.448006      	76.615685      	76.15983       	76.4338        	76.07818       	76.493645      	76.273994      	76.52272       	76.22968       	76.740105      	76.147705      	76.29189       	76.565506      	76.05518       	76.04731       	75.58562       	77.96843       	79.615234      	
76.16264       	76.45958       	76.3824        	76.08676       	76.54099       	76.26062       	76.50649       	76.338165      	76.24814       	76.19612       	76.246254      	76.1435        	76.50405       	76.34084       	76.51291       	76.29272       	76.26512       	76.390434      	76.21177       	76.543144      	76.37503       	76.24444       	76.45115       	76.53466       	76.38128       	76.24344       	76.26831       	76.44301       	76.47891       	76.32441       	76.31628       	76.21293       	76.44532       	76.40387       	76.19061       	76.529625      	76.48078       	76.03742       	76.57549       	76.5046        	75.50501       	77.16091       	75.48526       	77.53795       	76.63553       	75.67069       	76.52664       	76.23826       	76.195694      	76.64975       	76.48626       	75.987885      	76.53031       	76.42254       	76.39284       	76.22147       	76.650116      	76.29437       	76.40407       	76.18412       	76.326805      	76.38037       	76.12342       	76.6153        	76.39587       	76.43292       	75.98978       	76.858154      	76.273384      	76.347046      	76.19699       	76.6468        	76.401924      	76.00163       	76.46525       	76.315315      	76.20463       	76.28285       	76.63276       	76.259705      	76.206055      	76.37218       	76.28692       	76.509224      	76.36643       	76.30627       	76.23067       	76.45208       	76.202354      	76.44119       	76.4523        	76.28456       	76.400696      	75.96949       	76.363304      	76.44557       	75.78202       	77.25721       	80.366516      	81.502945      	
76.52268       	76.16784       	76.467354      	76.38702       	76.50935       	76.10475       	76.48444       	76.1678        	76.4401        	76.369484      	76.109886      	76.50049       	76.160324      	76.39053       	76.37896       	76.3038        	76.35316       	76.38153       	76.47326       	76.28721       	76.52777       	76.34572       	76.408745      	76.42916       	76.12881       	76.36589       	76.16692       	76.60806       	76.43204       	76.301254      	76.46728       	76.32441       	76.40367       	76.506226      	76.37414       	76.05915       	76.27591       	76.553024      	76.34444       	76.46531       	76.37056       	76.41763       	76.23656       	76.175385      	76.63257       	76.57266       	76.248055      	75.99785       	76.74035       	76.4675        	76.22061       	76.1953        	76.543304      	76.15583       	76.447136      	76.40118       	76.68597       	76.22705       	76.059875      	76.73916       	75.99258       	76.62467       	76.577415      	76.19078       	76.508484      	76.065475      	76.136185      	76.789734      	76.18493       	76.09203       	76.76088       	76.30433       	76.39968       	76.48193       	76.20495       	76.1201        	76.44308       	76.307274      	76.52138       	76.18215       	76.486824      	76.33463       	76.39489       	76.44064       	76.240135      	76.39851       	76.38907       	75.89115       	77.02994       	75.99345       	76.32788       	76.58795       	76.46671       	76.18503       	76.29355       	76.399414      	76.01964       	77.02553       	80.36449       	81.428825      	
76.44604       	76.58666       	76.15234       	76.37723       	76.41767       	76.12914       	76.66826       	76.22988       	76.629745      	76.24536       	76.37165       	76.221306      	76.38931       	76.19676       	76.17925       	76.57905       	76.25336       	76.41241       	76.31807       	76.44617       	76.38196       	76.31715       	76.302605      	76.674065      	76.343445      	76.34975       	76.32158       	76.40976       	76.39931       	76.337074      	76.35396       	76.32777       	76.18043       	76.80606       	76.109886      	76.42348       	76.26707       	76.491135      	76.33394       	76.53251       	76.44202       	76.28425       	76.16527       	76.51054       	76.1419        	76.79649       	76.22451       	76.02989       	76.67589       	76.34465       	76.523994      	76.39893       	76.19433       	76.37521       	76.32027       	76.40393       	76.162155      	76.4494        	76.25385       	76.48245       	76.157524      	76.30801       	76.56006       	76.28835       	76.480484      	76.12436       	76.43018       	76.16072       	76.67531       	76.09361       	76.248         	76.70317       	76.25998       	76.458206      	76.27305       	76.29779       	76.35606       	76.391594      	76.18152       	76.653305      	76.280266      	76.17282       	76.51503       	76.371414      	76.55473       	76.33975       	75.97139       	76.77282       	76.47202       	76.40629       	76.439095      	76.173454      	76.22856       	75.948425      	76.47145       	76.16716       	75.95668       	76.54326       	79.71368       	80.88132       	
76.353165      	76.27748       	76.16619       	76.621315      	76.220085      	76.458405      	76.32316       	76.53108       	76.211464      	76.40542       	76.11766       	76.33354       	76.28726       	76.13034       	76.668686      	76.10789       	76.45567       	76.44767       	76.36534       	76.56641       	76.22084       	76.431         	76.395836      	76.33213       	76.37437       	76.34057       	76.461296      	76.17224       	76.55333       	76.17344       	76.17995       	76.59627       	76.42597       	76.14634       	76.34395       	76.575424      	76.255196      	76.18837       	76.556526      	76.652145      	76.20319       	76.480095      	76.49686       	76.12868       	76.26175       	76.46365       	76.35782       	76.50607       	76.12568       	76.20996       	76.66469       	75.641         	76.97984       	76.296104      	76.403465      	76.55506       	76.14734       	76.63852       	76.26814       	76.55964       	76.1709        	76.46836       	76.44863       	76.0281        	76.40332       	76.27364       	76.373314      	76.733894      	76.343666      	76.067345      	76.48815       	76.19317       	76.93727       	76.05998       	75.97858       	76.56273       	76.011185      	76.4359        	76.49788       	76.14463       	76.32367       	76.321976      	76.51845       	76.53638       	76.3668        	76.19791       	76.73882       	76.458405      	76.181404      	76.34994       	76.36118       	76.256935      	76.30513       	76.69246       	76.06943       	75.90057       	76.89369       	76.064926      	78.32549       	80.457535      	
76.23816       	76.49111       	76.11057       	76.32585       	76.30495       	76.328         	76.450905      	76.52464       	76.23899       	76.48639       	76.07999       	76.2547        	76.42812       	76.134834      	76.49333       	76.43843       	76.27547       	76.419106      	76.3514        	76.195076      	76.56663       	76.35          	76.23692       	76.451996      	76.55763       	76.078316      	76.33784       	76.61691       	76.33903       	76.23329       	76.261795      	76.546364      	76.49487       	76.28691       	76.18195       	76.54404       	76.33425       	76.10676       	76.53667       	76.10235       	77.01277       	76.06428       	76.63757       	76.20343       	76.45251       	76.3308        	76.530235      	76.12085       	76.62491       	75.92067       	76.51076       	76.37123       	76.4574        	76.29112       	76.60159       	76.07946       	76.405365      	76.54753       	76.45994       	76.16784       	76.38815       	76.5936        	76.31186       	76.015564      	76.56718       	76.598625      	76.45526       	76.2872        	76.049774      	76.80978       	76.46585       	76.26479       	76.15606       	76.42213       	76.244736      	76.37136       	76.39465       	76.46348       	76.378136      	76.24221       	76.58309       	76.460686      	76.43383       	76.1378        	76.24845       	76.33292       	76.46414       	76.27932       	76.013824      	76.46736       	76.17973       	76.73732       	76.285065      	76.05037       	76.30846       	75.87906       	75.603226      	76.284164      	78.62687       	80.828735      	
76.19389       	76.4709        	76.36369       	76.284325      	76.23273       	76.50746       	76.39737       	76.32654       	76.437675      	76.275085      	76.35313       	76.173996      	76.27974       	76.44324       	76.3387        	76.41033       	76.15781       	76.561         	76.36224       	76.30526       	76.41526       	76.48103       	76.29055       	76.41259       	76.30411       	76.49701       	76.23579       	76.38374       	76.428116      	76.26535       	76.236305      	76.37495       	76.38174       	76.53164       	76.21889       	76.64654       	76.25254       	76.04394       	76.464806      	76.57174       	76.49714       	76.46376       	76.297165      	76.334984      	76.35262       	75.961395      	76.734955      	76.312874      	75.845055      	76.69281       	76.36268       	76.52508       	76.13932       	76.296555      	76.51168       	76.3107        	76.46506       	76.196304      	76.43025       	76.17969       	76.30233       	76.57077       	76.25136       	76.09835       	76.54389       	76.34685       	76.27136       	76.31704       	76.36963       	76.3668        	76.06711       	76.76774       	77.34554       	76.754005      	75.28183       	75.59995       	75.27213       	75.94903       	76.174515      	76.687355      	76.33056       	76.52259       	76.3245        	76.31904       	76.292854      	76.61203       	76.22211       	76.24047       	76.489174      	76.228874      	76.66573       	76.27504       	76.11769       	76.45602       	76.226974      	76.23192       	76.47807       	75.61089       	77.10665       	79.214806      	
76.23208       	76.52906       	76.41247       	76.365364      	76.41128       	76.37786       	76.38794       	76.28971       	76.4489        	76.46511       	76.55123       	76.31649       	75.656044      	76.41852       	76.35341       	76.108536      	76.62006       	76.322495      	76.34644       	76.14552       	76.44863       	76.3586        	76.272644      	76.17332       	76.861694      	76.284996      	76.02429       	76.36931       	76.35234       	76.51296       	76.27854       	76.38903       	76.16463       	76.61833       	76.179405      	76.40032       	76.22908       	76.10577       	76.31568       	76.634056      	76.57594       	76.49343       	76.55263       	76.18005       	76.38615       	76.15692       	76.31512       	76.65674       	76.244865      	76.33791       	76.18082       	76.53913       	76.57123       	76.33809       	76.15038       	76.19447       	76.43925       	76.37114       	76.46014       	76.51697       	75.95098       	76.52523       	76.54371       	75.965706      	76.098015      	76.95741       	78.4851        	75.516624      	77.71293       	77.89241       	76.43779       	78.12493       	76.75191       	76.907555      	75.68744       	76.12696       	74.47535       	72.151436      	75.30615       	76.60078       	76.25736       	76.20072       	76.47312       	76.326         	76.1051        	76.270355      	76.68029       	76.35541       	75.95382       	76.839874      	76.241554      	76.379776      	76.265175      	76.30401       	76.25057       	76.21244       	75.979485      	75.80483       	77.731674      	78.98871       	
76.538994      	76.6391        	76.339714      	76.45492       	76.235565      	76.47687       	76.200554      	76.439156      	76.54744       	76.15487       	76.21169       	76.507805      	76.0809        	76.40994       	76.11342       	76.49032       	76.03052       	76.656105      	76.207275      	76.29277       	76.30768       	76.289505      	76.684975      	76.2433        	76.28067       	76.57885       	76.20486       	76.45448       	76.22318       	76.399124      	76.55537       	76.11162       	76.514366      	76.17615       	76.62516       	76.2248        	76.347275      	76.44008       	76.197365      	76.485054      	76.50274       	76.54298       	76.626595      	76.345924      	76.45055       	76.04348       	76.622604      	76.5706        	76.10042       	76.257034      	76.42059       	76.27089       	76.1629        	76.827934      	76.20013       	76.81133       	76.11479       	76.40357       	75.93743       	76.41865       	76.36536       	76.17333       	75.61207       	77.874794      	77.52489       	78.72112       	77.63877       	76.521515      	77.10101       	76.74797       	76.32307       	76.40344       	76.52344       	76.76182       	76.477486      	76.72951       	75.50665       	71.19014       	73.92218       	76.28839       	76.29801       	76.44764       	76.22876       	76.34222       	76.4848        	76.30104       	76.50087       	76.435196      	76.30229       	76.573235      	76.22331       	76.45978       	76.35604       	76.17448       	76.1107        	76.31318       	76.17429       	75.917534      	76.50048       	77.98942       	
76.241905      	76.54279       	76.34774       	76.20028       	76.572075      	76.241646      	76.6811        	76.23437       	76.47314       	76.14795       	76.54172       	76.166245      	76.003586      	76.730804      	76.064804      	76.56116       	76.235245      	76.35309       	76.0963        	76.64535       	76.11135       	76.22722       	76.7743        	76.15464       	76.56546       	76.35819       	76.47922       	76.438225      	76.114204      	76.61638       	76.3515        	76.29051       	75.99641       	76.43519       	76.51323       	76.270294      	76.38574       	76.42577       	76.20028       	76.79168       	75.94834       	76.30925       	76.47658       	76.43603       	76.16888       	76.49723       	76.59651       	76.10497       	75.89438       	76.780235      	76.52905       	76.189674      	75.30885       	76.96566       	76.83189       	75.99453       	75.97382       	75.45892       	78.92082       	77.718056      	75.421555      	78.47864       	77.33191       	77.4999        	76.730316      	76.95315       	76.3979        	76.14651       	76.51257       	76.474014      	76.002045      	76.44975       	76.28743       	76.518         	76.50392       	75.3237        	74.99744       	74.22606       	72.727554      	76.15675       	76.31077       	76.64945       	76.16838       	76.29478       	76.63622       	76.02245       	76.583534      	76.14          	76.62124       	76.44924       	76.1012        	76.51915       	76.51372       	76.05657       	76.4056        	76.48949       	75.93815       	76.30915       	76.048904      	76.076996      	
76.58658       	76.21827       	76.24007       	76.44683       	76.34702       	76.44491       	76.55169       	76.06585       	76.80874       	75.90073       	76.54404       	76.233154      	75.99283       	76.36001       	76.560555      	76.07237       	76.43738       	76.26531       	76.40749       	76.336         	76.49527       	76.44026       	76.42641       	76.31999       	76.40336       	76.304276      	76.32447       	76.263336      	76.44962       	76.38292       	76.34925       	76.2872        	76.48727       	76.43371       	76.60302       	76.40778       	76.164215      	76.57951       	76.23763       	76.42279       	76.35374       	76.43475       	76.47678       	76.06231       	76.71089       	76.338066      	76.45616       	76.30065       	76.09051       	76.61458       	76.33381       	76.35784       	74.896774      	77.45461       	77.44579       	78.49051       	77.78442       	76.012276      	77.58355       	76.73855       	76.8714        	76.643906      	76.709206      	76.1692        	76.54992       	76.28311       	76.2319        	76.31164       	76.416214      	76.36343       	76.17302       	76.559204      	76.14546       	75.8038        	76.94637       	76.4408        	75.01782       	74.87868       	72.22867       	75.28622       	76.322235      	76.20636       	76.366905      	76.42873       	76.23699       	76.702156      	75.97512       	76.1931        	76.67013       	76.25218       	76.338486      	76.24146       	76.40176       	76.36588       	76.22986       	76.16321       	76.05864       	76.41994       	77.17551       	76.86668       	
76.58718       	76.65162       	76.17529       	76.25076       	76.531296      	76.29398       	76.38036       	76.21919       	76.43681       	76.39316       	76.55797       	76.18127       	76.28016       	76.09848       	76.47364       	76.38429       	76.604744      	76.162575      	76.38333       	76.59376       	76.27105       	76.188934      	76.407555      	76.33684       	76.357544      	76.32111       	76.55274       	76.270195      	76.1986        	76.42322       	76.35299       	76.3219        	76.36171       	76.35987       	76.630486      	76.037155      	76.45893       	76.267365      	76.45969       	76.5177        	76.50202       	76.406944      	76.20366       	76.487816      	76.08582       	76.75007       	76.01125       	76.106995      	75.24386       	77.75738       	77.34317       	78.05223       	77.5933        	76.98759       	76.69118       	77.18937       	76.946815      	76.241516      	76.14464       	76.53212       	76.47938       	76.488525      	76.413795      	76.26823       	76.50189       	76.15833       	76.58721       	76.28251       	76.42261       	76.27267       	76.30108       	76.25869       	76.1182        	76.471855      	76.29291       	76.2476        	74.70639       	75.06616       	74.121346      	74.19228       	76.32187       	76.06885       	76.70144       	76.26403       	76.49391       	76.20059       	76.45148       	76.319336      	76.425514      	76.01028       	76.16146       	76.8126        	76.17272       	76.16909       	76.63838       	76.077446      	76.40772       	76.48094       	75.9255        	76.79758       	
76.245705      	76.48316       	76.38058       	76.4942        	76.10016       	76.246284      	76.49926       	76.38225       	76.53048       	76.29004       	76.492546      	76.531944      	76.27592       	76.332405      	76.122444      	76.214455      	76.278984      	76.333374      	76.50216       	76.37464       	76.116875      	75.992065      	76.691765      	76.182526      	76.48641       	76.28632       	76.44802       	76.55009       	76.07409       	76.47529       	76.316666      	76.28821       	76.361465      	76.10674       	76.65898       	76.34601       	76.33266       	76.4754        	76.31015       	76.04804       	76.574394      	76.13997       	76.88113       	76.03745       	75.05936       	78.62018       	78.304474      	75.78297       	76.64874       	77.19205       	77.40499       	76.95782       	77.20871       	76.17133       	76.36712       	76.55447       	76.18498       	76.42517       	76.26591       	76.42044       	76.19852       	76.2557        	76.532486      	76.3784        	76.46877       	76.48653       	76.6427        	76.25717       	76.06864       	76.485634      	76.2665        	75.67031       	77.43916       	76.44545       	76.064705      	76.41637       	75.73203       	74.4221        	74.396805      	73.91919       	76.18129       	76.352         	76.26075       	76.411995      	76.57712       	76.269966      	76.37282       	76.439224      	76.826965      	76.039696      	76.4797        	76.038574      	76.32922       	76.21111       	76.32658       	76.25763       	76.093124      	76.354126      	77.38597       	77.27966       	
75.92191       	76.210945      	76.28876       	76.45438       	76.604385      	76.20098       	76.49852       	76.48483       	76.44834       	76.23491       	76.49715       	76.44991       	76.22488       	76.08284       	76.34593       	76.23796       	76.47957       	76.2289        	76.65205       	76.084724      	76.10241       	76.74425       	76.3831        	76.27223       	76.275894      	76.56975       	76.4383        	76.18874       	76.4713        	76.22658       	76.072         	76.58994       	76.228485      	76.49524       	76.49227       	76.215164      	76.03562       	76.565865      	76.41778       	76.01135       	75.68896       	75.17547       	78.882286      	77.15137       	77.87511       	77.87178       	77.051094      	76.42051       	76.56102       	76.49316       	76.48971       	76.13481       	76.480515      	76.40968       	76.30067       	76.60614       	76.188156      	76.316536      	76.44908       	76.444855      	76.467804      	76.26978       	76.59479       	76.19403       	76.60465       	76.35655       	76.43668       	76.07134       	76.275604      	76.72897       	76.40545       	76.31419       	76.726585      	75.900375      	76.65733       	76.44059       	76.25094       	75.60356       	72.789154      	73.904274      	75.76644       	76.32923       	76.07031       	76.6001        	76.25017       	76.41473       	76.447914      	76.28056       	76.32891       	76.27005       	76.21282       	76.53003       	76.304985      	76.27899       	76.2916        	76.177345      	76.39174       	76.49768       	77.36225       	77.04741       	
76.29321       	76.64766       	76.28914       	76.282196      	76.18788       	76.50963       	76.285965      	76.440445      	76.43507       	76.475464      	76.30254       	76.087265      	76.416916      	76.07307       	76.48605       	76.20277       	76.48833       	76.141785      	76.53609       	76.49808       	76.309685      	76.32359       	76.52206       	76.357124      	76.432396      	76.34198       	76.227         	76.661064      	75.36066       	76.528755      	76.62415       	76.12859       	76.68317       	76.15003       	76.5805        	76.132645      	76.527954      	75.88082       	76.27474       	75.10081       	79.432396      	78.97719       	78.78584       	77.13029       	76.55947       	76.17938       	76.489716      	76.53247       	76.292274      	76.1432        	76.46303       	76.351295      	76.56036       	76.261566      	76.20816       	76.61697       	76.28567       	76.63028       	76.130264      	76.00511       	76.78111       	76.26263       	76.46173       	76.6764        	75.999916      	76.369255      	76.86809       	76.17723       	76.484116      	76.23442       	76.51577       	76.52709       	76.62082       	75.791176      	76.82312       	75.96403       	75.76251       	76.15001       	73.78245       	72.877304      	75.61223       	76.42917       	76.34561       	76.3005        	76.42587       	76.519615      	76.22531       	76.508736      	76.12097       	76.37928       	76.58861       	76.178635      	76.42494       	76.30705       	76.306145      	76.24517       	75.90847       	76.39494       	77.424416      	77.23161       	
76.32549       	76.47377       	76.408035      	76.38195       	76.10776       	76.60342       	76.25324       	76.60836       	76.18059       	76.50472       	76.2057        	76.34385       	76.30716       	76.36331       	76.301704      	76.30651       	75.60767       	76.85819       	76.99589       	75.4369        	76.26547       	76.28912       	76.46712       	76.40096       	76.160515      	76.53352       	76.517746      	76.10144       	76.36601       	76.4167        	76.28598       	76.17824       	76.477776      	76.29708       	76.173355      	76.24807       	76.19813       	76.20049       	76.0696        	78.07508       	79.33339       	78.01431       	77.46473       	77.133865      	75.867805      	76.50223       	76.219696      	76.76046       	76.17931       	76.16224       	76.26016       	76.26159       	76.50028       	76.11355       	76.59555       	76.48405       	76.291435      	76.12146       	76.736694      	76.457115      	76.09384       	76.31579       	76.53081       	76.48064       	76.11554       	76.42567       	76.246376      	76.531166      	76.39015       	76.25075       	76.512535      	76.21308       	76.48695       	76.34386       	76.583626      	76.20369       	76.390114      	75.74593       	73.773315      	73.74747       	75.00503       	76.320694      	76.3919        	76.50677       	76.134514      	76.2475        	76.53981       	76.286964      	76.315056      	75.97359       	76.62238       	76.15574       	76.4381        	76.32431       	76.30578       	76.37753       	76.18527       	76.15619       	77.2828        	77.03893       	
76.407         	76.4363        	76.39479       	76.455605      	76.13746       	76.46946       	76.33857       	76.23024       	76.07109       	76.80078       	76.23051       	76.48351       	76.49261       	76.10134       	76.28256       	76.32676       	75.71429       	77.25735       	76.05324       	76.42314       	76.31876       	76.19901       	76.320694      	76.12158       	76.60912       	76.230125      	76.27508       	76.82352       	76.182594      	76.05497       	76.43387       	76.29415       	76.29017       	76.4283        	76.24449       	76.61008       	76.172676      	76.500404      	75.05738       	78.723206      	78.90209       	77.863976      	77.949905      	77.17623       	75.973976      	76.846634      	75.73534       	76.37425       	76.426254      	76.34923       	76.48941       	76.36714       	76.57357       	76.20548       	76.07392       	76.80115       	76.28074       	76.30226       	76.321304      	76.15373       	76.51981       	76.42423       	76.34329       	76.597534      	76.18129       	76.31765       	76.957275      	75.73973       	76.18639       	76.56104       	76.258705      	76.38969       	76.602104      	76.24481       	76.63385       	76.18016       	75.57278       	76.1108        	75.51597       	72.783325      	74.08337       	75.68095       	76.55804       	76.52336       	76.40041       	76.343605      	76.332054      	76.476456      	76.216125      	76.39945       	76.02697       	76.39151       	76.17269       	76.670715      	75.54739       	76.48748       	75.6119        	75.601654      	77.453674      	78.36708       	
76.52029       	76.4958        	76.31568       	76.17687       	76.43743       	76.27574       	76.2001        	76.43883       	76.39594       	76.43968       	76.45615       	76.30233       	76.40003       	76.00695       	76.41563       	76.038246      	76.28567       	76.762314      	76.1378        	76.41744       	76.11942       	76.48773       	76.32134       	76.38791       	76.46763       	76.2074        	76.43837       	76.35823       	75.99021       	76.27295       	76.38104       	76.47196       	76.199234      	76.25961       	76.62728       	76.15509       	76.42039       	75.64829       	75.49296       	78.05142       	79.42224       	77.469406      	77.71764       	77.619286      	76.51541       	76.56957       	76.05484       	76.541855      	76.21445       	76.51141       	76.40538       	76.33215       	75.00617       	77.17368       	77.34841       	76.423195      	75.76655       	76.191086      	76.50385       	76.57983       	76.3126        	76.417         	76.315956      	76.273415      	76.30281       	76.63033       	76.22873       	76.39495       	76.02997       	76.864204      	75.72612       	76.33549       	76.40019       	76.227         	76.392654      	76.18647       	76.5475        	76.33413       	75.404015      	72.62489       	74.02595       	76.37508       	76.32682       	76.361595      	76.33909       	76.53763       	76.442535      	76.14799       	76.44736       	76.38372       	75.75885       	77.18395       	76.320206      	75.79756       	76.187996      	76.199974      	76.47772       	76.52368       	76.25751       	76.46145       	
76.16093       	76.39049       	76.020256      	76.53579       	76.50995       	76.37506       	76.31515       	76.49907       	76.49731       	76.17706       	76.47643       	76.22267       	76.37054       	76.12837       	76.29004       	76.28248       	76.39117       	76.32808       	76.2985        	76.26747       	76.12054       	76.658516      	76.27874       	76.09942       	76.7839        	76.363495      	76.47807       	76.1912        	76.5855        	75.90493       	76.82011       	76.54643       	75.97927       	76.38595       	76.39104       	76.36783       	75.96584       	76.06665       	75.89335       	76.14214       	79.413216      	78.33444       	77.19186       	77.733665      	77.581856      	76.448105      	76.63937       	76.093895      	76.249916      	76.69175       	76.26105       	76.47214       	76.35583       	76.56159       	76.21383       	76.18535       	76.48787       	75.88645       	76.5546        	76.12747       	76.53798       	76.48129       	76.08242       	76.276474      	76.003426      	77.41922       	75.94854       	75.97457       	76.39771       	76.25675       	76.40788       	76.59215       	76.26468       	76.43381       	76.283134      	76.4764        	76.712456      	75.87187       	76.13829       	74.213524      	72.446144      	75.44192       	76.39247       	76.4758        	76.40322       	76.30779       	76.30272       	76.03188       	76.50052       	76.76887       	76.009605      	76.197624      	76.71896       	76.25078       	76.15333       	76.413895      	76.3766        	76.637054      	76.23873       	76.676186      	
76.40143       	76.23006       	76.13446       	76.298584      	76.16736       	76.50882       	76.63182       	75.87141       	76.679184      	76.48639       	76.35802       	76.05758       	76.4892        	76.37701       	75.606255      	76.97893       	76.44707       	76.454346      	76.078354      	76.61275       	76.49681       	75.69592       	77.036095      	75.882324      	76.54913       	76.38898       	76.46383       	76.06777       	76.18655       	76.53762       	76.483986      	76.45108       	75.785095      	76.6329        	76.55675       	76.2202        	76.15729       	76.472885      	75.69741       	75.38541       	78.66853       	78.289825      	77.5464        	78.11256       	76.91876       	76.48883       	76.53756       	76.37745       	76.46095       	76.205574      	76.30032       	76.771835      	76.00149       	76.54843       	76.35074       	76.50044       	76.27841       	75.8517        	77.050095      	76.21038       	76.3576        	76.283356      	76.41646       	76.256294      	76.49527       	76.87075       	75.58355       	76.22789       	76.3188        	76.59141       	76.217804      	76.46938       	76.33615       	76.57537       	76.27153       	76.78806       	76.20855       	75.99843       	76.46152       	74.62747       	72.87464       	74.697365      	76.212875      	76.30652       	76.368385      	76.09673       	76.779564      	76.23778       	76.64378       	75.91742       	76.48853       	76.22234       	76.2593        	76.14108       	76.64903       	76.134766      	75.05015       	76.66387       	77.95866       	77.330505      	
76.595955      	76.01119       	76.690674      	76.23801       	76.37461       	76.43545       	76.286354      	76.3296        	76.287415      	76.136406      	76.6384        	76.71333       	78.92957       	76.585846      	75.78153       	74.71376       	74.504486      	73.769936      	76.890305      	76.34356       	76.02439       	76.64421       	76.47358       	76.05439       	76.57876       	76.25408       	76.58752       	75.74251       	76.60077       	76.789566      	75.56383       	76.474365      	76.13424       	76.40145       	76.44187       	76.377716      	76.35777       	76.29603       	75.94519       	75.53424       	77.460976      	79.1421        	77.245056      	77.538795      	78.090294      	76.130875      	76.49854       	76.48937       	76.38501       	76.29608       	76.13848       	76.971565      	76.03499       	76.363365      	76.52666       	76.184105      	76.591095      	76.323166      	76.168686      	76.59828       	76.304634      	76.05406       	76.57081       	76.39596       	76.411         	76.10781       	76.8952        	75.84877       	76.01784       	76.486206      	76.686844      	76.434586      	76.32034       	76.46541       	76.44501       	76.63067       	76.08355       	76.77626       	76.08558       	74.7272        	72.71392       	74.514984      	75.93748       	76.31358       	76.42378       	76.443375      	76.033936      	76.49619       	76.37899       	76.17074       	76.5659        	76.39325       	76.37796       	76.44166       	76.227         	76.102264      	76.346306      	76.78094       	76.52709       	76.86957       	
