# www.neaspec.com
# Scan:	 	Whitelight Imaging
# Project:	 	20251007_PS
# Description:	 	
# Date:	 	10/07/2025 13:27:15
# Scanner Center Position (X, Y):	[µm]	49.99	50.01	 
# Rotation:	[°]	0	 	 
# Scan Area (X, Y, Z):	[µm]	5.000	5.000	0.000
# Pixel Area (X, Y, Z):	[px]	100	100	1
# Interferometer Center/Distance:	[µm]	548.096	0.000	 
# Averaging:	 	1	 	 
# Integration time:	[ms]	5	 	 
# Wavenumber Scaling:	 	1.000000	 	 
# Laser Source:	 	4.5-15 µm nano-FTIR laser
# Detector:	 	R
# Target Wavelength:	[µm]	7.502	 	 
# Demodulation Mode:	 	Fourier
# Tip Frequency:	[Hz]	241,340.500	 	 
# Tip Amplitude:	[mV]	45.700	 	 
# Tapping Amplitude:	[nm]	77.130	 	 
# Modulation Frequency:	[Hz]	0.000	 	 
# Modulation Amplitude:	[mV]	0.000	 	 
# Modulation Offset:	[mV]	0.000	 	 
# Setpoint:	[%]	79.75	 	 
# Regulator (P, I, D):	 	4.206850	8.625812	1.000000
# Tip Potential:	[mV]	0.000	 	 
# M1A Scaling:	[nm/V]	0.426	 	 
# M1A Cantilever Factor:	 	1,000	 	 
# Q-Factor:	 	487.4	 	 
# Version:	 	2.1.11536.0
76.69181       	76.60531       	76.142914      	76.023254      	76.54254       	76.701706      	76.33806       	76.106476      	76.67338       	76.28508       	76.4445        	76.17478       	77.23161       	75.72259       	76.31755       	76.32687       	76.46895       	75.41098       	73.01817       	75.39227       	75.2211        	75.46842       	76.32877       	77.06397       	75.5736        	76.66673       	76.402306      	76.050705      	76.45777       	76.03758       	76.797554      	76.130936      	76.0389        	76.70458       	76.33407       	76.2727        	76.66004       	76.04769       	76.37276       	76.50602       	76.23373       	76.408394      	76.397705      	76.24965       	76.38657       	76.988304      	76.08775       	76.74233       	77.003426      	75.22226       	77.46263       	76.7938        	75.727234      	77.619385      	74.868004      	76.53274       	77.13525       	77.763824      	79.194984      	76.181305      	75.85681       	76.28151       	75.93636       	76.13379       	76.58676       	75.92537       	76.59456       	76.1187        	76.20956       	76.42256       	76.47756       	76.56329       	76.13925       	76.174904      	76.86482       	76.246895      	75.99717       	76.45923       	76.64075       	76.08989       	76.26499       	76.254395      	76.29805       	76.41836       	76.57698       	76.154594      	76.16744       	76.56124       	76.58231       	76.1722        	75.62437       	76.74352       	75.82871       	76.92028       	76.37859       	76.15868       	76.5446        	76.03193       	76.37272       	76.87451       	
76.39824       	76.56223       	76.87113       	76.55381       	76.43298       	76.658966      	76.44005       	76.0399        	75.68969       	77.17606       	76.05521       	76.53294       	76.126595      	76.1162        	76.33038       	76.15224       	76.35817       	75.652145      	73.16381       	75.27056       	75.52825       	75.71311       	76.06754       	76.69391       	77.15331       	75.76003       	76.95908       	75.99318       	77.586105      	74.6834        	76.33966       	76.54669       	76.112885      	76.451744      	76.35471       	76.56801       	75.82206       	76.31923       	76.73993       	76.468895      	77.308266      	76.186844      	75.95799       	76.70572       	76.33485       	76.30693       	77.07911       	76.19194       	76.93007       	75.19974       	76.409966      	76.998024      	77.01937       	76.28634       	76.591705      	76.83647       	77.09542       	77.40015       	78.993324      	75.36811       	75.79831       	76.33243       	76.63235       	75.53953       	76.608986      	76.40491       	76.279594      	76.24092       	76.26295       	76.581436      	76.1143        	76.40862       	76.14681       	76.60015       	76.10726       	76.58241       	76.74159       	75.59567       	76.812         	76.323296      	76.36177       	75.869484      	76.6774        	76.34302       	76.476         	76.064026      	76.442085      	76.55464       	76.258255      	76.70474       	76.169464      	76.63293       	75.65148       	76.635345      	77.3988        	75.79403       	76.32889       	76.08524       	76.2926        	76.54639       	
76.55191       	76.527176      	76.66578       	76.24576       	76.3542        	76.823944      	75.889626      	77.389084      	75.58245       	76.51944       	76.36597       	76.52355       	76.39518       	76.32532       	76.64575       	76.04345       	76.241234      	75.752174      	73.43088       	74.886734      	75.36254       	75.70065       	75.9545        	76.17147       	76.73806       	76.25871       	75.92238       	76.56832       	76.91961       	75.24704       	76.71168       	76.5563        	76.49666       	76.77409       	76.28403       	76.26398       	76.36078       	77.12271       	76.25013       	76.35241       	75.94168       	76.44075       	76.98479       	76.29754       	77.07497       	75.84712       	76.62122       	75.43679       	76.68247       	76.621086      	77.365555      	77.38082       	76.37331       	76.81709       	76.81143       	77.42297       	77.03931       	77.6083        	76.251045      	75.78216       	76.01437       	76.139114      	76.33796       	76.72867       	76.16004       	76.25301       	75.95865       	76.58641       	76.16391       	76.15478       	76.32378       	76.86437       	75.91105       	76.34112       	76.746025      	75.734474      	76.42523       	76.32058       	76.42209       	76.76386       	75.91732       	76.3008        	76.472786      	76.480804      	76.23984       	76.17067       	76.2127        	76.50095       	76.75295       	77.33392       	74.82942       	76.26499       	77.212715      	74.5876        	75.87087       	76.23116       	76.011856      	77.44308       	75.94744       	76.444374      	
76.38286       	76.50249       	77.25133       	76.304375      	75.3966        	76.37055       	77.74172       	75.09832       	76.415726      	75.802376      	76.7214        	76.48669       	76.20269       	76.44726       	76.216644      	76.50451       	76.51777       	75.81559       	74.15031       	73.82526       	75.43857       	75.69915       	76.13788       	76.57885       	76.00955       	76.499695      	76.26381       	76.57602       	76.92992       	75.6358        	76.7568        	75.7439        	76.43304       	76.30145       	76.699295      	76.11664       	77.194244      	75.5311        	78.45152       	75.267105      	77.22309       	76.043274      	76.770065      	76.46733       	76.055214      	76.6323        	77.03552       	77.00415       	76.69481       	75.320564      	76.62603       	76.66981       	77.21564       	76.92538       	76.47127       	77.605156      	76.0595        	75.3997        	76.950485      	76.007996      	76.47379       	75.771095      	76.70731       	76.51977       	76.54649       	75.60359       	76.85232       	77.79093       	75.42002       	75.29633       	76.93388       	75.93717       	75.91506       	76.95953       	76.206314      	76.16331       	76.23961       	77.272194      	75.54189       	76.15628       	76.620575      	76.40627       	76.100044      	76.14734       	76.6434        	76.221306      	75.62142       	76.15977       	76.82726       	75.86784       	76.42086       	76.092         	76.54766       	76.68957       	75.57425       	77.2674        	75.43512       	76.572914      	76.427734      	76.5014        	
76.3416        	76.41084       	77.0351        	77.140915      	76.40414       	76.143196      	76.59836       	76.30664       	76.3488        	76.59408       	76.61132       	76.509155      	75.74324       	76.438644      	76.097855      	77.01751       	76.19026       	76.042786      	74.0009        	74.090294      	75.37914       	75.49254       	75.947174      	76.594406      	76.17899       	76.59881       	76.615585      	76.067215      	76.67715       	76.37828       	75.87764       	76.77187       	75.98877       	76.511505      	77.56557       	76.29052       	75.75436       	78.07977       	76.19888       	76.46831       	76.482         	75.65314       	76.72253       	77.12315       	75.96277       	76.65039       	76.93491       	77.69259       	76.40378       	77.35975       	76.65459       	76.19848       	77.05842       	75.9041        	76.497894      	77.243095      	75.20699       	76.50224       	76.69914       	75.92699       	76.06122       	76.81742       	76.54358       	75.959465      	75.8961        	76.04831       	76.995514      	75.66376       	76.42767       	76.526405      	76.108406      	76.521416      	75.81414       	76.526054      	76.2232        	75.82383       	76.882065      	76.37167       	76.122         	76.60369       	76.486885      	76.40848       	75.621475      	76.64688       	75.79215       	76.134224      	75.6975        	76.89739       	76.34547       	76.62584       	75.958725      	76.334724      	76.2084        	76.65762       	75.71073       	77.02102       	75.97038       	76.76785       	76.970276      	74.99306       	
76.53759       	76.87776       	76.63575       	76.82206       	76.34213       	76.54152       	76.4175        	76.40641       	76.46127       	76.56776       	76.072876      	76.35122       	76.38283       	76.79044       	75.81272       	77.06695       	75.959816      	76.95943       	74.64215       	73.41837       	75.29922       	75.62186       	75.4459        	76.274635      	76.59382       	76.39423       	76.47409       	76.27697       	78.01566       	76.00495       	75.088646      	77.295746      	77.27301       	77.1409        	75.80066       	76.97809       	75.8995        	75.40981       	77.515625      	76.60797       	76.72992       	76.135185      	76.344986      	77.04007       	77.18311       	76.85737       	77.17114       	76.73949       	75.71057       	75.602486      	76.37586       	76.229126      	75.92017       	77.22769       	76.65157       	75.92812       	76.033         	76.6155        	76.70515       	75.66116       	76.58389       	76.51074       	76.257774      	76.5224        	75.88267       	76.542915      	76.322266      	76.781586      	76.0578        	76.22627       	76.54286       	75.66785       	77.58281       	75.48447       	75.119225      	76.77386       	75.69654       	76.69158       	75.64948       	76.18741       	76.687065      	76.56166       	76.35593       	76.35378       	76.326256      	76.21305       	76.66906       	76.12629       	76.06707       	77.589294      	74.58203       	76.95333       	77.13048       	75.72116       	75.7452        	77.33187       	75.16055       	76.32508       	76.47561       	76.562164      	
76.58166       	76.23392       	76.205         	76.9978        	76.955414      	75.96368       	76.03967       	76.60879       	76.54757       	76.46887       	76.12675       	76.34327       	76.2825        	76.75191       	75.97232       	76.3451        	75.79518       	77.04371       	75.0637        	73.11966       	75.020805      	75.84835       	76.08648       	76.26142       	76.58485       	76.53673       	75.27587       	76.26264       	77.369896      	75.53195       	76.27823       	77.66403       	75.95149       	76.93896       	76.173965      	76.15702       	75.98312       	76.96235       	78.631065      	76.78702       	76.76458       	77.69563       	75.6992        	75.61398       	76.75377       	76.10986       	75.33265       	76.65191       	76.25494       	75.75939       	76.05887       	76.94826       	76.027084      	76.22644       	77.03116       	75.51756       	76.84798       	76.29427       	76.37022       	76.143486      	76.85779       	75.846466      	76.242836      	76.7196        	76.94639       	75.360146      	77.64087       	74.47964       	76.7772        	76.18018       	75.42141       	77.01087       	76.0408        	76.57755       	77.16997       	75.59051       	76.20302       	75.855965      	75.43166       	76.997475      	76.39668       	75.841156      	76.976685      	76.48157       	76.203476      	76.18558       	76.65827       	76.465805      	75.267784      	77.1214        	76.72222       	75.38581       	78.25505       	76.3749        	74.73078       	76.28549       	77.19009       	75.25474       	76.917786      	75.62475       	
76.426765      	76.686584      	77.032585      	77.135994      	76.40276       	75.906136      	76.5125        	76.5202        	75.8463        	76.924484      	75.94925       	76.68954       	76.25343       	76.0282        	76.663025      	76.09985       	75.97059       	76.77483       	76.398994      	74.45836       	75.2912        	76.7341        	75.59884       	75.979065      	76.366135      	75.18688       	75.90883       	77.067276      	75.34987       	76.59357       	76.88331       	77.06889       	77.03691       	76.724815      	76.15822       	78.241         	75.266525      	76.73567       	78.6658        	75.5728        	76.02141       	76.042076      	75.812454      	75.759384      	76.561386      	75.96034       	75.80248       	76.002945      	76.56137       	76.25843       	76.71452       	76.210724      	76.92144       	75.937515      	76.07894       	76.82614       	76.31951       	75.93131       	76.71786       	76.38129       	76.191055      	75.93391       	76.49692       	76.101845      	76.23436       	76.94437       	75.569954      	76.75761       	75.906235      	76.51317       	76.792564      	75.87322       	76.2331        	76.11764       	76.59582       	76.10327       	76.78922       	76.2865        	76.56201       	76.404335      	75.72704       	76.77828       	75.54868       	77.160774      	77.046455      	74.85266       	76.40748       	76.31697       	76.332726      	76.17489       	76.748024      	76.50595       	76.22545       	76.21717       	76.23831       	76.50864       	77.05525       	75.45121       	75.98426       	76.38007       	
76.429825      	76.763756      	76.57895       	76.05176       	76.437164      	76.289795      	76.688156      	76.33224       	76.46699       	76.39454       	76.50979       	76.58623       	76.22042       	76.43946       	76.42898       	76.43649       	76.644966      	75.85449       	76.90205       	76.526886      	75.34338       	74.00259       	75.33184       	76.452965      	76.74966       	76.05104       	76.68828       	75.261246      	76.279655      	77.22352       	77.27813       	76.89688       	76.31972       	77.474         	76.0372        	76.909874      	75.10605       	76.24496       	76.59539       	74.6059        	76.77135       	76.16505       	76.28448       	78.16494       	74.73862       	76.7476        	75.706764      	76.48465       	76.3314        	75.75603       	77.38321       	74.734726      	76.86533       	75.91409       	76.61166       	76.21475       	76.45015       	75.24293       	77.07205       	76.29846       	76.57777       	76.854904      	76.13626       	76.44285       	76.11781       	76.89475       	76.0118        	76.20896       	76.2257        	75.56401       	76.39376       	76.644005      	77.014046      	75.27077       	76.6338        	76.393295      	76.5243        	76.21808       	76.265045      	76.86126       	75.801155      	76.579926      	75.900764      	75.95097       	76.384125      	76.939255      	74.97369       	76.77336       	75.896614      	76.752075      	76.51478       	76.57456       	76.26357       	76.09851       	76.040825      	76.586815      	75.83742       	77.36142       	75.64544       	75.39835       	
76.37302       	76.46355       	76.67532       	78.13645       	76.314354      	75.968216      	76.56069       	76.15607       	76.25617       	76.8227        	75.89535       	76.95354       	76.71118       	75.80186       	76.440056      	76.1162        	76.37347       	76.63321       	75.88657       	76.91005       	77.700424      	74.38918       	75.18          	76.23514       	76.523445      	75.841644      	76.33318       	76.94669       	76.830734      	77.51339       	75.85799       	76.091606      	76.303345      	76.93254       	75.98097       	75.395035      	76.88122       	76.0456        	75.63153       	77.022         	77.37435       	74.956184      	76.257835      	76.384605      	76.47957       	75.980965      	75.468704      	77.33502       	75.89579       	76.31938       	76.70202       	75.76966       	76.85598       	75.284065      	76.334274      	77.037125      	76.33708       	76.37601       	76.31506       	76.65743       	76.34965       	76.07047       	75.490715      	75.79098       	77.98817       	75.3868        	76.49946       	75.89703       	76.32421       	76.168365      	76.671         	76.43707       	76.63187       	76.221085      	76.08393       	76.25898       	76.28987       	76.917625      	77.28912       	75.19716       	76.70023       	75.63582       	76.32222       	76.50006       	76.20332       	77.0017        	76.07529       	75.84424       	76.549774      	75.974464      	76.50676       	76.31203       	76.333694      	76.93095       	75.5421        	76.82545       	76.54944       	76.66348       	75.7637        	76.25601       	
76.28523       	76.440315      	76.320465      	76.98203       	76.85652       	76.78084       	75.94413       	76.40983       	76.175156      	76.45238       	76.6776        	76.77897       	75.894806      	76.33699       	75.962494      	76.77733       	76.19249       	76.10085       	76.986664      	75.6601        	76.95351       	76.57147       	76.34311       	75.268814      	76.82387       	76.72977       	77.09669       	75.28555       	76.31208       	76.29901       	75.62759       	76.69197       	76.528564      	76.17676       	76.38179       	76.14964       	76.09964       	77.18736       	75.24552       	77.108406      	76.647064      	76.45959       	76.139595      	75.723724      	76.669044      	76.32813       	76.3609        	76.517685      	76.863716      	74.947296      	76.325165      	76.959625      	75.48123       	76.84573       	76.597786      	76.13947       	76.144714      	76.022835      	76.90589       	76.00695       	77.28724       	75.45195       	75.95223       	76.90823       	76.33152       	76.15542       	75.82689       	76.824615      	76.04061       	76.30253       	76.95292       	76.29873       	75.795715      	76.48064       	76.47446       	76.866066      	76.0422        	75.64796       	77.09428       	75.95108       	77.33781       	75.97919       	75.15281       	77.063835      	76.12797       	76.370346      	76.26822       	75.937164      	76.92312       	75.679115      	77.412094      	74.96404       	76.93855       	75.982056      	76.68223       	75.95195       	76.41019       	76.00775       	75.97667       	76.254105      	
76.57932       	76.80874       	77.41104       	76.93929       	75.028595      	76.245186      	76.122986      	76.71632       	76.596565      	76.24077       	76.14104       	76.76805       	75.85799       	76.87966       	76.48873       	76.34226       	76.08943       	76.09598       	76.56443       	76.436104      	76.11766       	76.170166      	76.9938        	75.87766       	76.21746       	75.90729       	76.38056       	75.840775      	76.544334      	76.562836      	76.276665      	76.32737       	76.20419       	76.26074       	76.74756       	75.89542       	76.43372       	76.50344       	76.76644       	75.573715      	76.92413       	76.61959       	76.31868       	75.811516      	76.54116       	76.76688       	76.25039       	76.0421        	76.25576       	76.63593       	76.27263       	76.77396       	76.31808       	75.83355       	76.4442        	76.17631       	76.449165      	76.74942       	75.724625      	76.812035      	76.336716      	76.72123       	76.37879       	76.17102       	76.4348        	76.091255      	76.51553       	76.39          	75.89707       	76.842575      	75.48814       	77.44557       	75.47395       	76.581985      	76.09434       	76.54698       	76.489746      	75.475464      	75.421616      	77.24879       	75.97076       	76.66285       	76.732285      	75.999916      	76.7233        	75.88965       	76.60192       	76.10388       	76.64289       	75.818756      	76.621284      	76.23437       	76.99379       	75.70351       	76.126236      	77.03805       	76.63988       	75.76087       	76.37512       	76.8135        	
76.40149       	76.55789       	77.13301       	76.37764       	76.103966      	76.07159       	75.89544       	75.82868       	76.849144      	76.63233       	75.29381       	77.083206      	76.24041       	76.59506       	75.55974       	76.273605      	77.13101       	76.06198       	75.991554      	76.23805       	76.660866      	76.11603       	76.30893       	76.49182       	76.63491       	76.126884      	75.98219       	76.63044       	76.53898       	76.027016      	76.32323       	76.64386       	76.56199       	75.63522       	76.57304       	76.305855      	75.66288       	77.25317       	76.89124       	75.68378       	76.05465       	76.495125      	76.83595       	75.83281       	76.27377       	75.348976      	76.50001       	76.88674       	75.57512       	76.22782       	76.64629       	76.32832       	76.67619       	75.48663       	76.7271        	76.19582       	76.384865      	78.2719        	75.51741       	77.2968        	74.85766       	75.84509       	76.81665       	75.66292       	76.68095       	76.59241       	76.18612       	76.636154      	75.87967       	77.30067       	75.38378       	76.51889       	76.10016       	76.02683       	76.56678       	76.457695      	76.19957       	76.649         	75.17405       	76.83142       	76.068565      	76.83239       	76.37775       	75.85358       	76.09969       	75.81894       	76.89207       	76.592384      	77.10234       	75.10495       	76.18573       	76.55679       	76.069534      	76.36496       	76.37377       	75.80728       	76.48477       	76.46118       	75.6334        	76.37562       	
76.24838       	76.84395       	77.71138       	76.4212        	75.87714       	77.26281       	76.05053       	76.03012       	76.74089       	76.754005      	75.77802       	76.240524      	76.65316       	76.181305      	76.24219       	76.53066       	76.33277       	76.09982       	76.03417       	76.52319       	76.29108       	77.005775      	76.299866      	76.23579       	74.850075      	77.96222       	75.65692       	75.99766       	76.99399       	75.43953       	77.47223       	75.42567       	76.316635      	76.709625      	76.209816      	75.797935      	76.89855       	75.95676       	76.30049       	76.58577       	76.30845       	76.8902        	75.84269       	76.27617       	76.354904      	76.246666      	76.44576       	76.53734       	76.00525       	76.37363       	76.52954       	76.00268       	76.98038       	75.89924       	75.97565       	76.83063       	76.10954       	76.19645       	76.71562       	76.0471        	75.91666       	76.80666       	75.93492       	76.2211        	76.8545        	75.62825       	76.82293       	76.78729       	75.361206      	76.620285      	76.49308       	75.795265      	76.25688       	77.04999       	75.89319       	76.6787        	76.16312       	75.923416      	76.71486       	75.73317       	77.072815      	75.823074      	75.99539       	76.13316       	76.892784      	76.52896       	75.8182        	77.17285       	75.60546       	76.27466       	76.18653       	76.97188       	75.99378       	75.64218       	76.55066       	77.32217       	75.13231       	76.33613       	75.247116      	76.75916       	
76.214485      	76.79314       	77.37016       	76.55232       	75.73747       	76.310295      	77.05509       	76.38932       	75.99624       	76.69713       	75.840195      	76.63275       	76.62173       	75.40872       	76.58154       	76.26199       	76.37488       	77.46368       	75.5643        	75.94442       	76.551346      	76.09875       	76.31979       	76.29285       	76.537315      	76.75529       	75.163666      	76.85928       	75.94903       	76.203026      	76.15464       	77.04861       	75.63431       	75.863495      	76.89195       	76.3756        	75.94459       	76.49477       	76.00063       	76.60566       	76.19228       	76.06376       	76.83674       	76.11742       	76.99895       	75.90942       	76.35659       	76.351875      	76.4685        	76.18238       	76.19768       	76.87453       	76.38159       	75.73522       	77.207275      	75.37077       	76.06759       	77.087814      	75.92832       	76.78975       	76.0545        	76.44431       	76.36273       	76.45374       	76.03881       	77.455826      	75.40575       	76.51628       	77.970345      	75.09174       	76.27343       	76.45862       	76.42023       	76.885155      	75.57689       	76.147835      	76.71228       	76.539215      	76.504654      	76.19263       	76.494736      	76.047874      	76.31857       	76.24714       	77.3633        	74.551025      	77.05141       	75.73469       	77.08952       	75.82755       	76.03329       	76.37839       	76.32838       	76.450386      	76.75339       	76.54817       	75.58163       	76.222015      	76.16531       	76.58266       	
76.483696      	76.64191       	76.879166      	76.36021       	76.08917       	76.40042       	77.10684       	76.08643       	77.54177       	75.15863       	75.5864        	76.46916       	76.39453       	76.23549       	76.72327       	76.295784      	76.32736       	76.62877       	76.11178       	76.205         	76.46185       	75.804695      	76.462524      	76.32181       	76.26259       	76.25057       	75.96354       	76.57087       	76.607086      	75.85196       	76.254364      	76.159164      	76.46868       	76.80986       	76.29437       	76.632576      	76.20533       	76.35046       	76.45217       	76.039185      	76.60993       	75.99865       	76.64532       	76.029594      	76.11614       	76.355316      	76.40976       	76.564384      	76.505646      	75.71859       	76.6522        	76.22748       	76.36548       	76.62405       	76.437805      	75.865685      	76.29953       	76.90444       	76.429436      	76.3866        	76.481186      	77.460915      	74.9399        	75.51564       	76.326675      	77.09376       	76.16828       	76.72933       	75.89284       	76.47958       	75.88899       	76.63094       	76.416824      	77.24897       	75.880516      	77.39852       	74.77986       	75.60288       	76.264656      	77.19719       	75.41124       	76.73984       	76.12977       	77.14025       	76.19764       	75.68453       	76.16828       	76.247284      	76.565796      	75.826546      	76.30872       	76.59388       	76.2903        	76.510284      	76.30864       	76.57696       	76.043015      	76.57135       	76.38477       	75.94631       	
76.50011       	76.96692       	76.78361       	76.17771       	76.164474      	76.27149       	77.53086       	76.41832       	75.76294       	76.57715       	76.68524       	76.28352       	76.636         	76.125114      	76.074234      	76.14716       	76.956726      	75.937675      	76.977104      	75.840294      	77.054016      	75.92168       	76.031         	76.2146        	76.77077       	75.685745      	76.02828       	76.43923       	76.01588       	76.775696      	76.53279       	76.08301       	76.50994       	76.3734        	76.59145       	76.67798       	75.815735      	76.95771       	76.32305       	75.39909       	75.89979       	77.00079       	75.88256       	76.254         	76.40956       	76.396065      	76.75898       	76.52324       	75.86697       	76.935196      	75.87511       	76.5998        	76.7393        	75.76214       	75.99768       	77.189514      	75.52713       	76.31497       	76.813614      	76.00367       	77.12676       	75.52513       	77.02646       	76.16124       	75.97869       	76.098854      	76.37347       	75.92384       	76.59228       	76.524475      	76.53454       	75.64752       	75.920296      	76.49414       	76.35091       	76.06258       	76.10405       	76.85793       	76.51059       	75.94304       	76.7071        	75.908745      	77.40164       	76.61191       	75.19937       	76.34998       	76.634995      	76.407135      	76.09093       	76.41565       	75.7322        	76.46455       	76.39554       	75.72834       	77.240875      	75.64148       	76.13294       	76.57469       	76.06762       	76.58109       	
76.30504       	76.49757       	76.97456       	76.70695       	76.49022       	76.29548       	76.80032       	76.26311       	76.19557       	76.410934      	76.685165      	76.18266       	76.71042       	75.84751       	77.37328       	75.47631       	76.32884       	75.98858       	76.93006       	75.68008       	76.80764       	76.394745      	76.69999       	75.80676       	76.39961       	75.51747       	77.49007       	75.65664       	76.68001       	75.737175      	76.5478        	76.544975      	76.54941       	76.093925      	76.242325      	76.31158       	76.114815      	76.46768       	76.68534       	75.917145      	76.43526       	76.42279       	76.50218       	75.782104      	76.57562       	76.83996       	75.525604      	77.34736       	75.92876       	76.62475       	76.23737       	76.354034      	76.34657       	76.28725       	76.76715       	76.26926       	76.480316      	75.65399       	76.908035      	76.54992       	75.31965       	76.40148       	76.63062       	76.24974       	77.200745      	76.406136      	75.88181       	76.87228       	75.81647       	75.920944      	76.14908       	76.95697       	76.31767       	76.452         	76.5316        	76.89544       	75.01166       	76.446045      	76.36857       	76.5312        	76.38012       	75.51511       	76.976326      	76.32672       	76.16322       	76.31108       	75.2426        	77.24328       	75.71169       	75.24055       	76.312065      	77.20273       	75.769264      	76.14238       	76.65358       	75.21342       	76.15594       	75.61564       	76.62849       	76.02215       	
76.55027       	76.77943       	76.561714      	76.5738        	76.13689       	76.08548       	76.18546       	76.45665       	76.49689       	76.47712       	76.02445       	76.62753       	76.52954       	76.276955      	76.31142       	76.68847       	76.41696       	76.47818       	76.212265      	76.0951        	76.639046      	76.431816      	76.82955       	75.849396      	76.46794       	76.63016       	75.301636      	76.71478       	76.75492       	76.14885       	76.823         	76.25535       	76.37312       	76.27938       	76.29351       	76.85579       	76.5765        	76.06617       	76.52848       	76.4354        	76.30222       	76.43182       	76.30823       	76.486         	76.47997       	76.335045      	76.815994      	76.18838       	76.44587       	76.163414      	76.84555       	76.482864      	76.04793       	76.30202       	76.48701       	76.268265      	76.52761       	76.07183       	76.617905      	76.42037       	76.532326      	77.11092       	75.885185      	76.41972       	76.092995      	76.63087       	75.889465      	76.41106       	76.36831       	76.1256        	76.14904       	76.76736       	76.57095       	76.13222       	76.67511       	76.55072       	76.090195      	76.651596      	76.089035      	76.4357        	76.41984       	76.45726       	75.371025      	76.80345       	75.91216       	77.38009       	75.9605        	75.700554      	76.54703       	76.291756      	75.827194      	76.73082       	76.18468       	76.77882       	76.11539       	75.79535       	75.0325        	74.30406       	75.14877       	75.61794       	
76.4752        	76.616806      	76.6583        	76.80768       	77.008415      	76.444855      	76.64095       	75.66825       	76.27279       	76.70692       	76.04132       	76.785385      	75.7613        	77.08425       	75.92921       	76.26131       	76.263725      	76.563965      	76.39759       	76.137634      	76.74928       	76.19091       	76.53853       	76.4969        	75.820915      	76.99511       	76.063126      	75.889725      	76.7993        	76.209816      	76.70828       	76.464096      	75.89597       	77.08931       	75.817375      	76.30603       	76.87041       	76.296425      	76.189354      	76.25825       	76.27451       	76.4731        	76.18328       	76.65934       	76.18332       	76.48026       	76.79407       	75.96617       	76.06579       	76.31282       	76.32319       	76.47215       	76.47626       	76.186874      	76.53122       	76.13708       	76.53416       	76.52309       	76.437996      	75.27812       	77.28009       	75.93929       	76.56987       	77.01589       	75.2484        	76.56127       	76.74483       	76.09482       	76.12049       	76.48607       	75.95936       	76.60927       	76.576195      	76.01588       	76.67005       	75.81477       	76.69077       	76.79302       	76.09641       	76.23808       	76.32012       	75.946175      	76.173676      	76.73463       	76.00509       	76.334404      	76.728516      	75.87309       	76.34258       	76.12303       	76.25573       	75.4908        	74.26149       	74.99376       	75.97245       	76.04702       	76.48604       	75.919556      	75.97599       	76.12297       	
76.32458       	76.67452       	77.08561       	75.96476       	76.955986      	75.955765      	76.90181       	76.08251       	76.60923       	76.263725      	76.73216       	76.535645      	75.74          	77.16511       	75.916725      	75.86406       	76.247406      	76.27954       	76.27616       	76.29481       	76.00943       	76.617615      	76.43738       	76.195656      	76.49896       	76.40127       	76.470406      	75.50989       	76.63526       	76.43399       	76.22742       	76.72664       	76.22379       	76.7431        	76.33419       	76.02059       	76.321205      	76.48837       	76.50052       	76.12382       	76.467064      	76.48578       	76.24375       	76.47201       	76.33717       	76.64343       	76.92437       	76.110115      	75.96762       	75.717026      	76.971794      	76.19105       	76.49087       	76.26341       	76.39637       	76.77878       	76.164474      	76.68162       	75.9872        	75.96246       	76.78531       	77.14466       	76.0622        	76.56732       	76.31862       	76.66728       	76.256256      	76.39291       	76.26645       	76.97661       	76.118614      	76.63339       	76.08342       	76.75264       	75.956856      	76.84897       	75.93328       	76.65885       	76.33653       	75.90497       	76.45976       	76.393486      	76.27663       	76.54783       	76.43514       	76.71183       	75.36651       	76.090324      	75.12321       	72.86136       	75.02457       	75.964455      	76.31317       	75.918625      	76.070786      	76.23943       	76.39972       	76.39152       	76.24365       	76.61646       	
76.44882       	76.71044       	76.6759        	76.36345       	76.83955       	76.793205      	75.797455      	76.597244      	76.26683       	76.03649       	76.50834       	76.49          	76.23902       	76.26562       	76.464745      	76.44546       	76.31772       	76.201385      	76.784164      	76.33939       	76.41832       	76.00895       	76.30983       	76.59629       	75.92498       	76.478325      	76.308525      	76.12682       	76.34191       	76.64953       	75.18696       	76.543625      	77.36038       	75.32638       	77.335976      	75.1822        	76.57248       	76.62569       	76.45579       	76.41466       	76.187004      	75.548386      	75.86351       	76.68307       	76.24392       	76.8304        	76.29302       	76.82839       	77.04383       	75.49908       	76.41377       	76.17616       	76.06249       	76.46853       	76.27937       	76.773674      	76.23547       	75.90286       	76.71159       	76.16583       	76.08181       	76.53294       	76.37733       	76.609535      	76.159164      	77.29189       	75.34196       	76.48921       	76.68325       	76.0944        	77.16894       	75.64879       	76.947         	75.55063       	77.02273       	75.72584       	76.563705      	76.1111        	76.971214      	75.82984       	76.42664       	76.87883       	76.54293       	76.02995       	75.83341       	76.337654      	76.9643        	73.29077       	74.083885      	74.63589       	75.87614       	76.508415      	76.01587       	76.58324       	76.1575        	76.3673        	76.202545      	77.650696      	75.76093       	76.56366       	
76.16922       	76.510506      	76.802         	76.66286       	76.25366       	76.822945      	76.47819       	76.08958       	76.253105      	76.428116      	76.69559       	76.69957       	76.30507       	76.59853       	76.0267        	76.5047        	76.18373       	76.46181       	76.84289       	76.59758       	75.97863       	76.496216      	76.28941       	76.68624       	76.03489       	76.7341        	75.88206       	77.23063       	75.65444       	76.586464      	77.00275       	75.31777       	76.4356        	76.11805       	76.6486        	76.86519       	75.617424      	76.32761       	76.610985      	76.15321       	76.187805      	76.42004       	76.548256      	76.2621        	76.46642       	76.38758       	76.85249       	75.91153       	76.19689       	77.384674      	75.154655      	76.40102       	77.11839       	75.51072       	76.82478       	76.39559       	76.37952       	76.261314      	76.675         	75.6728        	76.15989       	77.16057       	75.39851       	76.47582       	76.67104       	76.43025       	76.72696       	75.5072        	76.71855       	76.12779       	76.48499       	76.062035      	76.939026      	76.48922       	75.86852       	75.73071       	76.67618       	74.973915      	76.09216       	76.65199       	75.928406      	76.3264        	76.22353       	77.37542       	75.47852       	75.76941       	77.02377       	72.700264      	74.985504      	75.416435      	75.80857       	76.48616       	76.17034       	76.08253       	76.52811       	76.68902       	76.12368       	77.259415      	76.06017       	75.8837        	
76.31977       	76.52252       	76.882416      	76.22          	76.50421       	76.28478       	76.205154      	76.49767       	76.30203       	76.46248       	76.50087       	76.2387        	76.38791       	76.532845      	76.4045        	76.57615       	76.50567       	76.28696       	76.21325       	76.083595      	76.24692       	76.536545      	76.59821       	76.242165      	76.412254      	76.392105      	76.06101       	76.67452       	75.62946       	76.3784        	76.91306       	75.891914      	76.64836       	76.51119       	76.17188       	76.38646       	76.48865       	76.32806       	77.08161       	77.70369       	75.55828       	76.11293       	76.12051       	76.30084       	75.97787       	76.90925       	76.147995      	76.42077       	76.35014       	76.64384       	76.2661        	76.21546       	76.66331       	76.40665       	76.30986       	76.54429       	76.40295       	76.43637       	75.71915       	76.89136       	76.663574      	76.23879       	76.39869       	76.611855      	76.62821       	75.78857       	77.22619       	77.63072       	75.43477       	76.04531       	76.18062       	76.722046      	76.63479       	75.579475      	76.67328       	76.22905       	76.09131       	76.61785       	76.39374       	76.326065      	75.857056      	76.92259       	76.371666      	76.52254       	76.569336      	75.66003       	75.9191        	73.169754      	75.09821       	75.199165      	75.44971       	76.2916        	76.92504       	77.00589       	75.85426       	76.44244       	75.89771       	76.809326      	77.08486       	75.106255      	
76.16892       	76.6095        	76.586296      	76.37791       	76.447624      	76.25838       	75.83838       	76.65505       	76.70047       	76.29681       	76.067154      	76.584305      	76.99744       	75.75149       	77.082214      	75.96204       	76.74741       	76.4147        	75.39632       	77.06607       	76.28896       	75.59844       	76.44286       	76.90993       	76.07906       	76.56295       	77.97078       	75.57951       	75.70706       	76.54215       	75.947495      	76.1206        	76.4113        	76.07482       	76.91748       	76.30061       	76.36132       	75.718124      	76.71612       	77.04732       	75.68993       	76.36335       	76.231804      	77.032776      	76.85739       	75.64166       	76.759674      	75.741875      	76.0059        	76.76687       	76.391426      	76.56636       	76.40396       	76.04492       	76.65257       	75.76994       	76.79244       	76.28625       	75.97294       	76.33515       	76.76116       	76.285576      	76.9175        	75.83705       	75.86805       	76.55949       	76.63492       	76.33437       	76.17648       	76.31098       	76.296165      	76.95513       	76.11341       	76.077896      	76.35723       	76.36664       	76.61205       	76.50577       	77.2332        	75.20892       	75.93337       	76.78782       	75.95636       	76.33587       	76.27267       	76.37604       	75.98954       	73.41999       	75.22645       	75.41823       	75.30615       	76.31472       	76.25565       	76.32885       	76.46547       	76.37788       	76.52714       	75.974915      	77.01742       	75.99695       	
76.308464      	76.68408       	76.60175       	76.40225       	76.37874       	76.71          	76.40018       	76.26067       	76.325226      	76.37781       	76.31781       	76.48          	76.537895      	76.52429       	76.24251       	76.28612       	76.50009       	76.42416       	76.46589       	76.23994       	76.637794      	76.076706      	76.82432       	76.159744      	76.28597       	76.83683       	75.83491       	76.69022       	76.530426      	76.24956       	76.24885       	76.49013       	76.56392       	76.38492       	76.46369       	76.15303       	76.77691       	76.75888       	75.89106       	76.61868       	76.459625      	76.37329       	76.510765      	76.58216       	75.755486      	77.1678        	76.48342       	75.84829       	77.00389       	75.833176      	76.65861       	76.10593       	76.711075      	76.02045       	76.53694       	75.08185       	77.071495      	76.829994      	76.402405      	75.44071       	76.62743       	76.36208       	77.02591       	76.308754      	75.63218       	76.56953       	76.81954       	76.201866      	76.15014       	76.19467       	76.84279       	75.87083       	76.51258       	75.8025        	76.74276       	75.7073        	77.26138       	76.41397       	76.14175       	76.18889       	76.27903       	75.8857        	76.82855       	76.323814      	75.93917       	76.88297       	76.31848       	72.864914      	75.21693       	75.10017       	75.40816       	76.09318       	76.52515       	76.79735       	76.36671       	76.907814      	75.24167       	75.76974       	76.64375       	77.10795       	
76.392845      	76.59926       	76.52118       	76.71992       	76.624565      	76.33803       	76.343544      	76.30119       	76.59707       	76.19687       	76.58773       	76.28064       	76.44184       	76.543274      	76.57016       	76.17625       	76.50338       	76.48189       	76.25904       	77.2375        	75.77885       	76.1353        	76.28224       	75.8886        	76.760735      	76.30528       	76.2012        	76.31748       	76.7261        	75.5777        	76.9044        	76.32535       	76.22354       	76.503105      	76.09909       	77.14933       	76.94924       	75.428734      	76.29212       	76.36861       	76.734665      	76.27886       	76.21608       	76.35656       	76.31068       	76.64312       	76.46221       	76.58072       	76.01674       	76.335205      	76.65568       	75.96023       	76.84535       	75.9849        	77.01485       	75.55246       	76.19767       	76.52925       	76.07759       	76.197365      	76.6074        	77.49705       	74.83996       	77.93755       	76.43021       	76.042496      	76.098335      	76.086784      	76.53107       	76.13027       	76.2093        	76.00154       	76.52041       	76.86179       	75.909904      	76.51194       	76.187096      	76.165405      	76.44952       	76.54721       	76.35125       	76.10938       	76.67398       	75.981766      	76.67831       	76.16131       	75.676056      	74.2234        	74.41637       	75.410965      	75.526115      	75.38714       	76.455696      	76.72112       	76.0707        	76.97991       	75.87154       	76.21027       	76.21388       	76.81355       	
76.484276      	76.67201       	76.373505      	76.22821       	76.26555       	76.36511       	76.34923       	76.44488       	77.01915       	75.7413        	76.65887       	76.408646      	76.2023        	76.55432       	76.23656       	76.38177       	76.58464       	76.10147       	76.891014      	75.64611       	76.54044       	76.69569       	75.86689       	76.92074       	76.58198       	75.99827       	76.73158       	75.767845      	76.5647        	76.50087       	76.188576      	76.21379       	76.258606      	76.57978       	75.97437       	76.243195      	76.7115        	76.37511       	76.51398       	76.08707       	77.01467       	76.41386       	76.0118        	76.16722       	75.82074       	77.18571       	75.83885       	74.96102       	77.128555      	76.6731        	75.449776      	76.86139       	75.65863       	76.52005       	76.52271       	75.88309       	76.404434      	76.34054       	75.02711       	74.30456       	75.83028       	76.82545       	77.49218       	77.939896      	78.20241       	76.32161       	76.46858       	75.90056       	75.53805       	76.14431       	76.75825       	76.347885      	76.10336       	76.49312       	76.516106      	76.462616      	76.27289       	76.37788       	76.42706       	76.47502       	76.302986      	76.25196       	76.44891       	76.37655       	76.372574      	76.31981       	76.65727       	76.047195      	73.28639       	74.78535       	75.41792       	75.45366       	76.13059       	76.52775       	76.88638       	76.5728        	76.16427       	76.077995      	76.647255      	75.97855       	
76.67238       	76.64127       	76.46235       	76.90424       	76.67528       	75.36403       	75.79839       	76.36789       	76.670685      	76.17087       	76.73927       	76.04091       	76.31937       	76.51036       	76.50148       	76.73088       	76.094345      	76.56452       	76.02142       	76.424805      	76.340744      	76.48993       	75.968315      	76.69944       	76.447655      	75.91645       	77.225716      	75.24054       	76.35058       	77.00223       	75.5525        	75.85356       	76.34776       	76.347946      	76.49789       	76.88809       	76.12505       	76.435196      	76.215805      	76.50551       	76.3413        	75.884926      	76.5499        	76.09952       	76.413925      	77.184975      	76.09391       	75.82368       	76.13967       	77.19214       	75.66501       	76.25492       	76.18817       	75.67812       	76.44429       	73.33132       	75.19275       	75.71803       	76.59906       	75.18623       	75.94862       	76.67478       	77.23526       	77.84396       	79.86041       	76.68653       	77.42914       	75.776085      	75.82862       	75.92197       	76.547615      	76.422844      	75.99469       	76.60606       	76.42367       	76.17138       	76.38016       	76.56942       	76.114334      	76.49025       	76.35016       	76.37652       	76.36          	76.74307       	76.45587       	75.78792       	76.62046       	76.39623       	73.301605      	74.93288       	75.47671       	75.26252       	76.11405       	76.18909       	76.178795      	76.6704        	76.61785       	76.45636       	76.59049       	76.32981       	
76.45304       	76.5141        	76.72292       	76.71487       	76.30945       	76.46472       	76.85529       	75.96389       	76.595085      	76.58465       	76.407394      	75.76416       	77.289696      	75.71424       	75.994         	76.401405      	77.2188        	76.29993       	76.09153       	76.20883       	76.52593       	75.846634      	76.231094      	76.62276       	75.82277       	76.71785       	75.7992        	76.49577       	76.42976       	76.060394      	76.67996       	76.28543       	76.27534       	77.29028       	75.44134       	76.424034      	76.49257       	76.2781        	76.631584      	75.754364      	77.03959       	76.65701       	75.895515      	76.294716      	75.94197       	76.62926       	75.51652       	77.29889       	75.49667       	75.40764       	75.0167        	75.01124       	75.58818       	76.30395       	76.09606       	75.51312       	76.4389        	76.18257       	76.155975      	76.22053       	76.42781       	77.23746       	76.43241       	77.42035       	78.13424       	79.13566       	75.6046        	76.70528       	76.17597       	76.06158       	76.37796       	76.1795        	77.26811       	75.68914       	76.50366       	76.51264       	76.15826       	76.02121       	76.2788        	76.33281       	76.91197       	76.1068        	76.397514      	75.92071       	76.64132       	76.81261       	75.82196       	76.49858       	74.33865       	74.03952       	75.40919       	75.40053       	76.54147       	75.7312        	76.80406       	75.90014       	75.979515      	77.36861       	75.969696      	76.02636       	
76.334         	76.728905      	77.32587       	76.602516      	75.92624       	76.14724       	76.861465      	76.35418       	76.03239       	76.98048       	76.700195      	77.066826      	75.3736        	76.45615       	76.739746      	75.81324       	76.732834      	76.399826      	75.932846      	76.630356      	76.13982       	76.4867        	76.591545      	75.69806       	76.16547       	76.47569       	76.21424       	77.012115      	75.80853       	76.78856       	75.91581       	75.875046      	76.53241       	76.63292       	76.324875      	76.248726      	76.78119       	76.59284       	75.93522       	76.441185      	76.4248        	76.07388       	76.558624      	76.9843        	75.88345       	74.917175      	75.2005        	75.15219       	75.50387       	75.87273       	75.75663       	76.13315       	76.83432       	75.35481       	76.3843        	76.75672       	76.06229       	76.142876      	76.79598       	76.17397       	76.014984      	76.24584       	77.22005       	77.66191       	77.64153       	79.57278       	74.77861       	75.34665       	76.3434        	76.6727        	75.55811       	76.383125      	75.82238       	76.94922       	76.15053       	76.59651       	76.55577       	76.11577       	76.17392       	76.13964       	76.91874       	76.12219       	76.795044      	76.69161       	75.7552        	76.4998        	76.44306       	76.04069       	73.83963       	74.39153       	75.565414      	75.47898       	75.80353       	76.02692       	76.366066      	76.625854      	76.367256      	76.27881       	76.1706        	76.0245        	
76.39847       	76.17991       	76.379715      	77.87609       	77.82927       	74.94063       	76.18778       	76.206894      	76.82558       	76.12165       	76.31591       	76.40131       	77.11025       	76.26932       	77.05093       	76.3411        	75.56088       	76.57523       	75.84632       	77.250626      	75.30637       	76.3249        	76.52237       	76.23485       	76.06759       	76.295494      	77.241844      	76.04853       	76.444         	75.78337       	76.00048       	76.56942       	76.332016      	76.61105       	75.64952       	77.56685       	76.11751       	75.83149       	76.17011       	76.837425      	74.94887       	74.536316      	74.55953       	75.184364      	75.436035      	76.140274      	75.98018       	75.88553       	76.2325        	76.31215       	76.30147       	76.5815        	75.96077       	77.23277       	76.83948       	75.942154      	76.14146       	76.56276       	76.33354       	75.777534      	76.769165      	76.43455       	76.94008       	77.19514       	79.10207       	77.597336      	79.48721       	75.06478       	76.00419       	76.28147       	75.78393       	76.73341       	76.44426       	75.89651       	76.89849       	75.88958       	76.17528       	76.571625      	75.8865        	76.69332       	76.78102       	75.56007       	75.94937       	77.26935       	75.146225      	75.911545      	76.98704       	76.982285      	74.02574       	73.82405       	75.236275      	75.4479        	75.27613       	76.44502       	76.52592       	75.86013       	76.97879       	76.42262       	76.491615      	76.39331       	
76.53538       	76.207405      	76.28007       	77.64092       	77.65356       	76.24048       	75.76882       	76.37219       	76.42651       	76.09987       	76.307594      	76.19608       	76.64997       	76.60459       	76.038826      	76.22779       	76.689514      	76.54952       	76.578926      	75.95828       	76.03187       	76.83665       	76.3003        	76.02956       	76.316315      	76.474304      	76.50983       	76.60994       	76.092316      	76.05719       	76.24903       	76.167366      	76.42909       	77.26748       	75.874275      	76.07284       	75.07587       	74.39457       	75.867134      	76.02246       	75.558         	75.790054      	76.11393       	76.35233       	76.04386       	76.37765       	76.36109       	76.53239       	77.25272       	75.93671       	76.28637       	75.700806      	76.04093       	77.01921       	76.42761       	76.42773       	76.375626      	76.90211       	75.96362       	76.455025      	76.47476       	75.969696      	76.64505       	76.896416      	78.79659       	79.08705       	78.67774       	74.89026       	76.09435       	76.8348        	75.93117       	76.36065       	76.281555      	76.60512       	75.99383       	76.47023       	76.22618       	76.62888       	76.37261       	76.058495      	75.94143       	76.77256       	76.358574      	76.4535        	75.3129        	76.98169       	76.63469       	76.705124      	75.98204       	73.02433       	75.06704       	75.26947       	75.45965       	76.209946      	76.728294      	76.77673       	75.39003       	75.979935      	76.54298       	76.8575        	
76.4191        	76.334595      	76.4603        	76.04545       	76.70692       	76.91171       	75.55144       	76.32839       	76.963524      	75.863075      	76.02746       	76.646034      	75.596535      	76.321945      	76.89333       	77.11723       	76.1081        	75.47701       	76.20589       	76.767494      	75.587296      	76.9439        	75.83456       	76.27063       	76.505714      	76.11296       	76.75309       	76.08311       	76.39857       	76.41138       	76.063034      	75.75083       	77.02742       	74.767296      	74.19373       	75.29087       	76.20659       	75.253586      	76.60638       	75.79757       	76.00186       	76.274124      	76.295494      	75.79848       	77.33012       	76.06269       	76.36222       	77.27661       	75.37679       	77.21591       	76.09102       	76.009964      	76.69388       	75.76952       	76.49481       	76.6882        	76.03845       	75.6379        	76.935074      	76.235016      	76.16641       	76.2593        	76.5813        	76.30495       	77.820816      	80.97237       	78.867935      	75.10165       	76.347534      	76.635124      	76.43047       	75.85737       	76.12709       	76.43014       	77.32649       	75.31981       	76.512314      	76.09817       	76.76085       	75.39163       	75.971535      	76.41031       	76.52443       	75.95704       	76.167305      	76.59506       	76.17755       	76.45966       	76.24862       	74.511795      	74.0975        	75.18824       	75.185234      	75.84802       	76.229095      	76.45902       	76.75759       	76.646965      	75.134766      	76.73581       	
76.36143       	76.6179        	77.871056      	78.62173       	75.88437       	76.04538       	76.05051       	76.07807       	76.622314      	76.3246        	76.75441       	76.26994       	75.75477       	77.19939       	75.8841        	75.848465      	77.59571       	75.693596      	76.12929       	76.24563       	76.26494       	76.38568       	76.81717       	76.2381        	75.71409       	76.632286      	75.822495      	76.74089       	76.064926      	73.831184      	73.30036       	75.00212       	76.13383       	76.16247       	75.66643       	76.26133       	76.62383       	76.241264      	76.17999       	76.290855      	76.23825       	76.55861       	76.473274      	75.84245       	76.960175      	76.6218        	76.73784       	76.867935      	75.57202       	76.13181       	76.620415      	76.72887       	76.54522       	75.67879       	76.28831       	75.84972       	76.456245      	75.593544      	76.79804       	76.732735      	75.83463       	76.6622        	76.69388       	77.023895      	77.34085       	78.00696       	79.26849       	75.4178        	75.98014       	76.155045      	76.71281       	75.52218       	75.78067       	77.26223       	76.32069       	75.34315       	76.56206       	76.36209       	76.96761       	75.43908       	76.349884      	75.98062       	76.95021       	75.269005      	77.002266      	77.000244      	75.89292       	76.244095      	75.878525      	75.12976       	73.47948       	75.08949       	75.21957       	76.08587       	76.36254       	76.57916       	76.05507       	76.75514       	75.759766      	75.90326       	
76.74902       	76.95371       	76.42368       	75.93542       	76.24347       	76.4843        	76.181725      	76.65585       	76.05646       	76.524475      	76.95322       	76.16205       	76.282875      	76.81062       	76.14437       	76.34586       	76.329834      	76.4783        	76.67906       	76.104546      	76.57123       	77.1984        	75.37715       	77.41022       	75.929344      	75.517746      	75.44049       	76.33162       	72.86145       	74.07896       	75.14164       	76.32043       	76.29096       	76.15174       	76.540276      	76.48261       	76.26465       	76.57356       	76.00131       	76.41434       	76.45679       	76.134415      	76.498276      	76.59665       	76.93919       	76.116646      	76.118576      	76.20014       	76.72445       	76.17291       	76.22822       	76.66285       	76.38059       	75.726395      	76.69847       	76.52003       	76.240845      	77.03553       	75.13432       	76.35815       	76.03453       	76.44608       	76.68874       	76.50341       	77.17324       	78.12574       	79.42846       	78.57263       	75.13421       	75.8513        	76.19056       	76.362274      	76.69506       	77.27682       	74.98706       	75.98893       	75.794914      	76.38971       	76.28703       	76.21492       	76.32641       	77.00434       	76.802086      	76.42176       	76.03127       	75.19471       	76.21276       	75.44341       	76.57471       	75.6814        	73.60896       	75.142624      	74.98919       	75.86942       	75.94071       	76.32523       	77.11636       	76.17935       	76.29175       	76.28237       	
76.64692       	76.53923       	76.74264       	76.62041       	76.298004      	76.809105      	76.21288       	76.22883       	76.54626       	76.64759       	76.33243       	76.28718       	75.70804       	76.66596       	76.78334       	77.61167       	74.98509       	77.015045      	75.52628       	76.378334      	76.85568       	75.9474        	76.17884       	75.846245      	75.85812       	77.14675       	76.13155       	71.77611       	74.25523       	75.0142        	76.07873       	76.30406       	76.330536      	76.32317       	76.48258       	76.87637       	76.52311       	76.09903       	77.57989       	74.82145       	76.29326       	76.727844      	75.983376      	75.747086      	75.20472       	76.69419       	76.30165       	75.71377       	76.9355        	76.50428       	77.06811       	75.36439       	76.089966      	76.505066      	75.136314      	76.78398       	77.22086       	75.78135       	75.97938       	75.93808       	77.36225       	76.198326      	76.03974       	75.4708        	77.945625      	77.996864      	79.52755       	78.70631       	75.13688       	75.76071       	76.37628       	75.38465       	76.65651       	76.103355      	76.61663       	76.73111       	75.94225       	76.3234        	76.433136      	76.09501       	76.11708       	76.852295      	75.7521        	76.32679       	76.3692        	76.30801       	76.82144       	75.51054       	75.87009       	77.083244      	72.55384       	75.27703       	75.4195        	75.28236       	75.86959       	76.40916       	76.867805      	76.82088       	75.88063       	76.514656      	
76.37469       	77.11253       	77.154945      	76.448746      	76.636444      	75.74191       	75.96625       	76.300896      	77.0132        	76.23171       	76.133026      	76.25934       	76.773605      	76.03117       	76.62139       	75.645775      	76.587944      	76.73038       	75.80623       	76.33481       	76.38582       	77.388725      	77.193985      	75.992         	75.960976      	75.98879       	75.80666       	73.21011       	75.37026       	75.36372       	75.79133       	76.045746      	76.44929       	76.2765        	76.01132       	76.89671       	76.07027       	76.72764       	77.01471       	75.679726      	76.16831       	76.00457       	77.09292       	75.8102        	75.67893       	76.92338       	76.34759       	76.672485      	76.58854       	76.76773       	74.78422       	76.37991       	77.543526      	75.6291        	75.83714       	76.45862       	77.68452       	75.66563       	75.920906      	75.756035      	76.453514      	76.5643        	76.27111       	76.10775       	76.95738       	78.36656       	79.482666      	78.699814      	75.27812       	75.90342       	76.71052       	75.85454       	76.719635      	75.182884      	76.351295      	76.834015      	75.94366       	76.43639       	75.80718       	76.75295       	76.05784       	76.225945      	76.25925       	76.85701       	76.0139        	76.13249       	77.06722       	75.31725       	76.158424      	76.231316      	73.75644       	74.207535      	75.51257       	75.47088       	75.74401       	76.230064      	76.52161       	76.89989       	76.60742       	76.20831       	
76.27923       	76.5069        	77.9558        	76.47102       	76.02059       	75.853096      	76.81766       	76.76386       	76.270454      	75.88638       	76.81436       	75.983505      	75.90381       	76.6759        	76.79361       	75.87862       	76.22337       	75.49031       	76.56674       	76.00763       	76.42499       	76.08306       	75.71035       	76.52626       	76.716995      	76.47314       	73.99263       	74.36552       	75.484634      	75.32164       	76.13208       	76.61213       	75.94508       	76.67909       	75.888145      	76.85611       	76.55118       	75.955         	76.703316      	75.290596      	76.387436      	76.535446      	76.51975       	76.93704       	76.32135       	76.04183       	76.72885       	76.03854       	76.513306      	76.47832       	76.463165      	76.993286      	75.79142       	75.762344      	76.58718       	76.55032       	76.24445       	76.46778       	75.87951       	76.50917       	76.21033       	76.69435       	75.81339       	76.319786      	76.13927       	77.31092       	79.117165      	80.71908       	75.75506       	75.59561       	76.001366      	76.627914      	76.25092       	76.01196       	76.45325       	76.10018       	77.10967       	75.705246      	76.43465       	76.790016      	75.636894      	76.52656       	76.544716      	76.11513       	76.93486       	75.68013       	75.9731        	76.86925       	75.65766       	76.166         	75.847176      	73.05753       	75.31297       	75.00696       	75.585915      	76.38315       	76.53095       	77.212944      	76.08858       	76.04917       	
76.414734      	77.001366      	77.4691        	75.58447       	76.356255      	76.9556        	76.668976      	76.83679       	76.02445       	76.466324      	76.36819       	76.752304      	75.4829        	76.78569       	76.203316      	76.517746      	76.483986      	75.8103        	76.48522       	76.59183       	76.54956       	76.43152       	75.911804      	77.076836      	75.257385      	76.308754      	75.21011       	73.78825       	75.397385      	75.42634       	75.23837       	76.22467       	76.65741       	76.83808       	75.48189       	76.76916       	76.28624       	76.67526       	76.09266       	76.88071       	75.79415       	76.42421       	76.39228       	76.12307       	76.510826      	76.4263        	76.58916       	76.40723       	76.19518       	77.10325       	75.74603       	76.47116       	76.5587        	76.01544       	76.3215        	76.29164       	76.42919       	76.6055        	76.079475      	76.47598       	76.10785       	76.64996       	76.150185      	77.073074      	75.556114      	77.00321       	78.72995       	79.53081       	77.288956      	75.53428       	75.756516      	76.34669       	76.430595      	75.826744      	76.39589       	76.22259       	76.82319       	76.72248       	75.985855      	76.622536      	76.118004      	75.89661       	77.23468       	75.519646      	76.02516       	77.20843       	76.42383       	75.5775        	77.0011        	75.74782       	75.97027       	73.03407       	75.109955      	75.70399       	75.57986       	76.058754      	77.32685       	76.355965      	75.40531       	76.065384      	
76.36807       	76.735435      	77.00182       	76.811104      	75.9336        	76.47731       	76.59677       	76.16566       	76.635574      	76.29673       	76.52891       	76.50327       	76.4087        	76.252266      	76.4401        	76.41871       	76.1765        	76.45874       	76.17421       	76.915955      	75.94394       	76.92272       	77.54434       	75.17399       	76.452576      	76.50005       	76.245544      	73.72968       	74.09155       	75.4068        	75.3679        	75.94973       	76.60367       	76.26019       	76.62857       	76.19729       	76.62279       	76.277725      	76.95461       	76.27259       	76.730484      	76.18751       	76.966896      	75.59748       	76.400696      	75.91509       	76.61264       	76.42737       	77.15575       	75.74099       	76.569145      	75.83992       	76.27546       	77.621185      	75.40718       	76.2752        	76.10198       	76.676544      	76.11456       	76.99702       	75.49804       	76.77017       	77.54881       	74.82505       	76.37259       	77.413574      	77.859474      	79.57903       	78.541695      	75.92495       	76.61214       	75.347725      	77.21848       	76.03388       	75.94385       	76.35378       	76.2577        	76.22102       	76.62311       	76.23915       	76.64656       	76.13568       	76.166565      	76.50436       	76.74271       	76.330925      	76.467155      	76.389885      	76.29913       	76.64724       	75.46058       	73.728485      	75.00857       	75.19987       	75.19038       	76.06402       	76.38744       	77.15401       	77.17611       	76.114204      	
76.16329       	77.089066      	77.326866      	75.24851       	75.13814       	76.49833       	75.85604       	76.692184      	76.55423       	76.107735      	76.26416       	76.47592       	76.367386      	76.32307       	76.387474      	76.50917       	76.283455      	76.2098        	75.76874       	76.388176      	76.36316       	76.27323       	77.35556       	75.94784       	75.74853       	77.38975       	75.888306      	74.709404      	73.922844      	75.08697       	75.481514      	75.67203       	76.26969       	76.453415      	76.87856       	77.483955      	75.865166      	75.767494      	75.94965       	75.94712       	77.21324       	76.92171       	74.828735      	77.312645      	76.01553       	76.09474       	76.672165      	77.19975       	75.47208       	76.37575       	76.9097        	76.15064       	76.80589       	75.75053       	77.477196      	75.0016        	76.42543       	77.04779       	75.34371       	77.32958       	77.00835       	75.456154      	76.65931       	76.596214      	76.29314       	77.8044        	77.06742       	79.41079       	77.98733       	77.099686      	75.98981       	76.23081       	76.25972       	76.14435       	76.46421       	75.90517       	76.10641       	76.97717       	75.961815      	76.50245       	76.37453       	75.87858       	76.146515      	76.31499       	76.93412       	76.5564        	75.79656       	76.36293       	75.94362       	76.83757       	76.09563       	72.93454       	74.70303       	75.4325        	75.846054      	75.61583       	76.16531       	76.38356       	76.41764       	76.8188        	
76.244415      	77.289276      	78.91079       	79.262634      	80.5966        	76.680725      	76.4243        	75.69568       	76.084305      	76.59172       	76.29576       	76.79882       	75.60268       	76.23066       	76.98131       	76.26477       	75.92824       	76.55612       	75.88892       	76.117455      	76.913605      	76.39188       	76.19365       	76.80109       	77.29617       	76.15694       	75.7189        	74.882805      	73.08792       	75.28116       	75.60846       	75.540504      	76.13928       	76.67655       	76.80221       	76.13781       	76.39442       	76.57914       	75.741356      	76.26661       	75.74136       	77.15169       	76.869644      	76.4077        	75.77179       	75.81624       	76.60125       	76.69363       	76.04757       	75.893295      	76.72253       	75.97651       	76.5183        	76.43277       	75.9284        	76.93953       	76.15881       	76.147484      	75.81176       	76.88636       	75.400604      	77.22824       	75.10311       	77.65364       	75.68909       	77.371956      	76.79488       	78.943         	78.74362       	76.07494       	75.99844       	76.50187       	76.20719       	76.142395      	75.84674       	77.15029       	75.278656      	76.65135       	76.459335      	76.379105      	76.51608       	75.49179       	76.45269       	76.52302       	76.2323        	76.60548       	77.558945      	75.04362       	76.02351       	76.18902       	76.189835      	74.235725      	74.325676      	74.71718       	75.868         	75.83894       	76.26836       	76.95224       	77.73416       	74.77643       	
76.1744        	76.1342        	78.99528       	79.47753       	80.43988       	78.69687       	75.70315       	76.92763       	75.399025      	75.920105      	76.78698       	75.779945      	75.9887        	76.69106       	76.83027       	76.06033       	76.43007       	76.57759       	76.263306      	75.917854      	76.10572       	76.41087       	76.91436       	75.581924      	76.70825       	76.31605       	75.92048       	76.22494       	73.97321       	74.45676       	75.54304       	75.20914       	76.06357       	76.10402       	76.502365      	76.95508       	75.62779       	76.12648       	76.48884       	76.06504       	76.9582        	76.26803       	76.182175      	76.63306       	76.32668       	75.87642       	77.05981       	76.73874       	77.04347       	75.64645       	76.33957       	75.78206       	76.68931       	76.33874       	76.422295      	76.655396      	75.81651       	76.892624      	75.93887       	76.59705       	76.46929       	75.19641       	77.240974      	76.74887       	75.82208       	76.61141       	78.14574       	76.43058       	80.350494      	77.31537       	75.446884      	75.911606      	76.52325       	76.02439       	75.98069       	76.88605       	76.033585      	76.21071       	76.65828       	75.90143       	76.14193       	76.31069       	76.45129       	76.46397       	75.80111       	76.609955      	76.71957       	76.33971       	75.91009       	76.48416       	76.340775      	75.20118       	73.22662       	74.97168       	75.067535      	75.62891       	76.17032       	76.532455      	77.46831       	75.33648       	
76.52987       	77.003365      	77.694984      	78.295166      	80.48049       	80.76619       	74.98376       	76.74403       	75.64923       	77.165504      	76.16988       	75.68921       	76.082535      	75.75624       	76.5049        	77.029015      	77.14112       	75.77027       	75.65918       	76.24637       	76.30803       	76.584854      	76.68624       	75.89895       	76.2141        	76.68421       	76.44194       	77.699104      	72.26227       	74.6192        	75.690155      	76.05739       	74.54057       	76.27556       	76.48368       	77.10548       	75.885086      	76.49049       	77.152664      	75.54437       	75.767235      	77.23458       	76.13977       	76.18127       	76.58853       	76.48972       	76.537704      	76.26671       	75.87847       	76.882935      	76.48381       	76.34838       	75.9624        	76.54316       	76.03          	76.58339       	75.92538       	76.32537       	76.9219        	75.55756       	76.58166       	76.33665       	76.675735      	76.30709       	77.09605       	75.8008        	77.117584      	77.85828       	80.079544      	79.310875      	74.121185      	77.341194      	75.432594      	76.844826      	76.16306       	75.78695       	76.79211       	76.97299       	75.58575       	76.0407        	76.0332        	76.64693       	76.21501       	76.47605       	76.41029       	76.639984      	76.58669       	75.822         	76.38608       	76.635635      	76.131096      	76.35775       	72.7787        	75.12949       	75.433136      	75.570946      	76.24592       	76.40437       	76.19482       	76.373085      	
76.54283       	77.11176       	78.018845      	78.906075      	79.31764       	78.77965       	77.22954       	76.00477       	76.038826      	76.5715        	76.32886       	76.3923        	76.70627       	76.35708       	76.213455      	75.967354      	76.19567       	76.51061       	76.40689       	76.76049       	75.88263       	76.47777       	76.6601        	76.35243       	76.19807       	75.54374       	76.8235        	76.55466       	75.38926       	73.31769       	74.895         	75.48711       	75.54513       	76.21937       	76.69765       	77.07781       	75.599205      	77.05201       	75.83681       	76.50241       	75.85499       	76.45594       	76.98098       	75.7152        	76.69787       	76.525215      	76.42719       	76.51749       	76.71115       	76.369774      	75.87504       	75.959335      	76.630745      	76.02487       	75.96218       	76.74604       	76.727615      	76.09898       	76.343         	76.316666      	77.142525      	75.72923       	76.34994       	76.876335      	75.4631        	76.96877       	76.96705       	76.97343       	80.09334       	79.503685      	75.180756      	76.75252       	76.10309       	76.20596       	76.28766       	76.199455      	76.45138       	76.66174       	76.13369       	76.50076       	76.27299       	76.963646      	76.38341       	75.841324      	76.422386      	76.42484       	76.259415      	75.92284       	76.30815       	76.38217       	76.664604      	76.19731       	73.85695       	74.50997       	75.35756       	75.313065      	75.937126      	76.078476      	77.04052       	75.9933        	
76.39357       	76.8147        	77.76392       	78.82036       	79.5571        	78.112236      	78.26033       	75.38978       	76.8054        	76.30958       	76.28009       	76.57101       	75.4071        	75.921295      	76.77323       	77.9506        	75.45747       	75.74651       	76.15338       	76.632866      	76.390816      	76.98994       	76.26792       	76.05819       	76.18362       	75.749535      	76.32822       	76.36434       	76.29918       	73.307236      	74.78858       	75.453575      	75.62088       	75.713974      	76.7127        	77.08341       	75.98111       	75.81032       	77.349915      	75.660286      	76.26405       	76.68438       	76.45408       	76.57194       	76.06613       	76.06271       	77.00134       	76.01675       	76.7456        	76.49498       	76.62597       	76.20073       	76.35862       	76.90493       	75.75273       	76.786095      	76.170685      	76.45062       	76.33407       	76.07013       	76.30775       	76.50562       	77.01914       	76.122635      	76.57881       	75.63352       	75.99228       	77.40195       	78.968025      	79.722305      	73.97562       	75.40201       	77.538414      	75.42355       	75.77677       	76.98542       	76.11826       	76.5116        	76.20929       	76.157166      	76.59816       	76.60728       	75.804726      	76.43777       	76.54818       	76.56985       	76.46826       	76.321785      	76.35029       	76.33071       	76.23445       	75.8403        	75.57876       	73.331436      	75.475914      	75.58784       	75.55772       	76.23961       	76.35444       	76.75276       	
76.35664       	76.81084       	77.59817       	78.60584       	79.14092       	79.4617        	77.49455       	75.7291        	75.8722        	76.66366       	77.340065      	75.78397       	76.13607       	75.89981       	76.19033       	77.244865      	75.12928       	76.29541       	76.81498       	76.30672       	76.4302        	76.16924       	77.389465      	75.55547       	76.401115      	76.571846      	76.12867       	76.369675      	76.77775       	73.94731       	74.06822       	75.18183       	75.595764      	75.6657        	76.19884       	76.18481       	76.85104       	77.146355      	75.271866      	76.833664      	75.54434       	76.96764       	76.80036       	76.09264       	77.56236       	75.16029       	75.70128       	76.89555       	75.907616      	76.040794      	76.30755       	76.69964       	76.629555      	75.81117       	76.694374      	76.73486       	75.616394      	76.04259       	76.67102       	76.7208        	76.00174       	76.863976      	75.99121       	77.42485       	75.72859       	75.79285       	76.4802        	77.46513       	79.70127       	77.6589        	78.68468       	75.099686      	76.145485      	76.73043       	75.49459       	76.22625       	76.637405      	75.51501       	77.13974       	77.18946       	75.76462       	74.9547        	76.563995      	76.75221       	75.21666       	76.244774      	76.92032       	76.24231       	75.80811       	76.875946      	76.19445       	77.31843       	74.921936      	73.63948       	75.23143       	74.91381       	75.25874       	76.622215      	75.67122       	76.83526       	
76.526306      	76.45465       	77.20717       	78.308945      	77.13222       	79.139984      	80.39729       	75.41274       	76.21785       	75.36526       	77.13721       	77.58747       	75.37177       	76.33731       	75.93707       	76.34831       	76.11804       	76.440254      	76.23457       	77.03885       	77.8263        	75.6606        	75.79954       	75.86813       	76.62328       	76.06331       	76.85342       	76.18545       	76.218575      	75.32046       	73.54064       	75.22272       	75.13123       	75.72525       	76.360725      	76.52954       	76.54539       	76.42046       	76.12754       	76.85362       	75.71008       	75.35616       	77.02052       	76.206314      	75.437904      	77.142654      	76.20724       	75.95139       	77.26258       	76.17221       	75.80936       	76.32034       	76.2355        	76.694756      	76.28251       	76.270035      	76.500465      	76.989876      	75.337105      	77.10991       	75.610374      	76.43618       	76.50035       	76.2835        	76.512314      	75.78833       	75.2974        	77.524506      	78.62427       	79.28198       	79.47682       	75.172714      	76.096596      	76.08628       	76.01495       	76.604485      	76.213486      	76.554214      	75.96623       	76.20473       	76.37032       	76.859856      	75.55005       	76.48489       	76.19938       	76.099815      	77.05402       	75.678825      	76.26932       	76.460045      	75.86037       	76.69784       	75.87615       	72.84384       	75.52089       	74.95994       	75.47176       	76.01175       	76.839676      	76.89666       	
76.249596      	76.599365      	77.37656       	76.97661       	78.02484       	79.65006       	78.9218        	77.305855      	75.95418       	76.0742        	76.35286       	76.22067       	77.04092       	75.451645      	76.68731       	76.14486       	76.20221       	76.3342        	76.42129       	76.45847       	77.068054      	75.20019       	76.795105      	76.57607       	75.52145       	76.407295      	76.45499       	75.60804       	76.4056        	74.86945       	74.393654      	75.26125       	74.64657       	75.83855       	76.55249       	76.80392       	77.179756      	75.304825      	76.56706       	75.831055      	76.40542       	77.43871       	75.99848       	76.24879       	76.31065       	75.42272       	77.31329       	75.55152       	76.26309       	76.78821       	76.699524      	75.91838       	76.60351       	75.82984       	76.50147       	76.23687       	76.07992       	76.87738       	76.13912       	76.41456       	76.556366      	75.972946      	76.71843       	76.435005      	75.51815       	76.942505      	77.56535       	75.5901        	78.1641        	79.64841       	78.14611       	74.8786        	76.03371       	76.62009       	76.03944       	76.757835      	75.835396      	76.68112       	76.02902       	75.93439       	76.73666       	76.60789       	77.25763       	75.14041       	76.2307        	76.22339       	75.53976       	76.52695       	76.79716       	76.459724      	76.31585       	76.02148       	76.6704        	74.02388       	74.01812       	75.37238       	75.46927       	75.9852        	76.342804      	77.35412       	
76.38876       	76.64769       	76.85406       	77.664665      	78.07306       	78.55226       	78.812904      	78.12075       	75.21112       	76.03493       	75.97497       	77.0839        	76.02243       	76.32257       	76.55772       	76.07172       	76.173         	75.97234       	77.59071       	75.428116      	75.807976      	76.58482       	76.03838       	77.288925      	76.89025       	75.76683       	76.01445       	76.13094       	76.27694       	75.403824      	73.456245      	74.95149       	75.51247       	75.65939       	76.20837       	76.35807       	76.96709       	75.96324       	77.30863       	75.67778       	75.676865      	77.000656      	75.25855       	77.15796       	77.01166       	75.60754       	77.70179       	76.52616       	76.71344       	76.18193       	76.02754       	76.467896      	76.14638       	76.06821       	76.672356      	76.4           	77.82026       	75.17156       	76.249466      	77.14417       	75.271645      	76.84142       	76.07297       	76.6822        	75.62355       	77.367584      	75.83278       	76.358765      	77.68928       	79.490654      	79.2306        	76.37446       	75.649994      	75.90253       	76.54627       	76.48891       	75.843124      	76.69875       	76.27696       	76.38889       	76.72282       	76.11199       	75.69761       	76.71821       	76.50438       	76.03445       	76.56382       	76.233604      	75.99978       	76.77718       	76.19143       	76.85092       	75.99263       	74.224815      	73.61849       	75.75744       	76.033875      	76.511314      	75.641815      	75.805855      	
76.368576      	76.67321       	76.66497       	77.29485       	77.624695      	76.78212       	79.80415       	77.3133        	75.22672       	76.41032       	76.322464      	76.461815      	76.21305       	76.410675      	75.920715      	76.53123       	76.388725      	76.01834       	76.26145       	76.998184      	76.62087       	76.1887        	75.47826       	76.74941       	77.03428       	75.43745       	76.318855      	76.28237       	76.3313        	76.48416       	72.84993       	74.74569       	75.71941       	75.37212       	75.888794      	76.53295       	76.87461       	76.50104       	75.84008       	77.54463       	75.7791        	76.662575      	75.26829       	76.363754      	76.767944      	75.327415      	76.417244      	76.44956       	75.84474       	76.68367       	76.58638       	76.10848       	76.29268       	77.01357       	76.06391       	76.69817       	75.86941       	76.8512        	76.12155       	76.09526       	76.482544      	77.06309       	76.12499       	75.81089       	76.22952       	76.62842       	76.19117       	75.960945      	77.49971       	78.50244       	80.26382       	77.524055      	75.07455       	76.14944       	76.53283       	76.70832       	75.57029       	76.15782       	76.69671       	76.07358       	77.100914      	75.60118       	76.60226       	75.969406      	76.21927       	76.68065       	76.54125       	75.7657        	76.976494      	76.10533       	76.07935       	76.63976       	76.23579       	76.23639       	74.99311       	75.09209       	76.22936       	75.83774       	75.86075       	75.70755       	
76.48248       	76.67729       	77.34351       	77.44258       	76.683784      	78.223366      	78.885895      	78.66579       	75.23984       	76.067184      	76.02878       	76.698044      	77.038994      	75.27373       	76.223976      	77.12733       	76.05464       	77.22862       	76.48736       	75.67178       	76.0072        	76.97165       	75.44315       	76.904884      	75.895134      	76.33306       	76.09063       	77.05218       	76.35668       	76.57436       	74.651306      	73.57847       	75.342026      	75.11606       	76.01854       	76.0112        	76.460594      	76.801384      	76.46966       	75.854614      	77.19711       	77.0029        	76.08192       	75.251755      	77.11348       	76.76393       	75.231026      	77.333084      	75.7706        	76.26615       	76.30698       	77.35111       	75.04028       	76.817276      	76.3923        	76.53566       	75.74519       	76.41434       	76.356834      	76.798164      	76.35733       	76.24777       	76.08193       	76.360695      	77.366486      	75.33294       	75.33846       	76.803215      	77.66695       	76.78506       	79.25382       	79.35388       	74.78519       	76.22846       	76.9487        	76.134         	76.36072       	76.04674       	76.51238       	76.693565      	75.632965      	76.23291       	76.72528       	76.05002       	76.662056      	75.94984       	76.711395      	76.459435      	76.34855       	77.7459        	74.724846      	75.99611       	76.63657       	76.47641       	76.23998       	75.62286       	74.55221       	75.25295       	76.6791        	75.70488       	
76.30331       	76.50168       	76.93629       	76.36809       	77.146454      	77.52024       	78.49492       	79.98092       	76.59564       	76.06403       	76.29017       	75.63392       	76.805305      	77.023735      	75.763115      	76.076904      	76.543434      	76.34502       	76.30731       	76.223816      	75.66808       	76.940056      	77.40979       	75.59497       	75.62711       	76.60721       	76.04649       	76.03716       	76.50668       	76.788216      	75.695656      	73.12214       	74.9423        	75.49203       	75.58081       	76.14612       	76.47837       	76.457726      	76.40196       	76.06262       	76.69478       	75.833206      	76.448814      	77.02259       	75.899284      	76.65881       	76.998985      	75.43479       	76.26552       	76.66093       	75.92553       	76.84559       	76.079506      	75.91543       	77.37586       	75.70797       	76.97859       	76.51209       	75.42594       	76.7016        	76.48103       	76.31879       	76.52168       	76.18843       	76.492165      	76.74538       	75.652336      	76.779205      	77.209885      	75.81495       	79.03493       	80.305565      	75.80311       	75.5645        	76.56159       	76.346855      	76.05947       	76.329216      	76.05394       	77.02219       	75.73912       	76.156784      	77.8069        	74.63477       	76.071304      	76.8331        	76.121475      	76.31846       	76.629265      	75.80321       	77.05774       	76.40798       	75.47386       	77.011734      	76.08035       	77.076935      	73.848175      	76.715256      	76.35954       	76.41662       	
76.561325      	76.53313       	76.57495       	76.493256      	76.95797       	77.34905       	78.558266      	79.31778       	78.45602       	75.05228       	76.19504       	76.20913       	76.7622        	76.11254       	76.02791       	76.55865       	76.6087        	75.58026       	76.82951       	76.24256       	76.89472       	75.823944      	76.24123       	76.051674      	76.471405      	75.96441       	77.47931       	75.34728       	76.4329        	76.810814      	76.21536       	73.484505      	74.751396      	75.29383       	75.52331       	76.00782       	76.46696       	76.36852       	76.46623       	76.368065      	77.03633       	76.59089       	75.05296       	77.42425       	75.90606       	75.8522        	75.88998       	76.37599       	77.49512       	75.93013       	75.90482       	76.155685      	76.5173        	75.99628       	77.17606       	75.7145        	76.50978       	76.109215      	76.48691       	76.41513       	76.89731       	75.97979       	76.740166      	76.589096      	76.17654       	75.46146       	76.6986        	76.458466      	76.04462       	77.361435      	79.67332       	79.00851       	78.21661       	75.32686       	76.20798       	75.39487       	76.51447       	76.58924       	76.182755      	76.538284      	76.90275       	75.23541       	76.21253       	77.30555       	75.32064       	76.723656      	75.71656       	76.37476       	76.7059        	76.014404      	76.363884      	77.55554       	75.02727       	76.60271       	76.07205       	76.530846      	76.12067       	76.57344       	76.6289        	75.432785      	
76.524055      	76.64711       	76.69652       	76.76743       	75.25504       	77.633         	77.7176        	80.21824       	77.98944       	75.10223       	76.32121       	76.09571       	76.77387       	75.80048       	76.10335       	76.95818       	75.821945      	76.470665      	75.82135       	76.84601       	75.890724      	77.0105        	75.90416       	76.06387       	76.47313       	77.08298       	75.75961       	76.83576       	76.512054      	76.34397       	76.86275       	73.51628       	74.02524       	75.52402       	75.34691       	75.793         	76.43285       	76.37556       	76.33724       	76.7608        	76.3281        	76.44622       	76.705284      	76.05249       	76.249146      	76.12192       	76.39634       	76.30512       	76.963905      	77.458145      	76.17973       	75.835915      	76.273674      	76.22584       	76.85263       	75.51973       	76.75628       	76.2607        	76.77037       	75.63426       	76.63598       	76.87435       	76.00573       	76.080475      	75.822945      	76.280396      	76.57692       	76.28265       	76.20509       	77.37994       	78.77102       	78.630196      	79.13446       	75.75988       	75.86166       	76.19419       	75.866035      	76.18922       	76.85621       	76.3948        	76.65487       	76.77575       	75.83571       	75.88968       	75.90702       	77.060646      	75.97673       	76.16799       	76.42956       	76.03659       	76.0995        	76.52339       	77.3073        	75.84671       	75.69768       	76.86331       	76.30705       	76.13335       	76.30934       	76.33993       	
76.45397       	76.35871       	76.93436       	76.97381       	77.320496      	77.04418       	77.03741       	78.28161       	79.60012       	75.48872       	75.973885      	76.42014       	76.195244      	76.26193       	76.664955      	75.91007       	76.05032       	76.90769       	75.792         	76.626526      	76.10275       	76.52055       	76.47828       	75.95635       	76.619316      	76.93644       	76.08056       	76.46461       	76.49375       	75.704796      	75.80196       	75.43008       	73.244896      	74.95966       	75.14487       	75.94721       	76.57417       	76.8481        	77.001976      	75.633965      	76.42409       	76.980316      	76.26552       	77.70734       	75.26229       	75.82861       	76.792175      	75.6637        	76.58334       	75.94302       	76.80773       	76.35012       	76.38347       	76.30061       	76.55088       	76.72904       	76.06236       	76.24673       	77.35212       	74.92287       	76.50721       	76.73358       	76.06107       	77.15819       	76.22615       	75.4245        	76.40852       	76.30206       	77.65634       	75.00336       	78.13544       	80.15284       	78.45442       	76.37575       	75.79202       	76.21111       	75.85467       	76.79161       	76.620026      	75.92187       	76.272484      	75.87801       	76.82694       	76.03422       	76.33053       	76.59696       	75.9559        	75.77851       	76.81671       	76.705124      	76.162605      	75.832664      	76.413956      	76.44256       	76.12206       	76.570946      	75.99985       	75.760124      	76.35597       	76.056526      	
76.51092       	76.983154      	77.5767        	77.05978       	75.749         	77.25077       	77.46388       	77.63474       	79.36593       	77.69293       	75.13022       	75.948975      	76.89726       	75.44056       	75.96775       	76.8714        	75.99596       	76.19451       	77.015495      	76.32467       	75.951164      	76.51145       	76.527466      	76.388214      	75.68698       	76.25299       	76.933784      	76.17676       	75.9722        	76.538506      	75.45694       	74.79988       	73.468445      	75.36796       	75.89972       	75.10863       	76.904205      	76.14177       	76.196785      	76.50816       	76.0387        	75.600365      	77.17964       	76.21997       	75.53095       	76.89236       	76.55849       	76.21311       	76.234024      	76.32116       	76.62335       	75.47178       	77.12424       	76.26588       	75.596344      	77.268456      	75.50438       	76.35345       	76.1911        	76.71004       	76.64226       	75.41081       	75.86192       	76.483734      	76.721695      	75.83669       	77.1156        	77.11015       	75.80855       	76.69535       	75.9588        	79.673004      	79.08611       	78.81865       	75.35069       	75.95323       	76.20666       	76.45054       	76.29534       	75.44623       	76.475876      	76.97694       	76.679115      	76.3741        	75.866066      	76.20566       	76.29188       	76.67238       	75.320404      	76.90637       	76.28964       	75.65294       	76.42578       	76.15277       	75.61105       	77.632126      	75.40115       	77.055954      	76.088684      	76.445076      	
76.45036       	76.529045      	77.431725      	76.75057       	75.351204      	76.73684       	77.618515      	78.6666        	78.22769       	78.995125      	75.66997       	76.33293       	75.91313       	76.66244       	76.33314       	75.9387        	76.205956      	77.045074      	76.6179        	76.16058       	76.41285       	75.96088       	76.187294      	76.2547        	76.08584       	76.5044        	76.29964       	76.397606      	76.349754      	75.996284      	76.89641       	74.36264       	73.62771       	75.5624        	75.82294       	75.083145      	76.46284       	76.38692       	76.199814      	76.19743       	76.61471       	75.55104       	76.85711       	75.75819       	77.423065      	75.504845      	76.490135      	76.35598       	76.38918       	76.77747       	75.81372       	76.46267       	76.46077       	75.77077       	76.06167       	76.96364       	75.43775       	76.17485       	76.594444      	77.17715       	75.45043       	76.295204      	76.801796      	76.88805       	75.05109       	76.92315       	76.99187       	76.77702       	75.33219       	76.11735       	76.69433       	77.73071       	78.895515      	80.43305       	75.51863       	75.62932       	76.60639       	75.80062       	76.66939       	76.44382       	75.91529       	76.45541       	77.15176       	75.27347       	76.5482        	76.34721       	76.1145        	76.19114       	76.69836       	76.11571       	76.33195       	76.88042       	75.74529       	76.29115       	75.92888       	77.189354      	76.82401       	76.13856       	76.10474       	75.86864       	
76.52831       	76.91529       	77.13622       	76.694145      	76.536674      	76.08899       	76.98301       	77.912056      	80.580956      	78.59442       	75.60492       	76.1919        	75.82476       	76.12915       	76.5887        	76.591354      	76.341385      	76.06811       	75.89321       	76.7746        	75.68827       	76.63351       	76.57708       	75.305756      	77.153694      	75.99136       	76.597145      	75.932304      	77.07196       	75.639244      	76.87156       	75.63159       	73.17182       	75.41543       	75.4207        	74.40982       	76.46008       	76.72887       	76.61978       	75.87236       	76.22517       	76.05975       	76.52839       	76.4089        	75.72653       	76.67822       	76.47496       	76.29338       	76.27857       	76.493866      	76.81384       	75.31832       	76.03318       	76.88798       	76.75386       	75.999916      	76.232834      	76.39857       	76.31199       	75.949585      	77.7609        	75.85424       	77.43033       	77.613205      	75.35655       	76.63661       	76.15572       	77.59555       	76.23527       	76.003624      	76.92421       	76.839485      	78.00425       	79.20845       	75.45708       	76.33219       	75.948166      	76.14498       	77.20962       	75.35881       	76.58557       	75.97          	76.65254       	76.2579        	76.104385      	76.60681       	76.395805      	75.98711       	76.43867       	76.854546      	76.34234       	75.92647       	75.9245        	76.76465       	76.41893       	76.418594      	76.0342        	76.902565      	76.119194      	76.32166       	
76.32646       	76.8342        	77.67984       	76.96922       	75.835144      	76.5898        	77.487335      	76.94425       	77.88544       	79.07304       	75.24853       	76.17881       	76.399345      	75.70571       	76.84008       	75.63754       	75.78996       	76.70978       	76.03447       	76.1164        	76.479965      	76.93628       	76.50766       	76.12891       	75.68407       	77.20209       	76.09145       	75.54209       	76.09269       	76.81783       	75.821144      	76.65508       	74.36314       	73.47766       	75.717964      	75.511406      	75.64669       	76.26472       	76.657166      	77.10796       	75.60011       	76.23968       	77.07361       	76.2235        	75.89469       	75.761314      	76.15324       	76.86137       	76.33533       	75.81598       	77.109764      	76.091484      	76.05172       	76.70248       	76.18395       	76.53727       	76.42618       	76.27924       	77.08074       	76.11711       	77.14098       	75.71255       	77.15819       	77.46473       	75.76969       	75.79975       	76.0672        	77.26182       	77.87686       	76.09457       	75.876396      	77.400734      	78.11899       	76.68171       	75.94822       	76.1209        	76.10818       	76.3473        	76.64365       	75.99437       	76.130104      	76.71395       	75.77196       	76.50545       	76.34743       	76.33031       	75.9549        	76.69043       	76.65398       	75.91258       	75.99758       	76.70689       	76.259674      	75.27917       	76.0448        	76.59713       	76.457405      	76.17372       	75.5334        	76.79494       	
76.55106       	76.70015       	77.06547       	77.16542       	75.29542       	76.85242       	76.59043       	77.01809       	78.10318       	79.84566       	74.868935      	75.79901       	76.60747       	75.93639       	76.416         	76.45867       	76.21769       	76.45146       	76.466965      	75.996056      	76.259056      	76.66317       	76.32455       	76.366905      	76.45019       	75.68906       	77.05276       	76.032524      	76.518105      	76.41185       	76.01686       	76.616844      	75.28977       	73.4656        	75.43726       	75.276085      	75.413925      	76.29354       	76.72454       	76.58          	76.11123       	76.42811       	76.35296       	75.82422       	76.927574      	76.1414        	75.88284       	76.45666       	75.99771       	76.7511        	76.75504       	77.168655      	75.76601       	77.8138        	75.80691       	75.46029       	77.4218        	75.99016       	77.14426       	76.245575      	77.43359       	75.42834       	76.68991       	76.96112       	77.09151       	77.25125       	76.35031       	77.54813       	76.99149       	76.55045       	76.61002       	76.869804      	75.1968        	76.784775      	75.99391       	76.049255      	75.43842       	77.29058       	75.953926      	76.049164      	75.489815      	76.582756      	76.903625      	77.22699       	75.290726      	75.99907       	76.25963       	76.04168       	76.19757       	76.80486       	75.64573       	76.617386      	76.78896       	76.18092       	76.27652       	76.368744      	77.12387       	75.642746      	76.19425       	76.37949       	
76.37869       	76.18816       	76.71972       	76.910355      	77.11334       	76.250565      	76.102295      	77.112076      	78.886314      	78.22888       	79.72749       	75.17248       	75.896904      	76.43903       	75.98757       	77.304756      	75.552284      	76.501785      	76.26701       	76.83405       	75.829445      	76.04018       	76.41994       	76.21712       	76.88672       	75.78104       	76.39251       	76.243484      	76.30292       	76.60901       	76.05089       	76.76765       	75.4111        	73.31343       	74.889694      	75.61655       	75.28574       	76.16891       	76.236725      	76.37796       	75.90395       	76.716705      	75.6356        	76.03463       	76.59168       	76.75059       	76.94887       	76.35548       	76.39781       	76.50128       	77.24895       	76.22197       	74.967896      	78.03824       	75.43052       	76.92945       	75.82292       	76.896904      	76.91593       	76.29359       	77.51678       	76.144226      	76.721634      	76.42349       	77.15421       	77.82169       	76.208824      	74.75953       	76.667854      	75.71431       	76.85986       	76.810936      	76.161934      	76.52525       	76.3161        	75.20214       	77.21714       	76.68763       	76.0916        	76.14627       	75.9895        	76.80936       	76.83511       	75.22624       	76.89365       	75.403915      	76.19647       	77.15025       	76.12915       	76.31506       	76.49796       	76.418625      	76.438446      	76.27205       	76.19508       	75.68412       	76.69434       	75.95159       	76.28851       	76.45632       	
76.383865      	76.10987       	76.46808       	77.51091       	76.8426        	76.35724       	76.4483        	77.42048       	78.449104      	79.210686      	79.08244       	75.52614       	75.71724       	76.48873       	76.83308       	75.58509       	75.98668       	76.827675      	75.92039       	76.113014      	75.6282        	76.804955      	75.87478       	75.88806       	76.41898       	76.66556       	76.19377       	76.54048       	76.35751       	76.758995      	75.61109       	76.45627       	77.03517       	72.61029       	74.75225       	75.5625        	75.734825      	75.81721       	76.15625       	76.782425      	76.55716       	75.968216      	76.78812       	76.39086       	77.382195      	75.30167       	76.99852       	77.99107       	76.2459        	75.85567       	77.15007       	76.15524       	76.42637       	77.0795        	76.82353       	76.149994      	76.663124      	76.90744       	76.62699       	77.08532       	77.32277       	76.082886      	77.05387       	76.736824      	75.34708       	75.89329       	76.82919       	75.26488       	76.5003        	75.96472       	76.27719       	76.88152       	76.13773       	76.13431       	76.3886        	76.178856      	76.36253       	76.66853       	76.136795      	76.45772       	76.58327       	75.87644       	76.576294      	76.73496       	75.92742       	75.68241       	76.53198       	76.35397       	76.49667       	76.22945       	76.669846      	76.35079       	76.42373       	76.10535       	76.532074      	76.217125      	76.35669       	76.51294       	75.6206        	76.446266      	
76.23128       	76.54539       	77.16665       	76.644966      	76.41294       	77.19728       	75.62899       	77.49749       	77.84379       	79.33453       	78.51102       	75.59021       	75.36685       	76.14857       	76.61764       	76.06025       	76.94141       	76.00217       	76.29905       	76.2427        	76.058365      	76.93526       	76.41011       	76.15066       	76.07238       	76.08526       	76.74017       	76.29081       	76.6053        	76.00849       	76.25506       	76.681496      	76.29257       	75.40658       	73.30798       	75.02494       	75.53721       	75.55658       	76.71906       	76.37307       	76.13306       	77.00149       	75.51036       	77.304184      	76.565704      	75.8927        	76.634995      	77.053215      	76.7156        	76.03616       	77.5286        	76.588326      	75.23205       	77.94649       	78.190765      	76.14693       	76.635475      	76.95058       	75.82146       	76.08429       	76.67204       	75.907845      	76.550095      	76.06973       	76.7427        	76.84321       	76.18737       	75.787346      	76.200386      	76.53842       	76.41613       	76.28645       	75.89409       	76.419334      	76.73937       	76.48529       	76.0731        	76.48564       	76.18787       	76.49106       	76.48477       	76.64323       	76.519135      	76.186874      	76.602356      	76.076584      	76.59345       	76.21747       	76.42546       	77.45384       	75.23026       	74.94326       	77.00907       	76.33884       	76.53613       	76.15842       	76.12272       	76.926         	76.28156       	76.173615      	
76.554375      	76.5618        	76.61064       	77.15056       	76.78813       	75.8437        	76.10916       	76.85214       	77.73364       	78.37074       	79.1747        	75.47818       	76.0942        	76.25734       	75.95228       	77.05886       	75.68159       	76.308014      	76.05346       	76.27675       	76.417625      	76.627785      	77.13305       	75.632454      	76.37004       	76.34312       	76.07258       	77.21536       	75.505585      	75.827034      	76.663506      	76.43854       	76.131714      	75.89039       	73.400604      	76.16641       	76.09001       	75.90362       	76.80777       	75.878555      	76.53116       	75.17863       	76.942924      	76.03397       	77.7998        	75.37235       	77.441315      	76.87705       	76.1756        	77.56415       	77.06469       	76.7845        	77.71812       	76.00155       	76.30191       	75.19024       	76.462776      	76.53353       	76.03484       	76.11171       	76.87433       	76.38978       	76.07404       	76.68882       	76.05511       	75.04785       	77.058136      	76.86934       	75.8656        	76.34785       	75.66122       	76.87346       	76.406204      	76.33406       	77.41139       	75.778984      	77.024605      	74.47592       	77.94409       	75.55002       	76.149124      	75.90328       	76.96749       	75.76348       	76.07396       	76.78232       	76.54702       	75.99885       	76.32869       	76.32722       	76.42741       	75.999214      	76.73586       	76.40817       	76.303246      	76.84419       	75.365524      	76.779495      	75.89926       	76.44743       	
76.39528       	76.7161        	76.69258       	76.48764       	76.21727       	76.521614      	76.30144       	77.540955      	76.90141       	77.77345       	79.88687       	77.45373       	75.07535       	76.12865       	77.03049       	75.99251       	75.60261       	76.864525      	76.478355      	76.2938        	75.89288       	76.65181       	76.69638       	75.74609       	76.11591       	76.59099       	76.49432       	76.09662       	76.353325      	76.32992       	76.77244       	76.185524      	75.9979        	76.96779       	75.627014      	76.12126       	74.13144       	75.8114        	76.914116      	76.07725       	75.84763       	76.043106      	75.97639       	78.807755      	75.7197        	77.36445       	76.27653       	76.474144      	77.55351       	77.541374      	75.48516       	75.96189       	76.429085      	76.113235      	76.24511       	77.388626      	75.22257       	76.072945      	76.73526       	75.65123       	76.5632        	76.65747       	75.514366      	77.20823       	76.05133       	76.24793       	76.329994      	76.12347       	76.99229       	76.55968       	76.34744       	76.07271       	76.448784      	76.865234      	76.57283       	75.138145      	76.77741       	77.441414      	74.91594       	76.80086       	76.61836       	76.04134       	75.7743        	77.19851       	76.312294      	76.09369       	76.53164       	75.659645      	76.21133       	77.20217       	76.03058       	75.85813       	76.473274      	75.747795      	76.79664       	76.74078       	75.233475      	75.99847       	76.62569       	76.06023       	
76.26578       	76.62665       	77.5929        	76.35242       	75.838936      	76.318634      	76.96451       	75.89035       	77.663666      	77.322525      	79.241455      	79.53691       	75.06462       	75.9189        	76.603355      	75.7312        	76.24144       	76.933174      	76.8683        	75.45791       	76.54911       	76.222664      	77.69044       	75.25187       	76.31666       	77.21379       	75.69327       	76.721924      	75.87061       	77.213875      	75.856316      	76.170944      	76.15599       	76.53936       	76.34199       	76.35495       	74.16513       	76.75935       	76.67337       	76.88871       	76.52407       	76.87629       	76.25568       	77.182495      	76.37537       	77.32045       	75.63195       	76.16835       	76.32764       	76.55642       	76.03401       	76.779396      	75.57894       	77.202324      	75.19755       	76.91721       	76.67003       	76.27607       	76.25308       	76.4383        	76.47266       	75.89928       	76.34487       	76.499176      	76.31411       	76.21952       	76.45126       	76.09328       	76.454636      	76.53297       	76.73735       	76.17906       	75.80345       	76.561874      	76.435585      	76.390465      	75.73641       	76.66147       	76.58638       	76.069664      	76.8894        	75.786026      	76.38923       	76.65631       	76.23633       	76.85469       	75.6292        	75.66217       	77.17847       	76.521065      	76.30724       	76.25214       	76.4951        	74.96937       	76.02714       	76.78319       	75.69461       	76.96524       	76.28637       	76.797226      	
76.28826       	76.557724      	76.48751       	76.33708       	76.28664       	76.311935      	76.26805       	77.06956       	76.749435      	77.95718       	78.25743       	78.99106       	76.998474      	75.74424       	76.108154      	76.5375        	76.32826       	76.19037       	76.07047       	76.59762       	76.66249       	75.27169       	76.57921       	76.01605       	76.24695       	76.30934       	77.289505      	75.38011       	76.278305      	76.48872       	77.31402       	75.74843       	76.25413       	76.28214       	76.692406      	75.69426       	76.93812       	76.345406      	76.747925      	75.216095      	76.92906       	76.14067       	76.72714       	75.359085      	76.23104       	76.621475      	76.787636      	76.000404      	76.20164       	76.55018       	76.31016       	76.35194       	76.629295      	76.56969       	76.519516      	75.927414      	76.44679       	76.410576      	76.216385      	76.13103       	76.75858       	76.12212       	76.85028       	76.73443       	75.41628       	76.67152       	76.16575       	76.70357       	75.93166       	76.16233       	75.63093       	77.20544       	75.44201       	77.12305       	76.92556       	75.50592       	76.02815       	75.944824      	77.85046       	75.82411       	76.01437       	76.44347       	76.157196      	76.80783       	76.28938       	75.52056       	77.117256      	76.71537       	75.63388       	76.734856      	76.311325      	76.270775      	76.7854        	76.99645       	75.97303       	75.637344      	76.25461       	76.841354      	75.39606       	76.867836      	
76.406265      	76.30144       	76.69909       	76.785385      	76.40087       	76.47682       	76.55051       	76.469894      	77.22782       	77.715515      	77.52242       	78.8115        	78.0664        	75.21119       	76.62025       	75.656746      	76.56717       	76.62783       	75.947624      	76.624146      	75.81803       	76.66988       	76.44315       	76.424515      	76.27472       	75.78979       	76.863686      	76.46979       	76.10443       	76.46605       	76.50523       	76.285835      	76.91985       	75.96607       	77.105194      	75.89349       	75.957         	75.72857       	76.49147       	75.898796      	76.72089       	76.550705      	76.05165       	76.17461       	76.22407       	76.6509        	76.652306      	75.778404      	76.80883       	76.93466       	75.693825      	76.18395       	76.843636      	75.994         	77.0459        	75.99248       	76.11063       	76.22119       	76.1201        	76.452156      	76.687904      	76.384026      	76.1791        	76.76468       	75.67345       	76.94385       	76.0782        	76.769485      	76.34083       	75.56198       	76.48654       	76.524796      	76.45087       	76.5691        	76.7107        	75.9913        	76.53072       	76.33007       	76.98299       	75.6417        	76.30373       	76.552605      	76.79302       	75.8555        	76.795265      	76.22109       	76.33761       	76.33109       	76.03725       	76.58481       	75.98286       	76.30542       	76.4685        	76.00768       	76.95337       	76.27          	76.06054       	75.75138       	77.718605      	74.57691       	
76.41143       	76.45751       	76.44862       	76.742874      	76.47367       	76.4852        	76.30262       	76.34399       	76.82788       	78.20262       	76.568         	79.87882       	77.455505      	75.15124       	76.28949       	76.29648       	76.63771       	76.4728        	76.23302       	76.20795       	76.30681       	76.54893       	76.81632       	76.06673       	75.685135      	76.38961       	76.61455       	76.35703       	76.45348       	75.87602       	77.052704      	75.8871        	76.4397        	76.45849       	77.08526       	75.455956      	75.985115      	76.80389       	76.41311       	75.908325      	76.061615      	76.58348       	76.25465       	76.25987       	76.162025      	76.44295       	76.77286       	75.8837        	76.48757       	76.3631        	76.748505      	75.984436      	76.47985       	76.02106       	76.40835       	76.43247       	76.275986      	76.22332       	77.20944       	75.78165       	76.311745      	76.65613       	76.07831       	76.61406       	76.319084      	76.48666       	76.76457       	75.913124      	76.53606       	76.47807       	76.02068       	76.45872       	76.52029       	75.89156       	76.8342        	76.20631       	76.744965      	76.98452       	76.00166       	76.32174       	76.134224      	76.362885      	76.60861       	76.18339       	76.434685      	76.21697       	76.426414      	76.32163       	76.12528       	76.71756       	76.702286      	75.67292       	76.43333       	77.171585      	76.38601       	76.37135       	76.036415      	76.31105       	76.14182       	76.45477       	
76.25548       	76.43648       	77.128586      	76.652664      	76.50729       	76.9205        	76.800385      	76.86937       	75.9676        	76.442986      	77.98976       	78.80538       	79.4003        	76.620445      	75.736244      	76.004196      	76.263145      	77.34126       	75.12605       	76.01422       	76.65417       	76.87961       	75.978355      	76.01399       	76.480316      	76.564835      	75.976685      	76.38259       	76.63537       	76.253494      	76.3526        	76.798645      	76.15451       	76.7486        	75.34643       	76.69297       	75.89365       	76.61323       	76.490265      	75.96765       	76.33622       	76.8582        	75.291245      	76.4143        	76.895294      	76.08607       	76.334694      	76.60599       	76.03542       	76.44598       	75.9734        	76.43096       	76.42351       	76.47763       	76.27883       	76.571686      	76.51292       	76.24059       	75.91535       	76.6503        	76.67722       	76.046814      	76.410126      	76.193596      	76.86708       	76.58646       	76.14944       	76.46507       	76.187584      	76.6772        	76.33402       	76.224205      	76.632706      	76.30782       	77.369736      	75.99449       	76.45028       	76.56609       	76.504944      	76.03575       	75.946175      	76.66933       	76.9416        	75.44278       	76.70721       	76.375206      	76.11814       	76.098175      	76.16797       	76.314         	76.46263       	76.18931       	76.276665      	76.60208       	76.6008        	76.78784       	76.05015       	76.734375      	76.20785       	76.68811       	
76.34582       	76.765236      	77.38921       	77.65854       	76.939674      	77.053         	77.19698       	76.324295      	76.26709       	76.25468       	76.6039        	78.79474       	78.14498       	77.460915      	76.143196      	76.351006      	75.94248       	76.49685       	76.32031       	75.93748       	76.39906       	76.25188       	76.29176       	76.456154      	76.20949       	76.37798       	76.23546       	76.66048       	76.23788       	76.4411        	76.26325       	76.61898       	76.39319       	76.27075       	76.5279        	76.02843       	76.55064       	76.32943       	76.38512       	76.45503       	76.23345       	76.551476      	76.54492       	76.31558       	76.217834      	76.325294      	76.654945      	76.295395      	76.43048       	76.429214      	76.3225        	76.37732       	76.3792        	76.34602       	76.332886      	76.61543       	76.575005      	76.10919       	76.58559       	76.067665      	76.42818       	76.309044      	76.392555      	76.89111       	75.94781       	76.62243       	76.313255      	76.39938       	76.35846       	76.3145        	76.65163       	76.277214      	76.32664       	76.29755       	76.69984       	76.52838       	76.44848       	76.47092       	76.60673       	76.07335       	76.54547       	76.82391       	76.117256      	77.08637       	76.0667        	76.705025      	76.05564       	76.26936       	76.33256       	77.81657       	75.39481       	75.79429       	76.66017       	76.0298        	76.49534       	76.31189       	76.424934      	76.46653       	76.293785      	75.852715      	
76.48831       	75.59095       	76.139114      	77.27103       	76.961784      	76.43327       	76.92557       	76.8613        	75.053635      	76.73621       	77.43901       	77.40907       	78.655136      	76.14638       	75.920166      	76.42541       	76.199104      	76.15517       	76.25431       	76.22187       	76.426315      	76.147575      	76.960594      	76.2292        	76.75119       	76.416306      	76.186935      	76.18034       	77.0721        	76.451805      	75.80929       	76.030914      	76.727165      	76.46392       	76.482025      	76.13877       	76.324905      	76.38405       	76.2007        	76.12943       	76.727745      	76.23457       	76.75213       	76.47873       	76.39106       	76.338356      	76.44137       	76.80542       	76.03611       	76.12396       	76.80401       	76.267235      	76.36185       	76.28625       	76.53877       	76.670235      	77.021614      	75.70452       	76.23067       	76.587395      	76.198265      	76.51769       	76.42609       	76.37604       	76.15072       	76.52915       	76.2768        	76.3607        	76.251686      	76.895615      	76.30164       	76.4421        	76.29814       	77.246         	75.66125       	76.886696      	76.460686      	76.148964      	76.50243       	76.33041       	76.27763       	76.39758       	76.50418       	76.56132       	76.6216        	76.25508       	76.39056       	76.22232       	76.34588       	76.781784      	76.26318       	76.23067       	76.05664       	76.35658       	76.66606       	76.60065       	76.32898       	76.60212       	75.86534       	76.09609       	
76.13631       	76.059235      	76.66882       	76.529434      	77.97784       	77.131035      	76.48739       	76.86246       	76.32113       	77.505875      	76.734245      	76.60468       	79.265884      	75.40484       	76.05495       	76.21624       	76.491646      	76.19486       	76.24615       	76.72687       	75.96921       	76.474365      	76.61449       	76.03156       	75.67755       	76.77773       	76.488754      	76.30219       	76.22177       	76.30826       	76.96819       	75.974396      	76.39556       	76.737045      	75.56193       	76.70231       	76.12565       	76.627365      	76.05375       	76.21478       	76.3729        	76.55583       	76.367386      	76.161064      	76.645454      	76.183044      	76.19209       	76.52058       	77.01043       	75.69848       	76.405975      	76.60193       	76.67787       	75.732025      	76.93802       	76.03065       	75.81115       	76.59417       	76.478836      	76.03217       	76.54878       	76.19714       	76.554924      	76.744156      	75.80477       	76.66324       	75.83508       	76.288765      	76.73331       	76.39353       	76.38814       	76.55161       	75.7977        	77.32063       	75.793625      	76.52581       	76.74423       	76.233246      	75.73078       	76.77065       	76.33774       	76.52725       	76.656746      	76.53386       	76.07598       	76.092995      	76.39555       	76.10623       	76.878784      	76.34377       	76.79949       	75.962395      	76.68152       	76.00817       	76.57212       	76.56242       	75.86145       	76.278946      	76.81391       	76.362946      	
76.28115       	76.31916       	76.43119       	76.9403        	76.93036       	77.090675      	76.30659       	77.36004       	77.21743       	77.19767       	77.539444      	76.64643       	75.52043       	76.47591       	75.9869        	76.08552       	76.87381       	75.69772       	76.48211       	76.582825      	76.69127       	76.18221       	76.48553       	75.66071       	76.63689       	76.06898       	76.62787       	76.46062       	76.18869       	76.85744       	75.96443       	76.47154       	76.55483       	76.29305       	76.25079       	75.76401       	76.96221       	75.73087       	77.00771       	76.21126       	75.887665      	76.34984       	76.48404       	76.43254       	76.363976      	76.50817       	76.503136      	76.17103       	76.11731       	76.55031       	76.04334       	76.50677       	76.39989       	76.09873       	76.781715      	76.82373       	75.85855       	75.97811       	76.57202       	76.44202       	76.269135      	76.29115       	76.65005       	76.293625      	75.864426      	76.61393       	76.53923       	76.628876      	75.925064      	76.33027       	76.1109        	77.01285       	75.56317       	76.73085       	76.547165      	76.860794      	75.79897       	76.07371       	77.522385      	75.14615       	76.984856      	76.497215      	76.25559       	76.218155      	76.43666       	76.933464      	75.68097       	76.56195       	76.40637       	75.92354       	76.51021       	76.550674      	76.21971       	76.791954      	75.10689       	76.40363       	76.84529       	75.772545      	75.89928       	76.522736      	
76.67265       	76.57117       	76.842804      	77.72227       	77.21533       	77.45493       	77.36402       	75.97268       	76.17052       	76.09576       	76.305084      	76.32924       	76.04677       	76.76294       	76.49164       	76.48273       	76.07077       	76.66101       	76.4846        	76.14475       	76.69372       	75.95789       	76.45557       	76.36086       	76.63398       	76.07638       	76.8688        	76.75168       	75.52358       	76.7233        	76.18367       	76.705956      	76.05245       	76.80439       	76.46675       	76.03849       	76.538475      	76.05642       	76.13904       	76.816536      	76.05439       	76.18983       	76.56227       	76.720085      	76.344574      	76.47398       	76.21069       	76.43611       	76.341866      	76.759605      	76.22055       	76.53252       	75.55488       	76.72197       	76.55752       	75.84716       	76.936104      	76.03988       	75.6235        	76.9191        	76.65788       	75.85854       	76.4682        	76.21263       	75.8691        	76.36285       	76.63479       	75.52549       	76.798904      	76.44362       	76.14631       	76.62351       	75.93926       	76.963745      	75.85694       	76.266815      	76.66741       	76.50943       	75.7899        	77.01526       	75.94322       	76.29463       	75.97457       	76.345665      	76.735405      	75.92095       	76.55013       	76.31426       	77.32944       	76.08317       	75.84347       	76.11817       	76.60989       	76.19233       	76.620415      	76.80923       	75.524666      	75.955055      	76.38927       	76.33544       	
76.875595      	77.35577       	76.796906      	77.576004      	75.79816       	76.43479       	76.26622       	76.29696       	76.39152       	76.3822        	76.4401        	76.49715       	76.61565       	75.87247       	76.794075      	75.8789        	76.58673       	76.40347       	76.66709       	76.417946      	76.57431       	75.91459       	76.03756       	76.92262       	76.32327       	76.63982       	76.252785      	76.35278       	76.47055       	76.472084      	76.410545      	76.2231        	76.28467       	76.50248       	76.580956      	76.17676       	76.809616      	75.90578       	76.234924      	76.79318       	76.19139       	76.51039       	76.049576      	76.51704       	76.54104       	76.29624       	76.27657       	76.41229       	76.45952       	76.48893       	76.56479       	76.41421       	75.93735       	76.74435       	76.171036      	76.954254      	75.80725       	76.54563       	76.26104       	76.34462       	76.51553       	76.35724       	76.57816       	76.47396       	76.14494       	76.45203       	76.480225      	76.36552       	76.33049       	76.347855      	76.503395      	76.49948       	76.40946       	77.445114      	76.03693       	76.27109       	76.54822       	76.386116      	75.9218        	76.001656      	76.3978        	76.49567       	76.514206      	76.39684       	76.07502       	76.72908       	76.06859       	76.548225      	76.407265      	76.251915      	76.432724      	76.57453       	76.19696       	76.889725      	75.80495       	76.44501       	76.66772       	76.0968        	77.10587       	76.04806       	
76.403336      	76.43675       	76.3393        	76.49163       	76.48115       	77.01528       	75.96971       	76.24111       	76.45769       	77.072914      	77.13302       	75.891525      	76.63471       	76.447945      	76.35664       	76.156456      	76.382835      	76.3381        	76.38947       	76.724625      	75.82779       	76.209946      	77.256905      	75.70701       	76.610695      	75.59844       	76.47088       	76.470375      	76.352104      	76.769135      	75.85428       	77.04795       	75.39134       	76.86204       	76.68139       	75.72854       	76.61881       	76.65873       	75.66826       	76.28994       	76.46092       	76.14748       	76.11757       	75.9377        	76.988976      	76.68749       	76.0558        	76.35602       	75.87082       	76.919586      	76.11587       	76.43102       	76.82317       	76.11449       	76.38732       	76.53835       	76.659225      	76.62112       	75.787895      	76.52807       	75.731346      	76.44691       	76.11232       	76.28873       	76.821075      	75.91909       	76.214874      	76.65153       	76.40321       	76.36351       	76.736946      	76.96186       	76.72469       	75.9279        	75.566795      	76.55948       	76.26197       	76.85112       	76.28855       	75.891624      	76.72956       	75.89579       	76.478676      	76.44603       	76.43869       	76.28794       	76.33224       	76.68064       	75.91407       	76.90956       	75.51949       	76.87811       	75.80429       	76.12438       	77.02712       	75.88623       	76.3953        	76.42411       	76.5992        	76.90042       	
76.365105      	76.40848       	76.08466       	76.65581       	76.78457       	75.58437       	76.664856      	76.531784      	75.893845      	76.8172        	76.51211       	76.03462       	76.00393       	77.01988       	76.0797        	76.2196        	76.6496        	75.54819       	75.88174       	77.01795       	76.052666      	76.23491       	76.12052       	76.72301       	76.50283       	75.97846       	76.23412       	76.596985      	76.06429       	76.55414       	76.221794      	76.41375       	77.35669       	75.16742       	76.615         	76.24501       	76.562614      	76.302925      	76.03192       	76.32944       	76.13938       	76.419044      	76.59973       	76.36048       	76.341324      	76.7998        	75.71022       	76.3694        	77.324905      	77.95885       	76.046394      	76.057556      	76.03125       	76.03208       	76.41915       	76.109146      	76.3971        	76.90879       	76.15201       	76.416         	76.21781       	76.409676      	76.51392       	76.45942       	76.29029       	76.707016      	76.08016       	76.366264      	76.746826      	76.136734      	76.37549       	76.310394      	76.45709       	76.330925      	76.61953       	76.49289       	76.55967       	76.22199       	76.30493       	76.54292       	76.763016      	76.14492       	76.55015       	76.280426      	77.02529       	75.9535        	76.4954        	76.137764      	76.56097       	76.20213       	76.29231       	76.21851       	76.62917       	76.07944       	76.87895       	76.725105      	76.16661       	76.6914        	75.8847        	76.18861       	
76.33675       	76.76782       	76.69031       	76.69262       	76.15193       	76.61794       	77.19811       	76.32547       	75.95399       	76.448         	76.55953       	76.68084       	76.29817       	76.51958       	76.49129       	76.23199       	77.01908       	75.71001       	76.710556      	75.597015      	76.46571       	77.13494       	75.92093       	76.20459       	76.29113       	77.05826       	75.96084       	76.52908       	76.73783       	76.154465      	76.2453        	76.04235       	76.77172       	76.45041       	75.835434      	76.18369       	76.66899       	76.62036       	75.62632       	76.77954       	76.43957       	75.54943       	76.028625      	76.58942       	76.72778       	76.11744       	76.5189        	75.83743       	76.229485      	76.77693       	76.78689       	76.11067       	75.84037       	76.25772       	76.700874      	75.77082       	76.73478       	75.99385       	76.52353       	76.42935       	75.89706       	76.52256       	76.48994       	76.1664        	76.2591        	76.393684      	76.409904      	76.47306       	76.50612       	76.433846      	76.24625       	76.05855       	76.63506       	76.04535       	76.63207       	76.006744      	76.55721       	77.44546       	74.96347       	75.60299       	76.531525      	75.988304      	76.39765       	76.55392       	75.91781       	76.17456       	76.63661       	77.19461       	75.82944       	76.36598       	76.2005        	76.452324      	76.409996      	76.61847       	76.631195      	76.21775       	75.64341       	76.41739       	75.91154       	76.65904       	
76.58027       	76.91892       	76.91039       	76.29656       	76.46886       	75.85701       	76.30982       	76.751335      	76.67447       	76.89203       	75.96842       	76.11663       	76.524734      	76.387535      	76.24126       	76.70108       	75.49011       	76.72786       	76.402885      	76.43309       	76.965775      	75.4973        	75.78373       	76.58605       	76.44585       	76.05723       	76.34107       	76.58957       	76.19282       	76.79854       	75.996994      	76.16888       	76.42978       	76.607735      	76.35419       	76.37425       	75.86949       	76.731804      	75.979256      	76.31462       	76.426674      	76.34667       	76.23739       	76.69615       	76.02036       	76.49191       	76.17062       	76.52361       	76.44637       	76.16919       	76.63385       	76.782524      	76.47317       	76.0983        	76.434715      	76.404236      	76.78909       	76.01196       	76.78001       	75.94044       	76.5355        	75.5695        	76.1101        	76.72302       	75.95687       	76.69995       	76.47246       	76.40367       	76.5183        	76.60318       	76.12736       	76.34409       	76.13918       	76.64496       	76.32646       	76.30798       	76.417336      	76.49902       	76.396324      	76.70343       	75.873276      	76.54132       	76.435905      	76.02453       	77.02023       	75.64951       	76.30595       	75.760475      	76.88727       	76.23161       	75.971306      	76.376526      	76.85606       	75.71608       	76.08309       	76.48953       	76.51296       	76.45724       	75.90735       	76.46335       	
76.5636        	76.63492       	76.654816      	76.440834      	76.61675       	76.34388       	76.17161       	76.36416       	76.28353       	76.8922        	76.55289       	75.80642       	76.42514       	76.38035       	76.51809       	76.603806      	76.63517       	75.9883        	76.75401       	76.03736       	76.18599       	76.42716       	76.77276       	75.894485      	76.84635       	76.20107       	76.60072       	76.14329       	76.882835      	76.352646      	76.03729       	76.29694       	76.70646       	76.28909       	76.91313       	75.8458        	76.70114       	76.22547       	76.05343       	76.68149       	77.01907       	75.424736      	76.19524       	76.5733        	76.103195      	76.79642       	76.84457       	76.09133       	76.38017       	76.024216      	76.828445      	76.3614        	75.59689       	76.37506       	77.36498       	75.692795      	76.63725       	75.66507       	76.57213       	76.31703       	76.62392       	76.3987        	76.233696      	76.52594       	76.57359       	76.61315       	75.99928       	76.66306       	76.554115      	76.28727       	76.09172       	76.51885       	76.9022        	75.77569       	76.49706       	76.6461        	76.08735       	76.95993       	76.13468       	76.30992       	76.52828       	75.94694       	76.38901       	76.22482       	76.07867       	76.7444        	76.66608       	76.07265       	76.65836       	76.15635       	76.69757       	76.062126      	76.01928       	76.421936      	76.80072       	75.90004       	76.395706      	77.01819       	75.933         	76.51106       	
76.33178       	76.80337       	76.91495       	76.457306      	76.39955       	76.22498       	76.4353        	76.21196       	76.46541       	76.21215       	76.175606      	76.95168       	76.23059       	76.462776      	76.76          	76.086044      	76.36927       	76.56446       	76.46993       	76.310005      	76.4711        	76.51028       	76.29016       	76.29296       	76.40938       	76.68585       	76.30565       	76.23268       	76.30278       	76.620834      	76.56561       	76.17134       	76.210495      	76.61038       	76.11233       	76.589775      	76.497635      	76.09437       	76.563675      	76.368546      	76.397         	76.11311       	76.401054      	76.62568       	76.161064      	76.991455      	76.219475      	76.214714      	76.388596      	76.423706      	76.30563       	76.71226       	76.06395       	76.32616       	76.59982       	77.11864       	76.46341       	76.617676      	75.47396       	76.144455      	76.77695       	76.52238       	76.13577       	75.75485       	76.95412       	76.458176      	76.135475      	76.5615        	76.27353       	76.45679       	76.06952       	76.61835       	76.62783       	76.07777       	75.86668       	76.72577       	75.516624      	77.2796        	74.973145      	76.56877       	76.66344       	76.164696      	76.284164      	76.305016      	76.13916       	76.35523       	77.061005      	75.3453        	76.9128        	76.85013       	75.700966      	76.15294       	76.37964       	76.7708        	75.74993       	76.72656       	77.386406      	74.93707       	76.70399       	76.88543       	
76.28735       	76.42687       	76.82366       	76.64605       	76.30906       	76.82471       	76.219505      	76.46344       	76.29705       	76.57921       	76.49599       	75.98449       	76.62835       	76.35346       	76.33209       	76.44243       	76.57925       	76.49371       	76.20954       	76.69767       	76.24792       	76.357796      	76.42555       	76.12621       	76.385735      	76.8955        	76.66754       	76.32107       	76.464355      	76.39506       	76.005875      	76.78626       	76.054115      	76.268074      	76.90794       	75.63983       	76.51856       	76.31406       	76.10466       	76.82403       	75.95117       	76.58969       	76.68208       	75.52461       	76.89695       	76.39607       	76.25071       	76.35024       	76.5908        	76.41443       	76.249245      	76.290794      	76.082954      	76.135574      	76.804596      	75.78844       	76.84587       	76.33286       	75.547485      	77.05766       	76.2337        	76.49133       	76.17653       	76.69577       	76.02052       	76.597786      	76.747246      	76.24497       	76.29271       	75.9552        	76.16151       	76.68266       	76.39111       	76.240715      	76.37196       	76.94646       	75.37411       	77.7451        	75.456406      	76.66047       	75.41228       	76.958046      	76.13415       	76.49277       	75.72053       	76.95522       	76.13111       	75.91282       	77.03073       	76.31952       	75.955345      	76.72051       	77.81532       	75.55911       	75.89795       	76.33163       	76.3905        	76.69778       	76.13381       	77.065384      	
76.46274       	76.23934       	76.48608       	76.66636       	76.6666        	76.56552       	76.03756       	76.601944      	76.63482       	75.92334       	76.496574      	76.89041       	76.00539       	76.64617       	76.77251       	75.988716      	76.38835       	76.39832       	76.46856       	76.65532       	76.28949       	76.552895      	76.348495      	76.44979       	76.378845      	76.21636       	76.38795       	76.43229       	76.241646      	76.912285      	75.86328       	76.5685        	76.76021       	75.85633       	76.56589       	76.45207       	76.60727       	76.44556       	75.96863       	76.46281       	76.55599       	76.35411       	76.265076      	76.398346      	76.54717       	76.21213       	76.83195       	76.46521       	75.930534      	76.75849       	76.316605      	76.25341       	76.334724      	76.428764      	76.54109       	76.23683       	76.50139       	76.6583        	76.19397       	76.85478       	76.033005      	76.58135       	76.28601       	76.34491       	76.22323       	76.5953        	76.09448       	76.600945      	76.5429        	76.43732       	76.253265      	76.615524      	76.235916      	74.33319       	74.868416      	75.93053       	76.93602       	77.079704      	78.16256       	75.41956       	76.244316      	76.186325      	76.19694       	76.3223        	76.211525      	76.871544      	76.519005      	76.55215       	76.306915      	76.27979       	76.51413       	76.26664       	76.41115       	76.07402       	76.53439       	76.26127       	76.475784      	76.52985       	76.27123       	76.52843       	
76.44947       	76.612816      	76.403404      	76.273796      	76.34611       	76.555885      	76.55703       	76.22851       	76.32997       	76.66558       	76.15443       	76.64257       	76.43774       	76.56877       	76.99799       	76.71402       	77.08223       	76.31529       	76.05797       	76.03587       	76.64998       	76.66871       	75.531136      	76.01446       	76.68546       	76.01242       	76.24405       	76.76331       	75.7023        	76.27018       	76.05412       	76.60622       	76.49924       	76.23793       	77.39967       	74.79892       	76.74061       	76.17528       	76.847244      	76.56157       	75.49848       	76.764755      	76.032135      	76.022995      	76.582504      	75.6164        	76.471985      	76.33367       	76.7677        	75.94937       	76.23518       	76.45576       	76.41429       	76.14685       	76.5114        	76.37639       	76.71379       	76.28786       	76.43349       	76.54087       	76.21279       	76.23343       	76.60531       	76.55394       	75.868576      	76.763306      	76.229744      	75.9092        	75.084335      	76.64899       	74.86634       	75.31282       	75.38204       	75.53521       	76.1158        	76.54013       	77.01094       	76.97762       	78.565186      	80.183754      	75.77267       	76.50536       	75.83034       	76.80809       	76.13522       	76.14436       	76.45753       	76.29119       	76.546295      	76.74201       	75.78205       	76.33114       	76.15698       	77.12857       	75.15406       	77.013565      	77.512764      	75.10826       	76.391754      	76.57573       	
76.538376      	76.595535      	76.67392       	76.80137       	77.25888       	76.017685      	76.37822       	75.78305       	76.60559       	76.81907       	76.09889       	75.9918        	76.44372       	75.99327       	76.21838       	76.64619       	76.5258        	75.74429       	76.52607       	76.692635      	76.45047       	75.88783       	76.22213       	75.70376       	76.69639       	76.50493       	76.67315       	76.29878       	76.49229       	76.37297       	76.29314       	76.75009       	76.088715      	76.19929       	75.50912       	76.37783       	76.64471       	77.25857       	75.29844       	77.30307       	75.0723        	77.13331       	75.79074       	76.44975       	76.17143       	76.61026       	76.291176      	76.61694       	76.36596       	75.607834      	76.49422       	76.45017       	76.59898       	76.3332        	76.01128       	76.779625      	76.4402        	76.26147       	76.39466       	76.579605      	77.63471       	75.08672       	76.23801       	76.305824      	76.26831       	75.45329       	73.96172       	74.43643       	75.88766       	76.148476      	75.86643       	76.118484      	76.56923       	76.232025      	76.21294       	76.49745       	76.74423       	76.60757       	78.00512       	81.355804      	76.64041       	76.084816      	76.6174        	76.02543       	76.58525       	76.40183       	76.11994       	76.28018       	76.320404      	76.03624       	76.50423       	76.724724      	76.53355       	75.913216      	76.47258       	76.54786       	76.16547       	76.34386       	76.64289       	76.44971       	
76.427025      	76.531204      	76.39387       	76.4402        	76.543976      	76.26333       	76.25537       	76.619         	76.12517       	76.46347       	76.50372       	76.35771       	76.93766       	76.32655       	75.87494       	76.66748       	76.93079       	76.0882        	75.95371       	76.68669       	77.416885      	75.52532       	76.60795       	76.06847       	76.79344       	76.847305      	75.526375      	76.40695       	76.417854      	76.58328       	76.06686       	76.473976      	76.23028       	76.688896      	75.726974      	76.742935      	76.77538       	75.01143       	76.68274       	76.43901       	75.92616       	77.08289       	75.536224      	75.78263       	76.95479       	75.87382       	76.56702       	75.74485       	76.873795      	76.98331       	75.694824      	76.55388       	76.58577       	75.93665       	76.08923       	76.419205      	76.507286      	76.648605      	75.47851       	76.32486       	75.11009       	75.732544      	76.620964      	75.04563       	75.196976      	75.46606       	76.26522       	75.621735      	76.80324       	76.42065       	76.21346       	76.46942       	76.13331       	75.76883       	76.77841       	76.68182       	75.52442       	77.89477       	76.99007       	79.921524      	78.65323       	75.3489        	76.03517       	76.15355       	75.90425       	76.502045      	76.42879       	76.49361       	75.94548       	76.209015      	76.70743       	75.697075      	76.87563       	76.02696       	76.16973       	76.24122       	76.70631       	76.464836      	76.97608       	75.869576      	
76.3078        	76.7522        	77.126884      	76.43293       	76.06535       	76.61766       	76.61439       	76.20452       	77.07374       	76.5853        	76.27297       	76.6767        	75.76133       	76.086044      	76.79716       	76.00159       	77.42141       	75.80058       	76.10983       	76.43221       	76.33115       	76.28013       	76.51556       	76.45323       	76.36721       	76.20894       	76.63681       	77.37945       	74.95163       	76.472626      	76.37849       	76.91328       	75.926994      	76.78806       	76.1377        	76.76839       	75.59777       	76.1584        	76.454445      	76.56661       	75.99003       	76.30328       	76.4759        	75.901276      	76.6367        	75.465034      	76.510445      	76.429985      	76.871574      	76.1589        	75.72373       	76.41867       	76.95018       	75.76186       	77.37486       	75.09517       	74.96487       	74.73982       	75.36043       	76.45627       	75.450806      	76.01049       	75.97736       	76.058205      	76.23749       	76.889824      	77.42712       	75.47151       	75.900406      	76.75174       	76.57292       	76.45231       	76.32239       	76.44445       	76.03708       	76.11385       	76.78285       	76.377045      	77.33916       	78.937515      	79.1127        	75.66718       	75.682945      	76.49102       	76.15927       	76.11249       	76.2298        	76.41093       	76.36502       	76.71359       	77.13928       	76.22813       	75.72184       	76.09008       	76.49679       	76.252045      	76.61379       	75.6109        	76.31431       	76.55909       	
76.514175      	76.60049       	77.06826       	76.35877       	75.47457       	76.66034       	76.241295      	76.32487       	76.50192       	76.2871        	76.19157       	76.561264      	76.17439       	76.5967        	76.67435       	76.81136       	76.01267       	76.26745       	76.58923       	76.31342       	76.46016       	76.486984      	76.52584       	76.21773       	77.006996      	76.108055      	76.161514      	76.32228       	76.57111       	76.57112       	76.19625       	76.5704        	76.298874      	76.30464       	76.474205      	76.47959       	76.20991       	76.699524      	76.12094       	76.71302       	76.36098       	76.42077       	76.387276      	76.02989       	76.22672       	76.551674      	76.560905      	76.11517       	76.28503       	76.68916       	76.343636      	76.34198       	75.18296       	74.24608       	75.5271        	75.845276      	75.94918       	75.65029       	75.88336       	76.465935      	76.42282       	76.45048       	76.2698        	76.4421        	76.61132       	76.32936       	76.14117       	76.54747       	76.4314        	76.28          	77.30498       	76.262566      	76.190315      	76.016846      	76.832535      	76.54748       	76.09897       	76.39028       	78.2172        	77.87555       	77.45358       	79.469246      	74.82033       	76.48669       	75.87157       	76.21452       	76.06078       	76.97957       	75.77518       	76.38074       	76.38939       	76.613914      	76.50983       	76.36678       	76.337395      	76.409676      	76.20508       	76.32425       	76.909256      	76.35005       	
76.465675      	76.38485       	76.61729       	76.49936       	76.17688       	76.282455      	76.57544       	76.357704      	76.29234       	76.544365      	76.38224       	76.247345      	76.63713       	76.44808       	76.49562       	76.33485       	76.52893       	76.4702        	76.29893       	76.27167       	76.583374      	76.26982       	76.59146       	76.83001       	76.04449       	76.45294       	77.265915      	75.75433       	76.32308       	76.03734       	76.84017       	76.490746      	76.06647       	76.514885      	76.511314      	76.3586        	76.414         	76.423676      	76.34624       	77.00099       	76.58316       	76.37123       	76.36969       	76.08411       	76.06192       	76.01719       	76.635345      	74.455826      	74.87344       	76.424965      	75.688225      	75.08216       	75.75646       	75.95175       	76.19609       	76.01925       	76.81434       	77.191826      	74.97247       	76.82768       	76.224174      	76.407745      	76.49403       	76.22145       	76.10542       	76.83312       	76.00337       	76.22096       	76.75309       	76.28006       	76.66268       	76.59288       	76.36865       	76.16439       	76.436966      	76.79575       	75.8019        	77.34635       	75.43924       	78.80175       	78.74997       	79.50288       	74.714806      	75.83298       	76.689766      	75.991486      	75.739914      	76.45683       	76.70076       	76.258865      	76.07445       	76.715385      	76.385925      	76.76371       	76.33218       	75.86575       	76.43257       	75.90135       	77.03456       	76.02064       	
76.272026      	76.46089       	76.40932       	76.80732       	76.386375      	76.521324      	76.53985       	76.04549       	76.438644      	76.55783       	76.34288       	76.481186      	76.556046      	76.14747       	76.675735      	76.49187       	76.18672       	76.68905       	76.20991       	76.8331        	76.37128       	76.36546       	76.30457       	76.48753       	76.3827        	76.264046      	76.44377       	76.4235        	76.73074       	76.63087       	76.45893       	77.226105      	75.10271       	76.13904       	76.49994       	76.544685      	76.35113       	75.662994      	76.47708       	76.38928       	76.04416       	76.439674      	76.275406      	74.180664      	74.182014      	74.807335      	75.5561        	74.54725       	75.99088       	76.418396      	76.27084       	76.60947       	75.91766       	76.29845       	76.255875      	76.83877       	76.14363       	76.134926      	76.72139       	77.19594       	76.453354      	76.48409       	76.290146      	76.20229       	75.71088       	76.21292       	76.77766       	75.78777       	76.16335       	76.618454      	76.0932        	76.24934       	77.08084       	77.40147       	75.94552       	75.6279        	75.68006       	76.76205       	77.05214       	77.72337       	79.94463       	78.06793       	75.05542       	76.33522       	76.03444       	77.07458       	75.4706        	75.854256      	76.56151       	76.3981        	76.41184       	77.145515      	75.867676      	76.173004      	76.0585        	76.41976       	76.286674      	76.49072       	76.13691       	76.705666      	
76.38556       	76.74443       	76.32008       	76.125885      	76.27784       	76.555916      	76.0874        	76.23601       	76.54513       	76.37597       	76.4823        	76.281296      	76.43692       	76.85754       	76.47865       	76.340195      	76.37617       	76.09041       	76.55941       	76.948364      	76.45408       	76.20772       	76.450676      	76.35788       	76.25795       	76.673004      	76.206055      	77.2272        	75.99642       	76.63448       	76.22186       	76.28127       	76.783485      	77.8531        	75.46202       	75.83534       	76.61396       	75.93235       	76.38454       	76.168976      	77.23055       	75.95326       	73.837975      	73.77918       	74.781395      	75.958115      	76.58698       	75.96821       	76.63583       	76.00362       	76.39444       	76.59703       	76.33159       	76.552055      	76.07962       	76.19176       	76.715576      	76.20538       	76.7001        	75.72466       	76.87028       	76.37802       	76.48759       	76.8568        	75.844284      	76.511055      	76.60878       	76.17884       	76.43722       	76.26212       	76.41036       	76.39872       	76.59464       	76.12442       	76.298874      	76.0188        	77.01593       	76.10578       	77.909195      	76.03997       	80.43293       	78.26082       	75.39005       	76.731186      	75.56432       	76.49403       	76.45419       	76.109924      	76.387794      	76.40482       	75.76827       	77.05222       	76.37504       	75.96396       	76.61776       	76.02854       	76.53971       	76.87783       	76.200806      	75.701324      	
76.253914      	76.55551       	76.74436       	76.66544       	76.434746      	76.78233       	76.0677        	76.34367       	76.277176      	76.36361       	76.64496       	76.0617        	76.7725        	76.77537       	76.849556      	76.29481       	76.513985      	76.42689       	76.117836      	76.83183       	75.87626       	76.536446      	77.12192       	76.203514      	76.010704      	75.92519       	76.297714      	76.49623       	76.111885      	76.16163       	76.68485       	76.339836      	76.44848       	76.21892       	76.529884      	76.517914      	76.71078       	76.12988       	76.38406       	76.24061       	76.188446      	75.152374      	73.02255       	74.83154       	75.35887       	76.24772       	76.8324        	76.6642        	76.39699       	76.61249       	75.76723       	77.03229       	76.58712       	75.89211       	76.20781       	76.74865       	76.017136      	76.14423       	76.73907       	76.069214      	76.57325       	76.47562       	76.33873       	76.69782       	76.37698       	76.46781       	76.73825       	76.216354      	76.04912       	76.239586      	76.46465       	76.3791        	76.35908       	77.508026      	75.670494      	75.83319       	77.36614       	75.73387       	76.12124       	77.76667       	80.27832       	77.89574       	75.609985      	76.04814       	76.3406        	76.4945        	75.80767       	76.42938       	76.572784      	76.09863       	76.14518       	76.59878       	76.06754       	76.48683       	77.00308       	76.19187       	76.04771       	76.24951       	76.3906        	76.11825       	
76.566475      	76.80803       	76.63535       	76.39997       	76.46926       	76.563614      	76.285355      	76.28523       	77.06907       	76.62678       	76.17334       	76.66029       	76.18581       	76.75234       	76.81835       	76.805565      	75.04118       	75.920906      	76.33463       	76.81755       	76.493675      	75.36709       	76.79697       	78.19728       	75.616066      	76.15805       	76.00718       	76.28458       	76.39212       	76.261894      	76.62495       	76.22341       	76.25297       	76.41537       	76.2511        	76.5845        	76.341324      	76.35475       	76.6957        	76.14401       	76.21288       	74.03782       	74.173164      	75.49457       	75.15951       	75.90462       	76.673935      	76.44171       	77.034546      	75.65404       	77.295265      	76.73554       	76.16025       	76.08938       	76.33345       	76.246735      	76.34951       	76.579475      	76.247185      	76.43818       	76.23696       	76.809746      	76.5146        	76.29438       	76.531136      	75.87856       	76.41882       	76.746         	76.55868       	76.27535       	76.71562       	75.091934      	77.39895       	75.69501       	76.05886       	77.03786       	76.21681       	76.25716       	76.86549       	76.837105      	77.63771       	79.75688       	77.71078       	75.63649       	76.31059       	76.60439       	76.59047       	75.670746      	76.90947       	75.67817       	77.17292       	76.113716      	75.475334      	76.08729       	76.73196       	76.08116       	76.58328       	76.45858       	76.823265      	75.80701       	
76.41576       	76.876755      	76.37188       	76.33433       	76.6336        	76.67659       	76.060234      	76.37498       	76.91526       	76.20912       	76.30698       	76.46381       	76.48159       	76.62591       	76.23532       	76.40214       	76.61041       	76.410576      	77.12714       	76.38581       	76.12706       	76.21716       	76.68383       	76.64405       	76.194824      	76.197365      	76.18608       	76.59642       	76.265114      	76.34236       	76.250244      	76.54319       	76.70535       	77.514725      	75.58446       	76.10679       	76.28764       	76.16459       	76.40216       	76.67183       	76.87399       	72.8183        	74.783646      	75.58914       	75.46534       	75.581406      	76.27977       	76.27829       	76.199936      	76.322         	77.15013       	75.905         	76.23764       	76.13004       	76.32841       	76.35343       	76.68694       	75.86269       	76.43604       	76.75982       	75.405815      	75.97754       	76.444145      	76.141754      	77.40309       	75.79826       	76.0747        	76.80529       	75.30202       	77.44909       	75.60905       	76.49921       	76.40012       	75.99904       	77.25355       	74.77678       	76.26276       	76.28327       	76.7042        	76.20533       	79.357765      	78.818016      	79.733154      	74.07043       	76.71072       	76.09998       	76.33791       	75.9935        	75.39031       	76.02719       	76.414154      	77.03888       	75.088806      	77.488144      	74.119354      	76.69153       	78.06034       	74.69864       	75.742615      	76.605576      	
76.37842       	76.76236       	76.5582        	76.21067       	76.47523       	76.41816       	76.0488        	76.43445       	76.96527       	75.85858       	76.4866        	77.12709       	76.45123       	76.28644       	76.08073       	76.93072       	76.32114       	76.65733       	75.86638       	76.237335      	76.690575      	76.637054      	75.980675      	76.451324      	76.54522       	76.40695       	75.18253       	76.78674       	76.2449        	76.058685      	76.482155      	76.41861       	76.40428       	76.54587       	75.47401       	76.89107       	76.19094       	76.35096       	76.56903       	76.45736       	76.41827       	75.61329       	73.362755      	74.99222       	75.13785       	75.69742       	76.60043       	76.003296      	76.54414       	76.55915       	76.42156       	76.173744      	76.29776       	76.82892       	76.445984      	77.09148       	75.41926       	76.17368       	76.80857       	75.68846       	77.69666       	76.57061       	75.942696      	76.06679       	76.041534      	76.42205       	76.524956      	77.142105      	75.22411       	76.45393       	76.56806       	76.72541       	75.85614       	76.19976       	76.08421       	76.33945       	75.905235      	76.81517       	76.00018       	76.32375       	77.22555       	79.752556      	79.65885       	77.01992       	75.939835      	76.23621       	75.72164       	76.69356       	76.20039       	76.11401       	76.40774       	76.33615       	76.36784       	77.158714      	75.43207       	76.33914       	76.68837       	75.92716       	76.6719        	76.009415      	
76.203606      	76.25318       	76.59141       	76.407166      	76.55157       	76.65283       	76.16944       	76.32592       	76.212685      	76.51868       	76.772415      	76.48687       	76.202965      	76.383446      	76.62002       	76.15173       	76.73047       	76.917984      	76.51728       	76.325676      	76.1605        	76.82317       	76.191986      	76.44149       	76.41851       	76.29404       	76.459435      	76.16284       	76.827576      	76.445206      	75.936714      	77.125145      	75.57431       	76.23096       	75.85268       	76.676186      	75.95377       	76.13346       	76.24282       	77.05536       	75.93468       	75.61506       	73.332924      	75.32169       	74.06774       	75.61642       	76.05501       	76.74526       	75.97139       	76.511765      	76.54089       	76.62117       	76.22344       	76.817345      	76.55302       	75.78748       	76.35093       	76.548386      	76.12299       	76.876396      	75.78674       	76.723145      	75.91358       	76.54231       	75.68501       	76.66681       	76.05643       	76.929825      	76.36297       	75.07601       	77.89258       	76.029724      	76.28068       	76.320625      	76.37498       	76.16832       	76.63737       	75.915215      	76.077484      	76.81068       	77.40128       	77.8148        	80.16623       	77.76348       	75.07878       	76.09028       	77.075264      	75.607346      	76.4617        	75.95799       	77.02132       	75.678116      	76.33515       	75.996254      	76.60234       	75.54941       	76.36827       	76.738525      	76.41584       	76.45599       	
76.567406      	76.60654       	76.93404       	76.49609       	75.930626      	76.66388       	76.083466      	76.26226       	76.64223       	76.356606      	76.49885       	76.52025       	76.39882       	76.06113       	74.306404      	76.92773       	77.33819       	76.84027       	76.98052       	75.06556       	76.167915      	75.99061       	76.63316       	76.802986      	76.10821       	76.15174       	77.09943       	75.75694       	76.273605      	76.80494       	75.97301       	76.62876       	76.54525       	76.18206       	76.57871       	77.67632       	75.623505      	75.93901       	76.11967       	76.96165       	75.56511       	75.69894       	73.032196      	75.0937        	75.34562       	75.70183       	75.745575      	77.17199       	76.217415      	76.746574      	75.97451       	76.01167       	76.55644       	76.47638       	75.99956       	76.25001       	76.865944      	75.61228       	76.64426       	76.73091       	75.84193       	76.373505      	75.878784      	77.098816      	76.14633       	76.259964      	76.518745      	76.11772       	76.79626       	75.533745      	76.726685      	77.188545      	77.04573       	75.76914       	75.61154       	76.28133       	76.42332       	76.479706      	76.420456      	76.309105      	77.64284       	79.30934       	78.43612       	76.63117       	74.65493       	77.58009       	75.60669       	75.71096       	76.722275      	76.151535      	76.76439       	75.704124      	76.60515       	76.320595      	76.61132       	76.25647       	76.903946      	76.3251        	75.7354        	77.18516       	
