# www.neaspec.com
# Scan:	 	AFM
# Project:	 	20251007_PS
# Description:	 	
# Date:	 	10/07/2025 15:58:42
# Scanner Center Position (X, Y):	[µm]	49.66	48.17	 
# Rotation:	[°]	0	 	 
# Scan Area (X, Y, Z):	[µm]	5.000	5.000	0.000
# Pixel Area (X, Y, Z):	[px]	100	100	1
# Averaging:	 	1	 	 
# Integration time:	[ms]	5	 	 
# Laser Source:	 	4.5-15 µm nano-FTIR laser
# Detector:	 	R
# Target Wavelength:	[µm]	7.502	 	 
# Demodulation Mode:	 	Fourier
# Tip Frequency:	[Hz]	238,800.109	 	 
# Tip Amplitude:	[mV]	13.000	 	 
# Tapping Amplitude:	[nm]	74.376	 	 
# Modulation Frequency:	[Hz]	0.000	 	 
# Modulation Amplitude:	[mV]	0.000	 	 
# Modulation Offset:	[mV]	0.000	 	 
# Setpoint:	[%]	79.75	 	 
# Regulator (P, I, D):	 	4.206850	8.625812	1.000000
# Tip Potential:	[mV]	0.000	 	 
# M1A Scaling:	[nm/V]	0.426	 	 
# M1A Cantilever Factor:	 	1,000	 	 
# Q-Factor:	 	452.3	 	 
# Version:	 	2.1.11536.0
74.088524      	74.30878       	73.824715      	74.26168       	74.164604      	74.590225      	74.02182       	74.00086       	74.16814       	74.31531       	73.23376       	74.295815      	74.47891       	74.475235      	73.80898       	73.9874        	74.194824      	74.26023       	73.93854       	74.328255      	74.23077       	73.83779       	74.524216      	78.52754       	76.54401       	74.972694      	74.52376       	74.3833        	74.37341       	74.08709       	74.496544      	73.65936       	74.43821       	74.22368       	74.084595      	74.211         	74.26032       	74.01891       	74.25901       	74.2281        	74.20624       	74.089096      	74.167274      	74.05171       	74.382576      	74.65075       	74.08096       	74.295654      	74.17156       	74.301895      	74.37327       	74.3512        	74.392784      	73.93727       	74.270485      	74.88445       	70.06629       	69.067795      	73.97489       	74.12459       	74.29279       	74.19657       	74.28842       	74.10602       	74.088455      	74.271         	74.20518       	74.12039       	74.30906       	74.009995      	74.06186       	74.449394      	74.00957       	74.2666        	74.1036        	74.38192       	73.89528       	73.91772       	74.4179        	74.16348       	74.04665       	74.285355      	74.088295      	74.35096       	74.14958       	73.82166       	74.07127       	81.10664       	74.951225      	74.26209       	74.10982       	74.11373       	74.26544       	74.302414      	74.325806      	74.216934      	74.02986       	73.75418       	74.494415      	74.3435        	
74.19499       	74.244484      	73.97963       	74.20859       	74.36143       	74.14837       	74.130775      	74.30593       	74.02854       	74.21253       	74.20654       	74.17587       	74.03624       	74.26306       	74.22545       	74.026184      	73.86646       	73.63945       	75.64437       	77.5844        	76.37311       	76.449356      	76.45758       	76.43382       	76.20623       	75.04286       	74.82389       	73.55204       	73.03791       	73.862434      	74.325554      	74.52527       	74.19424       	74.50037       	73.913925      	73.61078       	74.60063       	73.65686       	73.66525       	73.369934      	73.75126       	74.34699       	74.18488       	73.411514      	73.231865      	73.613365      	73.93675       	74.129425      	73.77033       	74.315186      	74.116196      	74.22824       	74.184074      	74.5185        	74.447075      	74.23686       	69.911674      	68.65158       	74.39906       	74.15537       	74.26744       	74.094864      	74.13643       	74.229385      	74.00029       	74.57994       	74.21541       	74.13902       	73.73895       	74.0834        	74.306984      	74.178406      	74.0202        	74.24773       	74.45102       	74.55786       	74.24354       	74.218925      	73.96492       	74.31428       	74.39493       	74.4994        	75.046974      	74.38235       	73.16169       	76.65002       	77.32075       	76.94144       	76.53356       	74.793884      	71.78262       	72.98907       	74.492645      	73.89812       	73.26754       	73.616776      	74.498924      	74.87726       	74.98871       	75.098724      	
74.13273       	74.17301       	74.29598       	74.04601       	74.35242       	74.10282       	74.20767       	74.23381       	74.129555      	74.14843       	74.06859       	74.00082       	74.19761       	74.021904      	73.81738       	73.44028       	79.348366      	79.575226      	78.29015       	76.23775       	74.92799       	74.54991       	74.455734      	74.1375        	74.13542       	74.91574       	75.45607       	75.69228       	75.6421        	76.23138       	76.04763       	75.93499       	76.163124      	75.668816      	75.590195      	72.82633       	72.59368       	72.61941       	72.65343       	73.13094       	72.9784        	73.511826      	74.31933       	74.092995      	73.28208       	74.97479       	74.93754       	75.424385      	74.5336        	72.06508       	76.1142        	71.442085      	71.16536       	71.23823       	71.41256       	70.625145      	69.97856       	72.37113       	74.12113       	74.22986       	73.63554       	73.82914       	74.028625      	74.16125       	73.82017       	74.12603       	74.262794      	74.29323       	74.39351       	73.8901        	74.27943       	74.15901       	74.07441       	73.939         	74.20205       	74.263535      	74.18376       	74.49566       	74.09359       	74.68486       	74.71787       	73.171265      	73.657684      	73.45054       	73.846985      	78.87234       	79.02922       	78.73664       	77.97147       	75.831116      	73.27142       	72.25969       	81.63967       	81.963684      	82.09503       	82.204475      	82.35812       	82.76477       	82.41767       	82.02027       	
74.09731       	74.09588       	74.459625      	74.23672       	74.20269       	74.12866       	74.19578       	74.34634       	74.16867       	74.1725        	74.318985      	74.11798       	74.08098       	74.026924      	74.32069       	74.36835       	74.25927       	73.65406       	74.38588       	74.15271       	74.01222       	74.20258       	74.04468       	73.92011       	73.36692       	81.23282       	73.942406      	74.09856       	74.02212       	74.33739       	74.195076      	74.14306       	74.302704      	74.13512       	74.349106      	74.05228       	74.33846       	74.23942       	74.27739       	74.17698       	74.19226       	74.14296       	74.220146      	74.403046      	74.22332       	73.682236      	74.233025      	73.9917        	74.27347       	74.26237       	74.21834       	73.95302       	74.265686      	74.23486       	74.32347       	74.16523       	71.31292       	67.85646       	74.08454       	74.25388       	74.119064      	74.12588       	74.25953       	74.167816      	74.36764       	73.49165       	73.92398       	74.11105       	74.22875       	74.168274      	74.23958       	74.2968        	74.12355       	74.14777       	74.049904      	74.31534       	74.080025      	73.89476       	73.95122       	74.17583       	74.04655       	73.874146      	73.534805      	74.9158        	80.39354       	80.13479       	78.34561       	77.152245      	76.60612       	75.71802       	73.70223       	72.282166      	71.13804       	70.84409       	67.3075        	69.371796      	74.212906      	74.35459       	74.272705      	74.28912       	
74.32219       	74.23947       	74.28721       	74.23136       	74.091736      	74.4009        	74.19775       	74.28545       	74.19043       	74.11217       	74.35668       	74.291176      	74.19239       	74.20458       	74.02811       	74.299         	74.21836       	74.33252       	74.18546       	74.140816      	74.0066        	74.13474       	74.32993       	73.97022       	73.25234       	80.89509       	75.358376      	74.24645       	74.18361       	74.038414      	74.02331       	73.985115      	74.237656      	74.315575      	74.04109       	74.2614        	74.141945      	74.128334      	74.22258       	73.87504       	73.98779       	74.2412        	74.284515      	74.02719       	74.2469        	73.870186      	74.18227       	74.013664      	74.182884      	74.04451       	74.13637       	74.37455       	74.24225       	74.3089        	74.285225      	74.61878       	72.58484       	67.62193       	74.319214      	74.02161       	74.32442       	74.19876       	73.89803       	74.28286       	73.68797       	73.595184      	74.23381       	73.815414      	73.656906      	73.83938       	74.38155       	74.2303        	73.85119       	73.798325      	74.171295      	74.240135      	74.131454      	73.94326       	74.11788       	74.01528       	73.81648       	74.22711       	79.01037       	80.2695        	82.64847       	77.78689       	76.9574        	76.661415      	75.94803       	74.913925      	73.97844       	72.626816      	71.61986       	70.24605       	68.51448       	70.26364       	71.65429       	73.95726       	74.44857       	74.643295      	
74.20089       	74.224304      	74.206764      	74.19385       	74.30038       	74.21032       	74.32605       	74.23379       	74.05879       	74.16298       	74.23253       	74.56669       	74.10052       	74.22605       	74.25361       	74.152885      	74.16913       	74.275185      	74.15391       	74.22834       	74.249954      	74.19263       	74.22827       	74.07024       	73.46704       	79.831245      	76.07173       	74.27992       	74.198906      	74.153625      	74.12559       	73.84143       	74.11227       	74.29313       	74.15018       	74.21729       	74.18992       	74.287766      	73.991554      	74.18489       	74.178444      	74.0151        	74.38351       	74.15036       	73.87379       	73.88506       	74.18159       	74.21658       	74.05536       	74.38137       	74.026886      	74.16894       	74.00789       	74.11768       	74.29048       	74.341354      	71.01357       	66.68277       	74.32147       	74.3049        	74.14551       	74.113625      	74.19538       	74.21827       	74.14372       	74.300156      	74.093575      	74.16585       	74.35345       	74.09933       	74.1676        	74.26363       	74.11346       	74.22023       	74.16896       	74.30219       	74.07201       	74.14834       	73.89287       	73.90381       	73.40282       	79.06693       	79.88508       	81.356514      	80.78003       	78.30485       	76.82823       	75.41042       	75.85284       	74.92586       	73.933365      	72.579216      	71.44167       	69.75816       	67.492355      	68.09817       	70.81197       	68.68366       	73.84629       	75.30895       	
74.1519        	74.20452       	74.15302       	74.37259       	74.181496      	74.24521       	74.26048       	74.23777       	74.2816        	74.23278       	74.2028        	74.26088       	74.17439       	74.256424      	74.293         	74.2345        	74.12626       	74.186714      	74.314926      	74.27147       	74.10699       	74.27716       	73.94023       	74.06239       	73.64143       	79.98725       	76.05893       	73.77151       	74.35335       	74.50519       	73.87753       	73.73741       	73.98492       	74.85651       	73.22528       	73.04836       	75.61453       	73.928635      	73.62597       	74.4135        	72.55138       	74.02677       	75.17661       	73.10002       	72.86386       	73.728226      	73.5887        	75.15739       	70.75761       	75.281494      	69.463005      	74.40104       	70.40711       	74.43571       	74.49478       	71.68917       	71.98868       	74.405426      	74.251495      	74.11024       	74.211105      	74.316154      	74.1964        	74.38369       	74.12623       	74.273224      	74.13746       	74.25634       	74.3212        	74.09191       	74.19656       	74.25521       	74.00576       	74.33468       	74.17151       	74.0387        	74.11369       	73.9854        	73.878555      	73.43028       	77.737144      	79.85139       	81.22439       	80.82664       	79.36676       	78.34386       	76.66774       	74.53631       	74.7772        	75.3326        	74.86422       	72.972984      	70.04254       	66.88227       	71.06234       	72.4814        	60.194912      	72.18006       	74.393745      	74.31051       	
74.31263       	74.13307       	74.23498       	74.304504      	74.1783        	74.31213       	74.25882       	74.25433       	74.276146      	74.237946      	74.14671       	74.34776       	74.2701        	74.15221       	74.29823       	74.155         	74.31994       	74.147675      	74.29492       	74.350845      	74.16745       	74.207924      	74.16819       	74.17642       	74.269135      	74.341385      	74.278244      	74.50535       	74.968254      	73.72278       	73.51091       	73.3977        	72.846924      	74.51889       	73.915955      	74.28843       	74.15905       	74.185326      	74.22712       	74.19787       	74.24712       	74.07992       	74.27996       	74.42317       	74.397995      	73.99129       	74.23486       	74.20056       	74.335754      	74.45344       	74.22861       	74.18964       	74.26734       	74.07899       	74.49765       	74.21741       	74.038185      	74.039665      	74.19711       	74.16921       	74.38038       	74.297195      	74.08433       	74.238625      	74.2655        	74.27845       	74.08608       	74.1216        	74.47658       	74.08708       	74.09394       	74.24001       	74.287285      	74.16096       	74.14836       	74.09102       	74.038864      	73.87897       	74.24133       	76.23034       	77.99317       	82.055885      	82.37416       	80.24167       	79.30578       	78.14436       	74.24871       	72.022934      	73.20132       	75.875145      	75.64802       	73.09948       	69.46738       	66.17356       	70.78708       	72.913345      	72.6001        	73.89306       	74.331         	74.3094        	
74.24753       	74.31193       	74.23201       	74.05923       	74.084564      	74.35477       	74.21143       	74.21537       	74.14597       	74.3836        	74.17278       	74.29056       	74.12709       	74.328636      	74.29473       	74.17028       	74.26101       	74.12431       	74.41086       	74.2345        	74.18906       	74.36871       	74.20941       	74.13708       	74.39258       	74.233505      	74.329865      	74.32975       	74.23307       	74.2591        	74.27094       	73.97479       	74.42217       	74.05541       	74.20885       	74.47618       	74.24816       	74.117424      	74.27767       	74.04189       	74.18599       	74.398544      	74.084236      	74.27092       	74.29829       	74.13481       	74.26335       	74.349014      	74.2039        	74.42018       	74.320305      	74.18402       	74.17718       	74.21339       	74.4228        	74.27325       	73.99863       	74.05092       	74.26397       	74.162506      	74.368515      	74.25876       	74.1603        	74.14645       	74.22625       	74.28383       	74.23096       	74.14937       	74.59019       	73.057625      	73.99558       	74.196434      	74.22149       	74.02443       	74.23803       	74.08666       	74.11626       	73.86473       	74.84782       	77.619705      	78.74601       	83.855736      	82.52638       	81.75074       	78.97955       	77.38451       	72.63456       	68.53278       	72.031         	75.831696      	75.87277       	72.506996      	69.6157        	67.07799       	71.24122       	72.076195      	71.79267       	74.15431       	74.56554       	74.36323       	
74.36263       	74.37886       	74.278824      	74.17786       	74.20311       	74.23689       	74.27298       	74.31793       	74.15135       	74.14513       	74.25281       	74.21252       	74.36428       	74.28229       	74.30944       	74.10383       	74.23655       	74.07656       	74.30871       	74.19429       	74.17512       	74.343285      	74.02277       	74.4165        	74.27841       	74.30988       	74.38151       	74.26794       	74.214355      	74.216194      	74.15027       	74.18684       	74.14672       	74.236824      	74.34429       	74.174965      	74.22213       	74.2196        	74.25834       	74.28469       	74.15564       	74.41796       	74.10663       	74.24244       	74.44763       	74.07052       	74.30663       	74.20452       	74.273224      	74.23643       	74.39165       	74.11708       	74.068634      	74.39158       	74.38132       	74.30212       	74.12443       	74.0333        	74.174515      	74.23903       	74.27959       	74.08641       	74.40255       	74.28561       	74.220604      	74.19121       	74.16552       	74.27688       	74.110054      	74.25835       	74.26669       	74.18643       	74.22728       	74.09245       	74.18753       	74.070496      	74.10899       	73.93784       	73.81803       	77.86268       	78.9132        	84.45139       	83.40866       	81.63608       	78.54433       	76.24869       	69.765114      	70.741714      	72.549095      	75.483215      	75.47466       	72.58448       	70.2359        	67.482666      	70.927895      	72.54152       	71.957085      	74.53288       	74.604805      	74.45117       	
74.21042       	74.31665       	74.12565       	74.193756      	74.34573       	74.23905       	74.119484      	74.30521       	74.29676       	74.135185      	74.317085      	74.108025      	74.381805      	74.21772       	74.19578       	74.16988       	74.328896      	74.30209       	74.14536       	74.354004      	74.21328       	74.35287       	73.993904      	74.29676       	74.15915       	74.50418       	74.416         	74.28875       	74.2461        	74.06807       	74.14007       	74.26855       	74.15136       	74.28583       	74.17311       	74.18556       	74.395065      	74.14247       	74.14879       	74.20349       	74.28062       	74.34609       	74.25073       	74.246925      	74.174965      	74.32326       	74.30375       	74.29611       	74.24538       	73.9701        	74.28601       	74.27456       	74.28713       	74.28213       	74.21168       	74.3728        	74.2664        	74.10216       	74.18884       	74.1335        	74.18895       	74.241646      	74.21831       	74.24754       	74.27319       	74.231705      	74.2447        	74.19846       	74.193184      	74.30149       	74.183784      	74.13966       	74.278404      	74.20229       	74.25904       	74.147736      	74.155754      	74.00084       	73.5139        	74.694115      	78.7742        	80.933975      	83.93964       	82.24414       	77.52371       	75.07406       	73.792496      	72.80559       	73.12814       	75.52047       	74.93751       	72.32493       	70.44428       	69.52324       	70.87152       	71.335175      	70.97794       	74.502594      	74.68633       	74.57191       	
74.15043       	74.344154      	74.32358       	74.17023       	74.07624       	74.28346       	74.36493       	74.16912       	74.250374      	74.11867       	74.3387        	74.300644      	74.14011       	74.35277       	74.13544       	74.19549       	74.21471       	74.37608       	74.17173       	74.22871       	74.34042       	74.145874      	74.30228       	74.27784       	74.14633       	74.331795      	74.452675      	74.31918       	74.28371       	74.027534      	74.3119        	74.24709       	74.08566       	74.25705       	74.21077       	74.17098       	74.3546        	74.32796       	74.21127       	74.2754        	74.27932       	74.14881       	74.20717       	74.2404        	74.30993       	74.31936       	74.14613       	74.35977       	74.13866       	74.26549       	74.209656      	74.172104      	74.32202       	74.233116      	74.16923       	74.43401       	74.22776       	74.130745      	74.0928        	74.283806      	74.16184       	74.37323       	74.184586      	74.10914       	74.336784      	74.23308       	74.208954      	74.26463       	74.191895      	74.16643       	74.19988       	74.19211       	74.26824       	74.34443       	74.2202        	74.070206      	74.11491       	74.18926       	74.03427       	73.70816       	77.76754       	78.98084       	80.442345      	82.010666      	79.45034       	77.032455      	75.27724       	73.79801       	73.63086       	75.13054       	74.64188       	72.114334      	71.30368       	70.67733       	66.15188       	71.651184      	72.568535      	74.52737       	74.67885       	74.51132       	
74.158165      	74.17441       	74.350945      	74.10533       	74.214645      	74.23684       	74.33414       	74.254944      	74.18804       	74.21154       	74.20184       	74.35872       	74.35378       	74.25554       	74.2444        	74.23797       	74.29274       	74.12702       	74.19465       	74.246         	74.29209       	74.29413       	74.129555      	74.22017       	74.391365      	74.30949       	74.3513        	74.43007       	74.04969       	74.18275       	74.19937       	74.26327       	74.22789       	74.25005       	74.1869        	74.20898       	74.489944      	74.30729       	74.14575       	74.31238       	74.15564       	74.04857       	74.39062       	74.149574      	74.19914       	74.37265       	74.332855      	74.00373       	74.256805      	74.17955       	74.30293       	74.23774       	74.21755       	74.34948       	74.3846        	74.17915       	73.97129       	74.29675       	74.284485      	74.203514      	73.942856      	74.14531       	74.59454       	74.172554      	74.27989       	74.14578       	73.9904        	74.320305      	74.29431       	74.34615       	74.28321       	74.05636       	74.43839       	74.260254      	73.8874        	73.77403       	73.892784      	74.21768       	74.32848       	74.06776       	73.98666       	78.21507       	79.5683        	82.92035       	79.68852       	76.44187       	75.71021       	74.31754       	74.117645      	74.97081       	73.77116       	72.14359       	71.38082       	67.48491       	69.47548       	71.18365       	73.29808       	74.54944       	75.305305      	74.46798       	
74.18566       	74.3334        	74.297646      	74.16804       	74.27277       	74.35653       	74.27368       	74.16166       	74.32745       	74.20187       	74.26547       	74.15884       	74.13348       	74.27362       	74.45475       	74.29223       	74.14158       	74.252266      	74.23803       	74.21189       	74.2515        	74.20869       	74.333405      	74.25565       	74.29984       	74.20368       	74.41967       	74.43611       	74.11402       	74.07222       	74.25923       	74.21323       	74.17462       	74.174736      	74.25202       	74.337494      	74.62324       	74.23931       	74.20599       	74.46152       	74.15691       	74.07151       	74.010506      	74.14413       	74.41366       	74.318016      	74.327065      	74.10137       	74.29195       	74.40841       	74.14222       	74.17967       	74.2257        	74.248505      	74.280106      	74.344505      	74.23482       	74.21968       	74.150795      	74.181885      	74.23123       	74.19743       	74.29329       	74.207596      	74.33113       	74.1685        	74.28689       	74.15627       	74.26061       	74.23156       	74.34722       	74.16931       	74.03345       	74.32682       	74.32876       	74.18346       	74.18294       	74.06689       	74.28847       	74.30378       	74.142845      	74.021545      	77.3921        	81.28453       	80.703064      	76.86999       	76.031624      	75.124344      	74.803665      	74.53619       	73.478806      	72.400894      	70.18232       	70.07909       	65.880806      	71.62531       	74.24101       	74.71387       	74.79368       	74.61943       	
74.33179       	74.192696      	74.28581       	74.21695       	74.31916       	74.20979       	74.33913       	74.0829        	74.30298       	74.31983       	74.10786       	74.29832       	74.249565      	74.27166       	74.31976       	74.20798       	74.197655      	74.2883        	74.27292       	74.20211       	74.27867       	74.334625      	74.12823       	74.22946       	74.29267       	74.312836      	74.29362       	74.31438       	74.40443       	74.080925      	74.10275       	74.33208       	74.24633       	74.147125      	74.340965      	74.39615       	74.12148       	74.30311       	74.37366       	74.452545      	74.04077       	74.13301       	74.14364       	74.21219       	74.238716      	74.18284       	74.289474      	74.263466      	74.358635      	74.22905       	74.192955      	74.18062       	74.285965      	74.19732       	74.30534       	74.29217       	74.3453        	74.04896       	74.162025      	74.23182       	74.36517       	74.16471       	74.24136       	74.235954      	74.26611       	74.261246      	74.444084      	74.19408       	74.11893       	74.349014      	74.24147       	74.226         	74.3553        	74.125         	74.34591       	74.06368       	74.22092       	74.31945       	74.093895      	74.3986        	74.406944      	74.03645       	73.79623       	76.28138       	79.19671       	77.346         	77.495285      	76.75502       	75.89897       	75.10992       	73.87171       	72.18102       	69.734146      	66.80573       	71.09289       	74.17942       	74.61521       	74.757065      	74.439186      	74.100975      	
74.15347       	74.29482       	74.18491       	74.30165       	74.22203       	74.23487       	74.309494      	74.12472       	74.36143       	74.236565      	74.19832       	74.17499       	74.229256      	74.21267       	74.34281       	74.29235       	74.247086      	74.22322       	74.216446      	74.14014       	74.246544      	74.36353       	74.24725       	74.311424      	74.23102       	74.245346      	74.531364      	74.33631       	74.20553       	74.24135       	74.062775      	74.18249       	74.2357        	74.20777       	74.26114       	74.22636       	74.42766       	74.19316       	74.213684      	74.26101       	74.13824       	74.4324        	74.16775       	74.31118       	74.07593       	74.184685      	74.50612       	74.20751       	74.29778       	74.01436       	74.300156      	74.40234       	74.3744        	74.255554      	74.06324       	74.17172       	74.477844      	74.08833       	74.28629       	74.11098       	74.22717       	74.22797       	74.347664      	74.2975        	74.29968       	74.14939       	74.08954       	74.44347       	74.30416       	74.21196       	74.203514      	74.146324      	74.45366       	74.22396       	74.3122        	74.01511       	74.17538       	74.41188       	74.23465       	74.39026       	74.324844      	74.01889       	74.25731       	74.39609       	74.16771       	73.94474       	77.077095      	78.67354       	77.25035       	75.62581       	73.74226       	71.17872       	67.35795       	71.99387       	74.1312        	74.25797       	74.445305      	74.76365       	74.52447       	74.38719       	
74.32586       	74.324745      	74.22361       	74.13164       	74.28452       	74.214485      	74.299         	74.22928       	74.338936      	74.289         	74.16192       	74.033966      	74.53373       	74.39898       	74.10561       	74.21683       	74.11412       	74.33013       	74.179985      	74.33741       	74.24065       	74.23437       	74.2758        	74.141846      	74.37585       	74.32373       	74.50204       	74.29145       	74.26893       	74.09931       	74.0651        	74.26148       	74.33555       	74.21698       	74.28719       	74.21017       	74.22116       	74.256836      	74.22678       	74.1298        	74.34474       	74.21205       	74.29914       	74.343864      	74.09994       	74.29378       	74.39711       	74.102264      	74.13223       	74.29746       	74.27592       	74.41634       	74.165016      	74.074234      	74.25725       	74.29157       	74.39835       	74.12753       	74.19016       	74.243454      	74.225075      	74.26762       	74.19864       	74.356636      	74.11133       	74.4665        	74.26449       	74.06897       	74.3674        	74.1861        	74.1849        	74.40852       	74.299644      	74.32662       	74.05742       	74.37252       	74.253265      	74.32405       	74.10146       	74.452354      	74.19024       	74.224556      	74.42712       	73.87794       	74.2446        	74.41336       	74.395424      	74.39684       	74.820244      	75.510574      	73.32062       	73.22707       	74.33249       	74.01101       	74.30149       	74.309814      	74.33007       	74.64062       	74.56564       	74.42986       	
74.23455       	74.18784       	74.37169       	74.06533       	74.174576      	74.34108       	74.32065       	74.30613       	74.20443       	74.28201       	74.322495      	74.29831       	74.21075       	74.19706       	74.20565       	74.33734       	74.24032       	74.180336      	74.44387       	74.10076       	74.214455      	74.313576      	74.33511       	74.19971       	74.225876      	74.3916        	74.42869       	74.29112       	74.34516       	74.08136       	74.030716      	74.26008       	74.37981       	74.123116      	74.218094      	74.287415      	74.255005      	74.299034      	74.197         	74.220184      	74.35243       	74.2276        	74.25137       	74.21667       	74.21936       	74.25285       	74.24614       	74.3146        	74.28444       	74.2617        	74.11341       	74.26759       	74.471634      	74.11938       	74.197556      	74.210976      	74.40385       	74.122185      	74.39409       	74.0874        	74.101456      	74.39196       	74.376816      	74.00656       	74.3741        	74.27008       	74.213745      	74.236305      	74.36889       	74.26481       	74.045265      	74.28952       	74.21463       	74.32406       	74.28393       	74.33017       	74.20394       	74.26713       	74.36624       	74.34949       	74.27572       	73.97704       	74.52322       	74.259964      	74.21418       	74.39426       	74.355865      	74.06526       	74.65235       	74.41512       	74.065414      	74.146835      	74.20385       	74.20491       	74.199585      	74.42548       	74.49108       	74.9563        	74.425224      	74.38534       	
74.21185       	74.387886      	74.22127       	74.195305      	74.2153        	74.31784       	74.24172       	74.223274      	74.14401       	74.179146      	74.47564       	74.23204       	74.09284       	74.31577       	74.15248       	74.35167       	74.24697       	74.09908       	74.331474      	74.11251       	74.29349       	74.312546      	74.32168       	74.23269       	74.11251       	74.374306      	74.47073       	74.33517       	74.1944        	74.2183        	74.13473       	74.19919       	74.32407       	74.1208        	74.33802       	74.149345      	74.26802       	74.34157       	74.25911       	74.2877        	74.214485      	74.19626       	74.18515       	74.296555      	74.29796       	74.066795      	74.380806      	74.188866      	74.388794      	74.267525      	74.209595      	74.21925       	74.39182       	74.28188       	74.05998       	74.16087       	74.3555        	74.0726        	74.26397       	74.15075       	74.31318       	74.27565       	74.24791       	74.20129       	74.18423       	74.29739       	74.27996       	74.26231       	74.274704      	74.20032       	74.330734      	74.26969       	74.246124      	74.352         	74.302246      	74.26162       	74.15428       	74.2715        	74.44109       	74.240295      	74.30496       	74.01748       	74.47634       	74.30006       	74.2792        	74.25161       	74.33054       	74.26619       	74.49337       	74.242516      	74.05762       	74.14748       	74.38168       	74.20221       	74.01064       	74.38559       	74.53944       	74.64644       	74.621185      	74.38716       	
74.21861       	74.28248       	74.288         	74.27989       	74.29818       	74.24234       	74.2852        	74.22231       	74.19904       	74.233635      	74.209206      	74.4156        	74.14025       	74.021835      	74.38293       	74.318504      	74.22972       	74.27303       	74.30119       	74.25227       	74.302635      	74.03993       	74.349045      	74.18078       	74.2615        	74.38883       	74.46702       	74.34604       	74.14076       	74.18056       	74.27264       	74.16042       	74.234695      	74.15885       	74.24662       	74.18946       	74.300674      	74.40533       	74.24764       	74.126854      	74.24879       	74.39498       	74.29842       	74.229965      	74.25738       	74.298744      	74.305275      	74.10522       	74.270485      	74.32696       	74.10789       	74.41141       	74.24835       	74.162025      	74.43021       	74.04551       	74.324005      	74.27523       	74.12312       	74.15823       	74.38024       	74.10963       	74.19313       	74.301384      	74.20972       	74.23621       	74.245766      	74.28683       	74.109024      	74.290695      	74.19298       	74.381584      	74.12215       	74.37303       	74.43325       	74.08587       	74.27022       	74.454865      	74.27342       	74.19207       	74.09196       	74.39495       	74.19805       	74.26401       	74.287766      	74.28756       	74.24731       	74.26783       	74.35448       	74.56829       	74.03249       	74.1428        	74.20191       	74.33056       	74.09875       	74.38219       	74.5682        	74.80573       	74.477196      	74.34358       	
74.30647       	74.21096       	74.16627       	74.24271       	74.48363       	74.11792       	74.217514      	74.38017       	74.13382       	74.38388       	74.27705       	74.146034      	74.16786       	74.390434      	74.119644      	74.1365        	74.30483       	74.307785      	74.38012       	74.259766      	74.13198       	74.20592       	74.22295       	74.19932       	74.19788       	74.485794      	74.38309       	74.165565      	74.16927       	74.284515      	74.20959       	74.18765       	74.34019       	74.230446      	74.23198       	74.2082        	74.35195       	74.40363       	74.00499       	74.28722       	74.319374      	74.11479       	74.20587       	74.34273       	74.274734      	74.2079        	74.37233       	73.9806        	74.3579        	74.41486       	74.07027       	74.25463       	74.27443       	74.25803       	74.27451       	74.21488       	74.346176      	74.062195      	74.16401       	74.318985      	74.14825       	74.276855      	74.225296      	74.32817       	74.41311       	74.18564       	74.33043       	74.18263       	74.02596       	74.51098       	74.14327       	74.41795       	74.15963       	74.12193       	74.46656       	74.174835      	74.23341       	74.35214       	74.34661       	74.33744       	74.07345       	74.25908       	74.314674      	74.299706      	74.17436       	74.27908       	74.37138       	74.25636       	74.33347       	74.25795       	74.21234       	74.36716       	74.15905       	74.385956      	74.35593       	74.25938       	74.15961       	74.65358       	74.786224      	74.611336      	
74.23184       	74.086426      	74.25712       	74.37897       	74.10256       	74.3676        	74.11925       	74.217064      	74.32614       	74.34032       	74.358894      	73.97796       	74.173325      	74.40483       	74.283585      	74.26783       	74.18802       	74.323555      	74.28292       	74.19572       	74.15729       	74.30306       	74.23525       	74.219215      	74.211525      	74.381805      	74.37945       	74.17348       	74.18201       	74.40878       	74.30822       	74.12247       	74.22065       	74.224174      	74.26891       	74.266426      	74.20421       	74.2533        	74.29937       	74.31464       	74.35023       	74.37996       	74.02057       	74.1047        	74.18608       	74.34996       	74.26148       	74.255615      	74.22502       	74.21843       	74.23753       	74.27456       	74.22271       	74.28494       	74.212326      	74.22494       	74.28963       	74.186066      	74.24962       	74.20099       	74.38615       	74.15577       	74.16026       	74.24374       	74.36523       	74.205         	74.14886       	74.37035       	74.28869       	74.20324       	74.331375      	74.14381       	74.30478       	74.2033        	74.236336      	74.35312       	74.22454       	74.1793        	74.42321       	74.33197       	74.23182       	74.22433       	74.29431       	74.315796      	74.39584       	74.00529       	74.31703       	74.33117       	74.386566      	74.1219        	74.44551       	74.123566      	74.356445      	74.28519       	74.5396        	74.24466       	74.10758       	74.74068       	74.84511       	74.66892       	
74.14371       	74.30532       	74.08298       	74.24818       	74.37687       	74.08124       	74.320625      	74.27247       	74.28644       	74.09023       	74.27165       	74.37126       	74.08892       	74.32759       	74.20578       	74.19231       	74.35865       	74.18006       	74.328384      	74.35813       	74.09942       	74.25735       	74.3131        	74.22686       	74.23319       	74.25152       	74.44206       	74.26865       	74.177414      	74.31347       	74.20779       	74.380745      	74.27986       	74.17632       	74.24399       	74.281494      	74.10556       	74.21058       	74.464966      	74.45386       	73.99086       	74.4775        	74.0542        	74.16065       	74.22615       	74.35072       	74.15995       	74.17646       	74.20869       	74.33989       	74.15673       	74.28946       	74.280396      	74.27889       	74.27683       	74.303154      	74.38507       	74.02074       	74.106804      	74.18767       	74.33257       	74.37407       	74.12545       	74.20834       	74.35037       	74.162605      	74.1705        	74.25835       	74.28618       	74.42978       	74.1284        	74.29633       	74.24772       	74.31598       	74.13376       	74.36902       	74.162415      	74.29576       	74.2734        	74.24989       	74.27857       	74.338264      	74.20089       	74.343765      	74.53654       	74.12187       	74.175125      	74.36435       	74.46494       	74.40459       	74.15764       	74.14966       	74.19826       	74.25955       	74.34574       	74.40721       	74.27228       	74.215744      	74.706245      	74.54811       	
74.18595       	74.46013       	74.07108       	74.16123       	74.44399       	74.22963       	74.2875        	74.276405      	74.0878        	74.07729       	74.46889       	74.35533       	74.34374       	74.18046       	74.01508       	74.16712       	74.41341       	74.24772       	74.29202       	74.23423       	74.14228       	74.28549       	74.28637       	74.171326      	74.29006       	74.29831       	74.40372       	74.242714      	74.01556       	74.342186      	74.31409       	74.2531        	74.33506       	74.17747       	74.310326      	74.398926      	74.167915      	74.47906       	74.18403       	74.21113       	74.19581       	74.33756       	74.12395       	73.930336      	74.338         	74.3827        	74.16386       	74.35226       	74.21004       	74.17043       	74.30378       	74.04413       	74.44088       	74.24463       	74.43242       	74.36346       	74.14863       	73.9818        	74.26147       	74.198265      	74.15371       	74.205765      	74.35809       	74.3763        	74.14402       	74.32172       	74.0804        	74.29638       	74.25827       	74.26588       	74.23036       	74.1319        	74.34788       	74.17596       	74.46921       	74.297485      	74.10381       	74.5679        	74.001495      	74.32839       	74.22922       	74.31825       	74.255295      	74.23136       	74.40198       	74.20092       	74.24639       	74.30679       	74.54814       	74.33295       	73.816696      	74.33976       	74.27264       	74.339355      	74.50357       	74.03735       	74.14414       	74.29136       	74.503265      	74.54308       	
74.17714       	74.27827       	74.15902       	74.16408       	74.24154       	74.42733       	74.203445      	74.10916       	74.18672       	74.184364      	74.371445      	74.30027       	74.388466      	74.121796      	74.1406        	74.23358       	74.31049       	74.191055      	74.26512       	74.25111       	74.33818       	74.230736      	74.01286       	74.35582       	74.24755       	74.41976       	74.34551       	74.23975       	74.014015      	74.4456        	74.30893       	74.177895      	74.211555      	74.16882       	74.214645      	74.519806      	74.10169       	74.543625      	74.14913       	74.00913       	74.30087       	74.393654      	74.36401       	74.05714       	74.121025      	74.44009       	74.10501       	74.34738       	74.105774      	74.22843       	74.23354       	74.34195       	74.15565       	74.23358       	74.45538       	74.410355      	74.26465       	73.885284      	74.184456      	74.311424      	74.22925       	74.210815      	74.25373       	74.06215       	74.36352       	74.31142       	74.36642       	74.279335      	74.196754      	74.243996      	74.20312       	74.16224       	74.49679       	74.158066      	74.267525      	74.22659       	74.34897       	74.48273       	74.08679       	74.1103        	74.228386      	74.21711       	74.41169       	74.16011       	74.18541       	74.358025      	74.35129       	74.27333       	74.50846       	74.33825       	74.13314       	74.142685      	74.23221       	74.23198       	74.310715      	74.23461       	74.355965      	74.40504       	74.67378       	74.38338       	
74.13732       	74.28921       	74.268776      	74.3045        	74.1684        	74.321465      	74.303         	74.11357       	74.26443       	74.30321       	74.29796       	74.18148       	74.34797       	74.22913       	74.314644      	74.09723       	74.24053       	74.42269       	74.173485      	74.25147       	74.11701       	74.32569       	74.11031       	74.249146      	74.37298       	74.322266      	74.47703       	74.09162       	74.25624       	74.11853       	74.24992       	74.302216      	74.32206       	73.9815        	74.60362       	74.181114      	74.08779       	74.42776       	74.40014       	74.227         	74.214424      	74.17353       	74.237656      	74.15105       	74.178         	74.245384      	74.28319       	74.284874      	74.10889       	74.27433       	74.2264        	74.26858       	74.249245      	74.43422       	74.31495       	74.236046      	74.08886       	74.17865       	74.10475       	74.233955      	74.206924      	74.40803       	74.33282       	74.06359       	74.33615       	74.31526       	74.214195      	74.39431       	74.21077       	74.196724      	74.255264      	74.225876      	74.30393       	74.16201       	74.33713       	74.066284      	74.34959       	74.21898       	74.17882       	74.35406       	74.440025      	74.02502       	74.300964      	74.44262       	74.10837       	74.25515       	74.423676      	74.39636       	74.481094      	74.16994       	74.06596       	74.20035       	74.3105        	74.35727       	74.29489       	74.284454      	74.42118       	74.59116       	74.48213       	74.475174      	
74.14869       	74.34843       	74.18398       	74.174355      	74.40307       	73.979675      	74.50376       	74.18718       	74.19774       	74.381035      	74.17649       	74.28713       	74.3532        	74.33409       	74.31336       	74.031075      	74.41809       	74.1536        	74.29085       	74.294716      	74.245224      	74.16122       	74.25983       	74.33896       	74.15918       	74.30496       	74.503586      	74.43582       	74.12418       	73.97889       	74.23578       	74.10783       	74.36383       	74.35179       	74.37285       	74.06029       	74.15461       	74.49728       	74.30494       	74.14769       	74.330414      	74.11545       	74.34413       	74.32147       	73.91088       	74.20647       	74.22924       	74.325714      	74.12109       	74.41594       	74.07398       	74.39432       	74.171104      	74.39772       	74.35215       	74.13795       	74.10203       	74.16115       	74.34409       	74.260956      	74.15871       	74.48873       	74.14478       	74.0299        	74.25755       	74.20172       	74.331406      	74.37822       	74.132416      	74.20918       	74.38292       	74.31598       	74.23248       	74.24196       	74.34674       	74.214066      	74.27478       	74.29004       	74.152084      	74.42868       	74.05137       	74.24073       	74.30435       	74.33128       	74.19781       	74.228806      	74.39638       	74.40661       	74.29201       	74.27708       	74.06967       	74.19289       	74.71589       	74.12616       	74.14446       	74.31956       	74.21866       	74.42907       	74.58909       	74.526306      	
74.01267       	74.25146       	74.27197       	74.092834      	74.37947       	74.16114       	74.29707       	74.18709       	74.27229       	74.251595      	74.287186      	74.385826      	74.124405      	74.19112       	74.245964      	74.29816       	74.26933       	74.16099       	74.269714      	74.21995       	74.165115      	74.42594       	74.1932        	74.11677       	74.29478       	74.19029       	74.64061       	74.36856       	74.17317       	74.08195       	74.20577       	74.26319       	74.03998       	74.33275       	74.22452       	74.216896      	74.273926      	74.216095      	74.4648        	74.34197       	74.15283       	74.12877       	74.26793       	74.25173       	74.31764       	74.15892       	74.090034      	74.33444       	74.33565       	74.20509       	74.17586       	74.317085      	74.263664      	74.24591       	74.34428       	74.207985      	74.32799       	74.28626       	74.20807       	74.22487       	74.07699       	73.940674      	74.20667       	74.23869       	74.10906       	74.17881       	74.249176      	74.467804      	74.30479       	74.03653       	74.30692       	74.4342        	74.24498       	74.204865      	74.208145      	74.233246      	74.33683       	74.1062        	74.527596      	74.294914      	74.080574      	74.3683        	74.28884       	74.35535       	73.97994       	74.347015      	74.167725      	74.37846       	74.29961       	74.346146      	74.485596      	74.22231       	74.18303       	74.26451       	74.2071        	74.23535       	74.24859       	74.43512       	74.69481       	74.76973       	
74.28745       	74.36501       	74.06114       	74.38351       	74.190735      	74.19857       	74.20955       	74.175514      	74.44277       	74.11643       	74.3295        	74.17694       	74.27306       	74.28701       	74.347664      	74.35539       	74.27925       	74.22792       	74.14569       	74.26417       	74.291245      	74.233444      	74.18848       	74.2187        	74.265396      	74.22275       	74.641174      	74.281296      	74.16926       	74.152664      	74.37756       	74.181755      	74.29654       	73.99607       	74.17453       	74.27547       	74.12618       	74.243675      	74.43108       	74.252335      	74.26353       	74.25647       	74.0908        	74.49955       	74.21021       	74.19361       	74.194145      	74.11877       	74.34684       	74.19925       	74.31006       	74.20212       	74.45272       	74.12558       	74.332245      	74.49967       	74.02744       	74.17153       	74.143394      	74.08271       	74.16271       	74.413445      	74.19533       	74.24846       	74.21039       	74.25567       	74.24517       	74.321434      	74.19884       	74.231575      	74.222786      	74.27838       	74.21936       	74.289825      	74.188484      	74.21054       	74.27708       	74.37735       	74.32393       	74.26717       	74.300354      	74.18441       	74.24824       	74.33944       	74.3199        	74.27538       	74.25457       	74.12384       	74.4992        	74.17817       	74.41308       	74.23482       	74.299126      	74.296326      	74.214485      	74.20388       	74.210045      	74.342224      	74.777275      	74.79425       	
74.29302       	74.2291        	74.333145      	74.24406       	74.3278        	74.24222       	74.10602       	74.48309       	74.12346       	74.23825       	74.27902       	74.219826      	74.22787       	74.11469       	74.27683       	74.236496      	74.28294       	74.20358       	74.30322       	74.071175      	74.430855      	74.35609       	74.04518       	74.3634        	74.069046      	74.448296      	74.403305      	74.11585       	74.423035      	74.23237       	74.24555       	74.366325      	74.10057       	74.13764       	74.32238       	74.20121       	74.283554      	74.15782       	74.278366      	74.27452       	74.18489       	74.163506      	74.24543       	74.18999       	74.329025      	74.20306       	74.247955      	74.3349        	74.25187       	74.28183       	74.25587       	74.17261       	74.41317       	74.132774      	74.44594       	74.32344       	74.14717       	74.07098       	74.10976       	74.00905       	74.40824       	74.23398       	74.07554       	74.239685      	74.20582       	74.31021       	74.464424      	74.15247       	74.24542       	74.263145      	74.2898        	74.2302        	74.21975       	74.267365      	74.25303       	74.23513       	74.23976       	74.28493       	74.36187       	74.191444      	74.31116       	74.32513       	74.26914       	74.176834      	74.24142       	74.2683        	74.396484      	74.279495      	74.49444       	74.11313       	74.28309       	74.36425       	74.21664       	74.274994      	74.30374       	74.29278       	74.21186       	74.70088       	74.72427       	74.83834       	
74.06408       	74.22266       	74.40348       	74.23331       	74.252335      	74.18455       	74.292145      	74.39594       	74.198944      	74.19552       	74.32871       	74.13734       	74.31738       	74.34019       	74.237366      	74.25057       	74.205765      	74.223274      	74.19197       	74.159706      	74.20959       	74.25616       	74.22825       	74.2978        	74.11726       	74.411674      	74.36008       	74.25167       	74.29783       	74.39777       	74.17969       	74.522766      	74.15093       	74.03818       	73.9627        	74.45898       	74.262375      	74.15887       	74.24499       	74.26094       	74.289795      	74.160706      	74.49267       	74.17819       	74.1101        	74.281586      	74.32568       	74.40399       	74.28856       	74.29553       	74.16661       	74.23881       	74.22089       	74.27389       	74.36619       	74.0677        	74.14937       	74.18964       	74.243004      	74.08599       	74.2471        	74.47792       	74.054375      	74.2534        	74.333176      	74.168564      	74.31214       	74.213936      	74.301125      	74.20404       	74.13145       	74.33367       	74.1701        	74.184814      	74.4239        	74.18736       	74.23473       	74.40581       	74.288246      	74.18069       	74.26793       	74.26257       	74.386154      	74.295006      	74.058975      	74.40952       	74.23003       	74.25161       	74.46933       	74.591965      	74.17956       	74.36659       	74.18788       	73.91023       	74.36513       	74.53533       	74.363945      	74.43114       	74.648506      	74.66664       	
74.27427       	74.0608        	74.43473       	74.33556       	74.219955      	74.15152       	74.0944        	74.35731       	74.20518       	74.32071       	74.278404      	74.24231       	74.326096      	74.17139       	74.398506      	74.047676      	74.3959        	74.070724      	74.17615       	74.2329        	74.269165      	74.248764      	74.12578       	74.31423       	74.266525      	74.446724      	74.48889       	74.299446      	74.08381       	74.13556       	74.37197       	74.424965      	74.21056       	74.20171       	74.01292       	74.30018       	74.31999       	74.38903       	74.20491       	74.05508       	74.28132       	74.369026      	74.24609       	74.21086       	74.29398       	74.31148       	74.2795        	74.32873       	74.1454        	74.28476       	74.349365      	74.03491       	74.3337        	74.37632       	74.25646       	74.049034      	74.15496       	74.15004       	74.190895      	74.27934       	74.291016      	74.1973        	74.322556      	74.17896       	74.336655      	74.166435      	74.24671       	74.34728       	74.08038       	74.323715      	74.236465      	74.29896       	74.275375      	74.23254       	74.26149       	74.20009       	74.38423       	74.283966      	74.35997       	74.28689       	74.22655       	74.32562       	74.30386       	73.86619       	74.34149       	74.32013       	73.99544       	74.35298       	74.516464      	74.43201       	74.37724       	74.32097       	74.215385      	74.148254      	74.26182       	74.0478        	74.42728       	74.388214      	74.50145       	74.748726      	
74.08235       	74.02156       	74.34162       	74.380486      	74.03862       	74.42435       	74.17169       	74.38501       	74.281555      	74.25866       	74.28245       	74.15126       	74.31448       	74.23004       	74.26193       	74.23952       	74.37244       	74.16683       	74.085556      	74.22712       	74.35557       	74.10221       	74.18817       	74.36315       	74.191345      	74.393654      	74.26539       	74.17072       	74.35871       	74.26204       	74.03683       	74.329285      	74.35994       	74.41996       	74.18576       	74.10414       	74.2059        	74.35116       	74.17829       	74.23539       	74.40971       	74.06065       	74.188545      	74.3391        	74.154884      	74.46218       	74.28487       	74.2921        	74.15774       	74.15674       	74.26484       	74.182945      	74.17309       	74.2595        	74.32609       	74.190315      	74.14706       	74.19445       	74.25682       	74.156425      	74.34615       	74.05627       	74.35603       	74.25772       	74.2499        	74.32458       	74.15669       	74.35483       	74.317696      	74.2026        	74.30647       	74.20927       	74.31421       	74.14945       	74.23849       	74.232315      	74.376564      	74.261345      	74.26584       	74.19711       	74.26157       	74.31967       	74.233284      	74.25348       	74.323616      	74.3836        	74.14622       	74.25076       	74.4788        	74.29518       	74.39148       	74.44921       	74.05688       	74.08621       	74.04849       	74.21604       	74.43406       	74.44374       	74.51479       	74.67821       	
74.16469       	74.249275      	74.194984      	74.25429       	74.07699       	74.4399        	74.11826       	74.452675      	74.15231       	74.2105        	74.29629       	74.3393        	74.19656       	74.176125      	74.29041       	74.18303       	74.23676       	74.37957       	74.257706      	74.07477       	74.25209       	74.32307       	74.27903       	74.244934      	74.33073       	74.29453       	74.37752       	74.35912       	74.2107        	74.01203       	74.14454       	74.2502        	74.25127       	74.54056       	74.21877       	74.044334      	74.13651       	74.35329       	74.27178       	74.388565      	74.282814      	74.351944      	74.34321       	74.18418       	74.29034       	74.32194       	74.34648       	74.1927        	74.06032       	74.3592        	74.26671       	74.16766       	74.18027       	74.31506       	74.134346      	74.32774       	74.19043       	74.041405      	74.423775      	74.215576      	74.11589       	74.374855      	74.17026       	74.420265      	74.20007       	74.2246        	74.14865       	74.33744       	74.20843       	74.298386      	74.3515        	74.155205      	74.269875      	74.23615       	74.14209       	74.42043       	74.17375       	74.11681       	74.38904       	74.40852       	74.19096       	74.14213       	74.3487        	74.16007       	74.321655      	74.35915       	74.08494       	74.26958       	74.244965      	74.145195      	74.59246       	74.04467       	74.40863       	73.75748       	75.29305       	73.42778       	74.49689       	73.3813        	73.62157       	74.14691       	
74.188034      	74.11231       	74.37898       	74.21873       	74.21423       	74.13661       	74.240395      	74.35581       	74.146614      	74.246056      	74.26706       	74.25554       	74.31907       	74.23052       	74.25891       	74.15878       	74.248085      	74.289505      	74.27281       	74.15326       	74.40094       	74.11727       	74.142845      	74.26178       	74.26704       	74.29207       	74.37462       	74.23951       	74.23152       	74.28488       	74.29568       	74.00895       	74.17924       	74.49692       	74.18637       	74.19237       	74.07958       	74.1736        	74.39767       	74.3454        	74.28198       	74.20981       	74.11493       	74.2442        	74.21386       	74.141335      	74.36489       	74.25253       	74.17262       	73.89483       	74.921104      	73.682045      	74.19285       	74.23368       	74.65438       	74.60035       	73.47194       	74.18946       	74.40288       	74.16361       	74.16367       	74.3193        	74.24109       	74.236305      	74.205666      	74.27867       	74.27269       	74.125694      	74.17412       	74.321175      	74.277954      	74.11838       	74.14808       	74.49324       	74.22009       	74.34907       	74.22339       	74.18926       	74.25564       	74.16898       	74.2962        	74.266464      	74.196205      	74.18508       	74.18729       	74.026085      	74.184364      	73.56656       	79.87223       	75.035385      	74.828896      	73.4477        	72.4218        	75.12625       	74.73629       	73.72631       	74.14685       	73.6324        	74.032364      	74.492424      	
74.11065       	74.187164      	74.19301       	74.215996      	74.34445       	74.2636        	74.322334      	74.03856       	74.466446      	74.18327       	74.13991       	74.28718       	74.27665       	74.27486       	74.17487       	74.26955       	74.24784       	74.06592       	74.249886      	74.18043       	74.51249       	74.02783       	74.336784      	74.221794      	74.125565      	74.31566       	74.24654       	76.178116      	71.52426       	73.41467       	74.914696      	74.31998       	73.00086       	74.55457       	75.08161       	75.4314        	72.78925       	73.4616        	72.45158       	76.572754      	73.598946      	73.78345       	75.33264       	71.781944      	72.18318       	73.85906       	75.51308       	71.786804      	75.666695      	74.95999       	74.17494       	73.75125       	73.845245      	73.893074      	74.24075       	73.369804      	73.46009       	69.02038       	69.25539       	74.21085       	74.31509       	74.249016      	74.29349       	74.113884      	74.34044       	74.2596        	74.31133       	73.99588       	74.274994      	74.35773       	74.094696      	74.35903       	74.29165       	74.24452       	74.24741       	74.17533       	74.25728       	74.27885       	74.298515      	74.287766      	74.16084       	74.14556       	74.379395      	74.27036       	74.17052       	73.9525        	74.22999       	73.6189        	81.02884       	74.43711       	74.2331        	74.394585      	74.09194       	74.32594       	74.27574       	74.15096       	74.21791       	74.38401       	74.718605      	74.61105       	
74.070015      	74.21549       	74.12724       	74.38635       	74.25338       	74.30215       	74.24722       	74.15735       	74.353676      	74.25797       	74.15016       	74.14795       	74.33606       	74.1996        	74.26097       	74.41264       	74.24537       	74.2015        	74.065796      	74.20274       	74.29734       	74.270134      	73.96252       	74.177635      	74.087074      	74.383         	80.85095       	74.03136       	73.77291       	74.05754       	74.2458        	74.34416       	74.04844       	74.35702       	74.24839       	74.470955      	74.1296        	74.13938       	74.31264       	74.355225      	74.242645      	74.3085        	74.38562       	73.96367       	74.279785      	74.27169       	74.43302       	74.3467        	74.32969       	74.14417       	74.231346      	74.229965      	74.15484       	74.450386      	74.4587        	74.27089       	73.39032       	67.94368       	72.723076      	74.33784       	74.21003       	74.24246       	74.19053       	74.3091        	74.241104      	74.326485      	74.16977       	74.27386       	74.26842       	74.14617       	74.38886       	74.23942       	74.25511       	74.24991       	74.16529       	74.259605      	74.22765       	74.27207       	74.243126      	74.25051       	74.316284      	74.226875      	74.21323       	74.24086       	74.21472       	74.15593       	73.95689       	74.28394       	80.97272       	73.26204       	74.15961       	74.33865       	74.49502       	74.08079       	74.25116       	74.195335      	74.514404      	74.53276       	74.40344       	74.31127       	
74.091515      	74.30509       	73.96907       	74.37397       	74.210526      	74.23809       	74.27774       	74.18133       	74.29563       	74.28304       	74.23215       	74.301704      	74.195         	74.12895       	74.2575        	74.29624       	74.301895      	74.22772       	74.11058       	74.132515      	74.44136       	74.286255      	74.1163        	74.15184       	74.0825        	75.89468       	79.92585       	74.95488       	73.94752       	74.12456       	74.237236      	74.324265      	74.17951       	74.13537       	74.40102       	74.20955       	74.239685      	74.272285      	74.16425       	74.387505      	74.216324      	74.28286       	74.28993       	74.25524       	74.21924       	74.18043       	74.38846       	74.26412       	74.09065       	74.28408       	74.283745      	74.2485        	74.25369       	74.31779       	74.42013       	74.47696       	73.75401       	67.76144       	70.53561       	74.263374      	74.27902       	74.221954      	74.333015      	74.21471       	74.205696      	74.25867       	74.17197       	74.30209       	74.29166       	74.04387       	74.24999       	74.17479       	74.48777       	74.20869       	74.17005       	74.26229       	74.25027       	74.37679       	74.27758       	74.16259       	74.41383       	74.200935      	74.26275       	74.1548        	74.29434       	74.05263       	74.2415        	73.47098       	80.41073       	75.496025      	74.26547       	74.2426        	74.32581       	74.3095        	74.14146       	74.28072       	74.3733        	74.34119       	74.53083       	74.383385      	
74.1594        	74.23027       	74.212685      	74.16767       	74.14078       	74.3784        	74.218346      	74.21962       	74.23787       	74.245575      	74.39092       	74.26756       	74.1365        	74.1678        	74.308365      	73.997986      	74.34319       	74.198         	74.23608       	74.271         	74.00968       	74.314125      	74.18995       	74.25149       	74.248276      	74.03268       	79.545105      	76.55059       	74.151535      	74.20187       	74.13245       	74.24561       	74.26084       	74.21257       	74.27339       	74.15787       	74.37263       	74.267         	74.141975      	74.23184       	74.248055      	74.27549       	74.231834      	74.344604      	74.2846        	74.17433       	73.94759       	74.342834      	73.9933        	74.366684      	74.35793       	74.1668        	74.20505       	74.268166      	74.40083       	74.55271       	74.271706      	66.917656      	72.392456      	74.18804       	74.214005      	74.35934       	74.261116      	74.122894      	74.383675      	74.22351       	74.20308       	74.278885      	74.23513       	74.14762       	74.3248        	74.21915       	74.26567       	74.22576       	74.3972        	74.19954       	74.25907       	74.278625      	74.24057       	74.26357       	74.23635       	74.14745       	74.33206       	74.01818       	74.31404       	74.050316      	73.88706       	73.90367       	80.83031       	74.64265       	74.251625      	74.26194       	74.368034      	74.11002       	74.32123       	74.30693       	74.24686       	74.33112       	74.62151       	74.437675      	
74.19402       	74.22835       	74.310455      	74.323425      	74.12524       	74.3134        	74.34163       	73.81746       	74.04563       	74.12701       	74.312515      	74.27801       	74.2236        	74.38735       	74.1727        	74.113785      	74.10675       	74.36217       	74.42298       	73.987755      	74.17304       	74.36208       	74.21064       	74.18173       	74.10472       	73.43198       	79.52369       	77.31111       	74.27402       	74.24659       	74.277725      	73.16142       	72.85364       	74.404144      	74.10773       	74.27526       	74.137596      	74.21326       	74.25758       	74.29219       	74.29657       	74.22868       	74.22851       	74.30785       	74.34168       	74.26687       	74.093765      	74.32533       	74.20475       	74.26774       	74.259926      	74.373024      	74.15452       	74.27507       	74.432         	74.52035       	73.90648       	68.48278       	69.25915       	74.30031       	74.08805       	74.425         	74.2251        	74.24573       	74.248604      	74.34091       	74.362175      	74.1323        	74.21377       	74.25415       	74.06179       	74.2459        	74.38314       	74.1519        	74.30388       	74.12572       	74.34046       	74.20133       	74.13789       	74.31329       	74.216194      	74.204704      	74.23469       	74.04492       	74.18555       	74.08339       	73.87173       	73.95405       	81.17264       	73.359406      	73.441635      	71.9634        	74.18909       	74.14898       	74.39869       	74.36021       	74.34875       	74.403404      	74.64539       	74.52722       	
74.2314        	74.201675      	74.2764        	74.313896      	74.17001       	74.24679       	74.37191       	74.191284      	74.146225      	74.216194      	74.31907       	74.24124       	74.13803       	74.28528       	74.180115      	74.25474       	74.198586      	74.30086       	74.20695       	74.24894       	74.166855      	74.14893       	74.199715      	74.33755       	74.15993       	73.62653       	80.71715       	75.58964       	74.26096       	74.09173       	74.13266       	74.347984      	74.22149       	74.21123       	74.19382       	74.366486      	74.21004       	74.28828       	74.11604       	74.26423       	74.29219       	74.07415       	74.226944      	74.3411        	74.20332       	74.26199       	74.226395      	74.227745      	74.35143       	74.31349       	74.29512       	74.14793       	74.4038        	74.14684       	74.413055      	74.50716       	73.735435      	68.28583       	70.278435      	74.355446      	74.11741       	74.31864       	74.18901       	74.2533        	74.18425       	74.25461       	74.28763       	74.23406       	74.37772       	74.14802       	74.22525       	74.27342       	74.19324       	74.22436       	74.20942       	74.32991       	74.29341       	74.09403       	74.283295      	74.3408        	74.323494      	74.15346       	74.29694       	74.18824       	74.06153       	74.256454      	74.07149       	73.62371       	80.36828       	75.98343       	74.2346        	74.34369       	74.125305      	74.219925      	74.4773        	74.25592       	74.255424      	74.46107       	74.41864       	74.2648        	
74.29497       	74.35221       	74.20581       	74.268616      	74.29666       	74.16373       	74.18489       	74.23192       	74.41196       	74.30911       	74.11354       	74.28962       	74.29909       	74.06522       	74.38477       	74.23447       	73.98222       	74.37993       	74.145134      	74.24421       	74.24743       	74.26888       	74.15232       	74.16362       	74.09919       	74.042915      	81.22265       	74.17045       	74.26322       	74.207886      	74.30408       	74.2276        	74.22323       	74.18731       	74.17285       	74.35038       	74.28295       	74.283615      	74.16267       	74.34516       	74.260574      	74.19897       	74.344124      	74.11478       	74.187454      	74.31451       	74.42036       	74.219864      	74.21831       	74.27239       	74.38326       	74.29476       	74.17212       	74.335205      	74.2695        	74.586754      	73.7451        	68.44051       	70.85411       	74.13114       	74.19573       	74.12826       	74.30028       	74.35304       	74.20009       	74.05872       	74.35514       	74.275764      	74.34237       	74.11486       	74.1131        	74.21826       	74.32416       	74.230576      	74.22579       	74.28553       	74.24776       	74.224434      	74.29985       	74.249245      	74.377464      	74.079315      	74.206955      	74.14328       	74.1455        	74.23219       	73.86886       	73.854355      	81.25816       	74.23156       	74.336815      	74.255486      	74.164246      	74.35929       	74.17852       	74.46472       	74.377174      	74.50113       	74.46646       	74.45198       	
74.27588       	74.45913       	74.08482       	74.12184       	74.39125       	74.172455      	74.40218       	74.16272       	74.134605      	74.246056      	74.24069       	74.40901       	74.255104      	74.1762        	74.240204      	74.22912       	74.17417       	74.24038       	74.32721       	74.19775       	74.14871       	74.311905      	74.168884      	74.19061       	74.02813       	73.582115      	80.52511       	75.64355       	74.26319       	74.22004       	74.21938       	74.18991       	74.24367       	74.30625       	74.33438       	74.232475      	74.19466       	74.291275      	74.22647       	74.28586       	74.30477       	74.192924      	74.31083       	74.278145      	74.21208       	74.33248       	74.26015       	74.20832       	74.19194       	74.349655      	74.21725       	74.30394       	74.14448       	74.40769       	74.46376       	74.458534      	73.75812       	68.80564       	68.88949       	74.28658       	74.245         	74.10689       	74.18617       	74.26851       	74.32007       	74.178505      	74.17649       	74.41884       	74.180824      	74.26625       	74.38053       	74.138054      	74.2742        	74.165596      	74.32038       	74.22133       	74.21666       	74.34919       	74.18986       	74.25755       	74.19421       	74.15595       	74.184784      	74.2648        	74.20347       	74.1872        	74.031395      	73.3158        	80.57407       	75.331795      	74.272896      	74.24003       	74.38908       	74.13164       	74.33251       	74.33942       	74.47645       	74.50544       	74.41228       	74.60145       	
74.28585       	74.23427       	74.13274       	74.09216       	74.372444      	74.18313       	74.29924       	74.25716       	74.11527       	74.28666       	74.22673       	74.22688       	74.32349       	74.15303       	74.143295      	74.23906       	74.255646      	74.30021       	74.18534       	74.19051       	74.3551        	74.13526       	74.162735      	73.99989       	74.083244      	73.17989       	80.77674       	74.9538        	74.26179       	74.11259       	74.19598       	74.32523       	74.32986       	74.31303       	74.10836       	74.24633       	74.20211       	74.291824      	74.27005       	74.248055      	74.26649       	74.27471       	74.29023       	74.2557        	74.223045      	74.10913       	74.277054      	74.32481       	74.268         	74.29375       	74.36936       	74.2512        	74.18742       	74.394806      	74.22947       	74.59741       	73.67693       	68.38196       	69.71869       	74.19325       	74.26078       	74.28563       	74.30025       	74.186554      	74.23082       	74.22128       	74.2145        	74.294716      	74.19479       	74.31352       	74.317444      	74.22066       	74.28389       	74.231384      	74.204315      	74.225365      	74.330696      	74.290146      	74.24772       	74.20073       	74.23415       	74.20777       	74.21532       	74.1318        	74.09675       	74.21913       	74.00027       	73.61324       	81.33111       	73.890205      	74.208626      	74.27013       	74.34545       	74.30608       	74.33302       	74.30944       	74.37839       	74.44086       	74.40244       	74.5727        	
74.19467       	74.17123       	74.27918       	74.13509       	74.28943       	74.25748       	74.308525      	74.160225      	74.43915       	74.19206       	74.24715       	74.31761       	74.2553        	74.193016      	74.19053       	74.18998       	74.144585      	74.325264      	74.120804      	74.29358       	74.30719       	74.32173       	74.04817       	74.12896       	74.20553       	73.302055      	79.76299       	76.44487       	74.2574        	74.18326       	74.243614      	74.38125       	74.17674       	74.135826      	74.30554       	74.26537       	74.24847       	74.16513       	74.23575       	74.26061       	74.31369       	74.24872       	74.35254       	74.26766       	74.104706      	74.357376      	74.0369        	74.35003       	74.33449       	74.290794      	74.28908       	74.17042       	74.28875       	74.42391       	74.3721        	74.271194      	74.26226       	67.87019       	70.54891       	74.18292       	74.32379       	74.29623       	74.22976       	74.22249       	74.20975       	74.30591       	74.252075      	74.19647       	74.30234       	74.23572       	74.34369       	74.087105      	74.27688       	74.222275      	74.31333       	74.24263       	74.285706      	74.210556      	74.22354       	74.1918        	74.300514      	74.30017       	74.13325       	74.139885      	74.24363       	74.12671       	74.00936       	73.593414      	81.06701       	74.72512       	74.144066      	74.38734       	74.304375      	74.26636       	74.322525      	74.21818       	74.404396      	74.50323       	74.4675        	74.37106       	
74.17906       	74.3153        	74.17318       	74.14132       	74.23001       	74.43296       	74.16998       	74.30782       	74.175156      	74.106285      	74.34634       	74.205826      	74.23012       	74.31727       	74.11114       	74.2987        	74.12129       	74.35577       	74.21397       	74.15058       	74.34224       	74.26958       	74.22251       	74.00669       	74.20973       	73.55028       	79.91667       	76.264725      	74.195854      	74.27347       	74.33281       	74.253044      	74.23932       	74.11968       	74.3447        	74.26459       	74.135765      	74.25546       	74.256294      	74.17621       	74.29568       	74.42126       	74.08751       	74.379005      	74.1763        	74.21576       	74.25702       	74.2143        	74.36646       	74.31291       	74.097916      	74.26796       	74.42654       	74.54194       	74.18014       	74.49667       	73.79724       	68.14479       	69.7228        	74.35569       	74.203064      	74.19099       	74.3538        	74.238144      	74.210915      	74.32143       	74.13736       	74.27792       	74.3853        	74.21155       	74.20912       	74.27033       	74.227646      	74.15262       	74.22428       	74.259605      	74.15538       	74.30034       	74.0693        	74.31608       	73.96438       	74.35575       	74.2877        	74.171844      	74.0798        	73.8471        	74.15521       	74.03884       	81.05045       	73.607704      	74.09924       	74.34281       	74.27262       	74.365036      	74.3166        	74.18301       	74.39128       	74.62859       	74.54751       	74.35825       	
74.15025       	74.2385        	74.209595      	74.34023       	74.09529       	74.27334       	74.217995      	74.285095      	74.28098       	74.213036      	74.313644      	74.13236       	74.20876       	74.341995      	74.26703       	74.17908       	74.02812       	74.27988       	74.38778       	74.32918       	74.004715      	74.18055       	74.23479       	73.92621       	74.04941       	73.25072       	79.524185      	77.145004      	74.23353       	74.17792       	74.29638       	74.29675       	74.23338       	74.34067       	74.1561        	74.267654      	74.317696      	74.16472       	74.08409       	74.285965      	74.20579       	74.33006       	74.22782       	74.21294       	74.19336       	74.332146      	74.43518       	74.15856       	74.16902       	74.45938       	74.07553       	74.30251       	74.30547       	74.393364      	74.37931       	74.370766      	74.415955      	69.044975      	69.88017       	74.18585       	74.32174       	74.152954      	74.12719       	74.41472       	74.16976       	74.248344      	74.30141       	74.16832       	74.15446       	74.2356        	74.269615      	74.134224      	74.28121       	74.30571       	74.13941       	74.29072       	74.19779       	74.37398       	74.05278       	74.143105      	74.28735       	74.29818       	74.046036      	74.163086      	74.27457       	74.17596       	74.27303       	73.51484       	79.209335      	77.32972       	74.29873       	74.08394       	74.464485      	74.19622       	74.149956      	74.207375      	74.493515      	74.51146       	74.5305        	74.277374      	
74.213875      	74.35644       	74.16727       	74.28794       	74.11933       	74.20921       	74.286804      	74.26642       	74.27696       	74.28946       	74.22705       	74.13188       	74.25693       	74.24151       	74.23177       	74.25478       	74.20794       	74.26995       	74.12914       	74.38901       	74.22552       	74.264725      	74.117195      	74.04785       	74.15542       	73.62755       	79.03765       	77.117584      	74.2521        	74.13219       	74.306786      	74.34289       	74.14908       	74.216354      	74.26749       	74.29113       	74.24179       	74.27855       	74.32211       	74.18262       	74.24884       	74.14256       	74.27382       	74.2767        	74.2661        	74.19692       	74.19527       	74.32454       	74.1183        	74.32969       	74.33917       	74.39037       	74.250465      	74.217415      	74.223755      	74.49235       	74.13232       	68.316864      	68.37064       	74.282684      	74.3613        	74.32733       	74.1458        	74.20846       	74.15114       	74.295525      	74.32223       	74.175125      	74.289795      	74.16526       	74.31144       	74.1905        	74.26802       	74.34526       	74.14237       	74.23239       	74.32355       	74.2243        	74.28542       	74.19198       	74.13889       	74.32369       	74.195335      	74.23342       	74.05844       	74.17614       	73.92069       	73.09781       	81.45158       	73.86469       	74.257904      	74.34061       	74.20902       	74.26538       	74.34055       	74.37203       	74.35934       	74.4628        	74.719246      	74.423546      	
74.206955      	74.19322       	74.17083       	74.27589       	74.370445      	74.28405       	74.22366       	74.217995      	74.06652       	74.36587       	74.23413       	74.12385       	74.25495       	74.17127       	74.2996        	74.184235      	74.23145       	74.23752       	74.32668       	74.362274      	74.10167       	74.02536       	74.40134       	74.00646       	74.041         	73.51122       	79.88887       	76.545334      	74.08622       	74.17659       	74.25582       	74.30737       	74.15938       	74.19065       	74.30416       	74.32517       	74.18026       	74.2822        	74.22822       	74.2454        	74.341934      	74.306         	74.20972       	74.19259       	74.23119       	74.32255       	74.21443       	74.501114      	73.97226       	74.23517       	74.32917       	74.416435      	74.246376      	74.25473       	74.21676       	74.464516      	74.41999       	68.883736      	69.76754       	74.33775       	74.23067       	74.303024      	74.10506       	74.2855        	74.2493        	74.15729       	74.39103       	74.174614      	74.29781       	74.26927       	74.236         	74.31905       	74.19419       	74.23662       	74.211395      	74.12284       	74.47543       	74.12028       	74.142075      	74.24908       	74.28114       	74.26873       	74.20193       	74.33228       	74.13286       	74.272575      	73.9945        	73.472786      	80.480965      	75.05035       	74.23277       	74.22236       	74.25558       	74.117         	74.39767       	74.394485      	74.482445      	74.433945      	74.5788        	74.384125      	
74.33457       	74.17747       	74.27385       	74.25783       	74.2099        	74.27925       	74.15348       	74.275085      	74.27386       	74.31766       	74.11658       	74.13624       	74.33445       	74.16205       	74.18641       	74.37999       	74.10326       	74.186745      	74.15323       	74.24647       	74.29627       	74.11599       	74.22006       	74.313354      	73.89222       	73.714424      	79.03995       	77.111855      	74.32212       	74.10082       	74.245544      	74.18911       	74.36134       	74.23853       	74.17679       	74.193665      	74.21277       	74.39749       	74.124725      	74.33146       	74.19695       	74.152824      	74.382545      	74.21183       	74.24846       	74.13859       	74.332756      	74.22398       	74.32055       	74.285995      	74.33495       	74.111664      	74.26365       	74.583244      	74.112915      	74.58752       	74.26498       	69.96667       	70.31178       	74.24437       	74.14269       	74.25503       	74.32804       	74.134346      	74.143486      	74.21487       	74.38495       	74.202705      	74.13914       	74.36074       	74.15758       	74.265236      	74.17878       	74.32972       	74.25203       	74.19709       	74.25419       	74.19529       	74.281364      	74.36314       	74.34831       	74.12391       	74.31361       	74.15474       	74.13635       	74.27307       	74.00426       	73.46442       	79.93672       	76.68844       	74.31441       	74.20859       	74.260956      	74.19468       	74.35361       	74.223045      	74.31977       	74.42652       	74.51914       	74.51926       	
74.13174       	74.11403       	74.39528       	74.20009       	74.08549       	74.38096       	74.107635      	74.38784       	74.34589       	74.08922       	74.287315      	74.2519        	74.33561       	74.21197       	74.157166      	74.174774      	74.272255      	74.30562       	74.16179       	74.25676       	74.35659       	74.213875      	74.22152       	73.941864      	74.100624      	73.767876      	78.27292       	77.783485      	74.47126       	74.295135      	74.18789       	74.17142       	74.27131       	74.296036      	74.20366       	74.20182       	74.350426      	74.11312       	74.27133       	74.42331       	74.34307       	74.0806        	74.27299       	74.18141       	74.34512       	74.308395      	74.1924        	74.17542       	74.31664       	74.432365      	74.24697       	74.17159       	74.30927       	74.30717       	73.69915       	74.33934       	74.32809       	70.8918        	68.46268       	74.347206      	74.28876       	74.21146       	74.17194       	74.28289       	74.164894      	74.415535      	74.188194      	74.09338       	74.27185       	74.25669       	74.23252       	74.31278       	74.26651       	74.13745       	74.28256       	74.31089       	74.29333       	74.2842        	73.92777       	74.24667       	74.247795      	74.22825       	74.29949       	74.171814      	74.29005       	74.15756       	74.05619       	73.91148       	76.609566      	78.794075      	74.58621       	74.25752       	74.29142       	74.227684      	74.156876      	74.11544       	74.44278       	74.37426       	74.51986       	74.335556      	
74.265625      	74.21417       	74.20408       	74.20095       	74.29073       	74.25856       	74.16527       	74.21809       	74.31063       	74.25105       	74.25444       	74.216805      	74.23836       	74.26341       	74.27873       	74.09535       	74.25492       	74.297676      	74.15835       	74.18168       	74.45539       	74.075005      	74.20376       	74.13711       	73.96336       	73.66515       	78.58149       	77.950584      	74.40319       	73.94192       	74.36669       	74.23035       	74.38461       	74.214485      	74.17002       	74.369774      	74.24057       	74.390495      	74.09728       	74.35552       	74.20808       	74.16559       	74.37084       	74.21988       	74.0759        	74.18382       	74.341934      	74.29588       	74.25197       	74.261795      	74.14757       	74.390724      	74.26822       	74.22157       	74.38116       	74.48265       	74.50338       	70.95895       	67.4785        	74.320915      	74.23251       	74.1032        	74.25586       	74.301094      	74.21497       	74.25039       	74.32072       	74.21181       	74.37596       	74.15477       	74.29354       	74.205284      	74.232155      	74.27637       	74.32821       	74.151886      	74.0999        	74.30556       	74.29394       	74.36126       	74.24317       	74.006165      	74.32575       	74.208206      	74.16243       	74.16057       	74.06128       	73.746185      	79.10884       	77.27957       	74.21392       	74.27266       	74.286934      	74.2417        	74.316986      	74.35928       	74.449104      	74.31491       	74.45416       	74.538025      	
74.32112       	74.32931       	74.299194      	74.32196       	74.255196      	74.081215      	74.19007       	74.34759       	74.29853       	74.28105       	74.22193       	74.1843        	74.177444      	74.39958       	74.1743        	74.20014       	74.141014      	74.09089       	74.35841       	74.24191       	74.36005       	74.19305       	74.21491       	74.18004       	74.12982       	73.54928       	78.7038        	76.84931       	74.187874      	74.32456       	74.28003       	74.13982       	74.25186       	74.24421       	74.230446      	74.271         	74.23529       	74.23216       	74.25978       	74.28266       	74.18553       	74.297905      	74.34088       	74.296974      	74.25466       	74.22269       	74.36087       	74.25217       	74.126564      	74.410965      	74.31328       	74.199165      	74.28858       	74.28934       	74.35311       	74.29161       	74.41766       	71.62915       	67.26494       	74.176445      	74.391556      	74.219185      	74.267944      	74.135254      	74.19515       	74.405655      	74.20627       	74.095474      	74.220566      	74.296814      	74.42476       	74.15727       	74.24019       	74.4104        	74.07768       	74.30477       	74.20878       	74.33332       	74.21817       	74.23783       	74.12963       	74.3643        	74.18199       	74.32268       	74.23356       	74.11156       	74.21488       	73.76256       	79.157326      	77.18683       	74.31841       	74.26397       	74.14713       	74.300095      	74.41914       	74.31532       	74.56386       	74.47032       	74.43698       	74.47296       	
74.31003       	74.17781       	74.248375      	74.245056      	74.299355      	74.30162       	74.085144      	74.22263       	74.35813       	74.16752       	74.24512       	74.28997       	74.12214       	74.29146       	74.27907       	74.196365      	74.22262       	74.14999       	74.14908       	74.33166       	74.348785      	74.144775      	74.052765      	74.26548       	74.27605       	73.615776      	78.154015      	78.10273       	74.354126      	74.27824       	74.32955       	74.2231        	74.30893       	74.17863       	74.20378       	74.29736       	74.23421       	74.313965      	74.176605      	74.19613       	74.21622       	74.264046      	74.42238       	74.080666      	74.23972       	74.38176       	74.321304      	74.17167       	74.239815      	74.33941       	74.248024      	74.309204      	74.08411       	74.42206       	74.62979       	74.14527       	74.37061       	71.136154      	68.16651       	73.99715       	74.25402       	74.19937       	74.26397       	74.3064        	74.07065       	74.323715      	74.303764      	74.12872       	74.31298       	74.19152       	74.32028       	74.29534       	74.41948       	74.22526       	74.15591       	74.18973       	74.27678       	74.18044       	74.36498       	74.17702       	74.284164      	74.15713       	74.26385       	74.26662       	74.13862       	74.153625      	74.04074       	73.54567       	79.76236       	76.443535      	74.1211        	74.25304       	74.354         	74.31142       	74.1397        	74.27683       	74.377975      	74.51082       	74.50467       	74.45101       	
74.17694       	74.17695       	74.24537       	74.46153       	74.15086       	74.21146       	74.31317       	74.178505      	74.28239       	74.23365       	74.2425        	74.311516      	74.049866      	74.34779       	74.243614      	74.21379       	74.24737       	74.19504       	74.29433       	74.18917       	74.08676       	74.22363       	74.3142        	74.372406      	73.72958       	73.39303       	80.03446       	77.30745       	74.11643       	74.28425       	74.16613       	74.2165        	74.34247       	74.155815      	74.30616       	74.17059       	74.2219        	74.27606       	74.22622       	74.353134      	74.34368       	74.17474       	74.25981       	74.275566      	74.27405       	74.183495      	74.30631       	74.42623       	74.213615      	74.24657       	74.27553       	74.295815      	74.33943       	74.16438       	74.40607       	74.385895      	74.50156       	71.36676       	68.02891       	74.369675      	74.270454      	74.04514       	74.22741       	74.358604      	74.248955      	74.25698       	74.15366       	74.30492       	74.261566      	74.28859       	74.19308       	74.26986       	74.13907       	74.31702       	74.345245      	74.10571       	74.36681       	74.261314      	74.22718       	74.21515       	74.26244       	74.27286       	74.13998       	74.16289       	74.258865      	74.275         	74.23248       	73.54878       	78.232285      	76.82499       	74.01427       	74.27212       	74.25499       	74.237404      	74.28143       	74.39256       	74.31324       	74.49208       	74.53687       	74.519875      	
74.00752       	74.29937       	74.237656      	74.232414      	74.14756       	74.311516      	74.23977       	74.25746       	74.08371       	74.3026        	74.37251       	74.13815       	74.32375       	74.09621       	74.24042       	74.28036       	74.285446      	74.31029       	74.21126       	74.053474      	74.37382       	74.26887       	74.159424      	74.25032       	73.86917       	73.39435       	79.37903       	76.286095      	74.273994      	74.278275      	74.159546      	74.35493       	74.20246       	74.18292       	74.401436      	74.11459       	74.33087       	74.29935       	74.18666       	74.14447       	74.3474        	74.165535      	74.33388       	74.35643       	74.18736       	74.33596       	74.1473        	74.31277       	74.32907       	74.28772       	74.25857       	74.2015        	74.23234       	74.25373       	74.441925      	74.3003        	74.16826       	72.74008       	67.83926       	71.01172       	74.38573       	74.183495      	74.22166       	74.218094      	74.17636       	74.223694      	74.36759       	74.17908       	74.22907       	74.23913       	74.19315       	74.32025       	74.14761       	74.3039        	74.22026       	74.31165       	74.183685      	74.35038       	74.19573       	74.13309       	74.32632       	74.07955       	74.3877        	74.15246       	74.07786       	74.14494       	74.11736       	73.56145       	78.45977       	78.00842       	74.19856       	74.339745      	74.06258       	74.269295      	74.39711       	74.48661       	74.30255       	74.49449       	74.52505       	74.53874       	
74.184326      	74.2063        	74.15991       	74.25169       	74.27437       	74.36883       	74.23485       	74.29427       	74.23456       	74.02252       	74.30563       	74.23624       	74.33017       	74.0513        	74.31601       	74.273994      	74.27815       	74.14818       	74.222336      	74.25742       	74.182205      	74.12156       	74.30064       	74.19734       	73.927864      	73.31371       	79.51161       	77.247955      	74.41093       	74.06161       	74.35738       	74.24335       	74.307755      	74.17959       	74.23852       	74.24486       	74.23043       	74.374016      	74.17691       	74.3194        	74.26357       	74.30579       	74.15496       	74.349365      	74.16004       	74.1797        	74.457924      	74.1932        	74.228836      	74.24715       	74.342094      	74.25347       	74.274086      	74.282326      	74.40458       	74.40654       	74.40003       	71.19853       	67.63345       	74.217155      	74.13359       	74.14579       	74.35419       	74.35665       	74.224144      	74.11471       	74.285675      	74.179         	74.236694      	74.30906       	74.197945      	74.28866       	74.2304        	74.30365       	74.17305       	74.3415        	74.140335      	74.2302        	74.29537       	74.22002       	74.29324       	74.233055      	74.1827        	74.17319       	74.17785       	74.32805       	74.061775      	73.45766       	78.70733       	77.7535        	74.28774       	74.32195       	74.21471       	74.20891       	74.34932       	74.31728       	74.32531       	74.3026        	74.51318       	74.47462       	
74.1953        	74.22591       	74.116875      	74.30375       	74.32899       	74.20693       	74.27297       	74.11515       	74.26          	74.04639       	74.348885      	74.31629       	73.74313       	73.95679       	74.115845      	74.2496        	74.28102       	73.99854       	73.85851       	73.91688       	74.25321       	74.23405       	74.417404      	73.99561       	74.02811       	73.54468       	78.04625       	77.89454       	73.506775      	73.90377       	73.62942       	74.36835       	73.86006       	73.83504       	73.85227       	73.98004       	74.10829       	74.163216      	74.12179       	74.383415      	74.07613       	74.22354       	74.146675      	74.20144       	74.178246      	74.275826      	74.04944       	74.208145      	74.37395       	74.07985       	73.875565      	74.57234       	74.498695      	74.29959       	73.81506       	74.14708       	74.558304      	71.76001       	67.45162       	72.72681       	74.173225      	74.36427       	74.15769       	74.281975      	74.17813       	74.164085      	74.06878       	73.804504      	74.27185       	74.25922       	74.25922       	74.349045      	74.35914       	74.04859       	74.05932       	74.33745       	74.05886       	74.32983       	74.250854      	74.21066       	74.37448       	74.13          	74.2078        	74.35115       	74.27004       	73.98044       	74.23438       	73.471275      	79.03434       	77.24737       	74.10951       	74.28235       	74.33245       	74.211784      	74.19405       	74.221924      	74.32036       	74.42841       	74.63121       	74.42079       	
73.93507       	74.17921       	74.1821        	74.487076      	74.140884      	74.139114      	74.27421       	74.23512       	74.30429       	74.33249       	74.17445       	74.29458       	74.10863       	74.15258       	74.36032       	74.30079       	74.1234        	74.27677       	74.165634      	74.31465       	74.2915        	74.24658       	74.28071       	73.92864       	74.0379        	73.63663       	78.694855      	77.120125      	74.21198       	74.405334      	74.149895      	74.28315       	74.09899       	74.337814      	74.27723       	74.23775       	74.34946       	74.202934      	74.19219       	74.28409       	74.30127       	74.284424      	74.18948       	74.32873       	74.20377       	74.195816      	74.3165        	74.34757       	74.10974       	74.20805       	74.307785      	74.34409       	74.227295      	74.334015      	74.35683       	74.3458        	74.34677       	70.006645      	67.50915       	74.21751       	74.253746      	74.139206      	74.378746      	74.41167       	74.14115       	74.14994       	74.294495      	74.16561       	74.36214       	74.37218       	74.067955      	74.36459       	74.26462       	74.12984       	74.345825      	74.23214       	74.243         	74.283966      	74.310585      	74.22643       	74.19526       	74.19328       	74.219345      	74.30351       	74.04388       	74.20635       	74.266136      	73.679085      	78.12845       	77.49507       	74.50329       	74.153114      	74.31824       	74.16339       	74.35364       	74.20171       	74.370285      	74.38295       	74.52746       	74.6169        	
74.087616      	74.28618       	74.227516      	74.28546       	74.25528       	74.23008       	74.235054      	74.24989       	74.291954      	74.28712       	74.1395        	74.338425      	74.22149       	74.12115       	74.21164       	74.184784      	74.33931       	74.311844      	74.07304       	74.25601       	74.199295      	74.293625      	74.274124      	74.17577       	74.04393       	73.70779       	78.25665       	78.97824       	74.460045      	74.021774      	74.214386      	74.272865      	74.301445      	74.22973       	74.36775       	74.229935      	74.15455       	74.39637       	74.19875       	74.38473       	74.148315      	74.2504        	74.31193       	74.23613       	74.29534       	74.20587       	74.22377       	74.25406       	74.38784       	74.14418       	74.346504      	74.21702       	74.27539       	74.29305       	74.33339       	74.455605      	74.70644       	69.588264      	68.59069       	74.27137       	74.23318       	74.143486      	74.24252       	74.26964       	74.23862       	74.251564      	74.23065       	74.20727       	74.299         	74.2641        	74.29046       	74.327995      	74.04909       	74.28554       	74.39244       	74.143074      	74.19853       	74.24159       	74.218376      	74.25303       	74.28741       	74.21468       	74.032326      	74.1543        	74.540115      	73.8519        	74.05943       	73.64182       	78.01627       	78.801346      	74.36757       	74.239456      	74.359604      	74.13295       	74.17275       	74.16142       	74.15125       	74.56482       	74.58067       	74.5656        	
74.10331       	74.1711        	74.16443       	74.28269       	74.3689        	74.177475      	74.15644       	74.259865      	74.31189       	74.28873       	74.18061       	74.25038       	74.27306       	74.15587       	74.27255       	74.28216       	74.17029       	74.19655       	74.03794       	74.44738       	74.15937       	74.41372       	73.99735       	74.19841       	73.97579       	73.484344      	79.988075      	76.01469       	74.16126       	74.17471       	74.2837        	74.38696       	74.19346       	74.175316      	74.17398       	74.31815       	74.19799       	74.009415      	74.27699       	74.073906      	74.30162       	74.357445      	74.22508       	74.32569       	74.224205      	74.15068       	74.34808       	74.22013       	74.366066      	74.25014       	74.40876       	74.03118       	74.33628       	74.210785      	74.51808       	74.15266       	74.80861       	71.95096       	67.77774       	73.941734      	74.27385       	74.30569       	74.36778       	74.02968       	74.37921       	74.19764       	74.062874      	74.44553       	74.24537       	74.06958       	74.25947       	74.30498       	74.263466      	74.23716       	74.323814      	74.156746      	74.234985      	74.25514       	74.29986       	74.26352       	74.204056      	74.22275       	74.17799       	74.272156      	74.41084       	74.075         	74.35007       	73.91625       	74.41521       	81.33057       	73.96381       	74.28362       	74.174774      	74.302826      	74.31248       	74.24037       	74.364174      	74.41499       	74.630905      	74.46614       	
74.16935       	74.29508       	74.28762       	74.108696      	74.23514       	74.358406      	74.31635       	74.21999       	74.05817       	74.322624      	74.21738       	74.23543       	74.177376      	74.24881       	74.243935      	74.17786       	74.303345      	74.2673        	74.27338       	74.30665       	74.12583       	74.23336       	74.2162        	73.80921       	74.15741       	73.41886       	79.333855      	76.70846       	74.06562       	74.31647       	74.260635      	74.081795      	74.2959        	74.22617       	74.28565       	74.20345       	74.28615       	74.1831        	74.19199       	74.41296       	74.210266      	74.31063       	74.210815      	74.31154       	74.089294      	74.02985       	74.2218        	74.27946       	74.15822       	74.37302       	74.222404      	74.3436        	74.21131       	74.31663       	74.279274      	74.41149       	74.51473       	71.265816      	68.076996      	74.176384      	74.1892        	74.245285      	74.28731       	74.40388       	74.11292       	74.142494      	74.31698       	74.33848       	74.18375       	74.17454       	74.364494      	74.140625      	74.253136      	74.095184      	74.324234      	74.357185      	74.195786      	74.178535      	74.146484      	74.29467       	74.21514       	74.32619       	74.11666       	74.189354      	74.1522        	74.16094       	74.29915       	73.809875      	75.57535       	80.42763       	74.38701       	74.16859       	74.341576      	74.20478       	74.17018       	74.27638       	74.58344       	74.405785      	74.438194      	74.379265      	
74.21056       	74.18779       	74.1481        	74.273605      	74.26752       	74.353355      	74.309814      	74.19849       	74.24907       	74.22568       	74.306145      	74.21531       	74.21285       	74.14565       	74.25957       	74.30143       	74.088905      	74.36497       	74.166794      	74.27471       	74.229645      	74.129196      	74.29528       	74.287315      	73.82398       	73.60229       	78.52635       	77.47493       	74.401985      	74.062675      	74.39239       	74.20037       	74.32522       	74.16096       	74.412926      	74.10658       	74.39895       	74.34282       	74.07301       	74.29004       	74.153145      	74.35933       	74.21437       	74.221085      	74.24769       	74.30327       	74.2302        	74.20854       	74.43998       	74.29297       	74.000175      	74.4137        	74.2029        	74.49217       	74.23403       	74.25954       	74.69112       	71.74996       	67.509705      	73.44393       	74.25086       	74.201         	74.381836      	74.18549       	74.25338       	74.20819       	74.21976       	74.27526       	74.23522       	74.233604      	74.25672       	74.23059       	74.23172       	74.324234      	74.23821       	74.20657       	74.281944      	74.26222       	74.13291       	74.24706       	74.355965      	74.23329       	74.19718       	74.15622       	74.23307       	74.181816      	74.14283       	73.63856       	77.17279       	79.188354      	74.69948       	74.12739       	74.142         	74.17436       	74.40804       	74.302605      	74.46735       	74.56721       	74.541016      	74.326225      	
74.29559       	74.17702       	74.13188       	74.177536      	74.36113       	74.31365       	74.17304       	74.254265      	74.36619       	74.16057       	74.300674      	74.16287       	74.2739        	74.193565      	74.19783       	74.29634       	74.27019       	74.26324       	74.03707       	74.23614       	74.22323       	74.35034       	74.10184       	74.22793       	73.99099       	73.41924       	79.303314      	76.77648       	74.14698       	74.23027       	74.23031       	74.34298       	74.19821       	74.304596      	74.198         	74.358376      	74.19679       	74.20448       	74.38609       	74.11277       	74.38016       	74.23529       	74.1025        	74.41021       	74.11628       	74.13392       	74.44297       	74.0482        	74.34972       	74.452126      	74.1965        	74.295654      	74.216866      	74.21968       	74.263626      	74.37656       	74.56234       	72.36732       	67.70683       	72.3127        	74.386635      	74.19614       	74.24093       	74.379074      	74.09146       	74.16036       	74.36909       	74.19659       	74.21202       	74.34145       	74.11536       	74.34204       	74.241646      	74.229744      	74.177444      	74.29599       	74.29975       	74.23415       	74.12626       	74.15178       	74.4275        	74.2763        	74.09902       	74.27779       	74.14625       	74.14506       	74.19101       	73.86149       	77.27849       	79.65136       	74.17796       	74.239876      	74.34717       	74.11049       	74.4174        	74.369514      	74.22065       	74.413185      	74.54038       	74.464134      	
74.19118       	74.16897       	74.38694       	74.29516       	74.18273       	74.14475       	74.25356       	74.39702       	74.26457       	74.181206      	74.08938       	74.36184       	74.24367       	74.25977       	74.29221       	74.08986       	74.288414      	74.2738        	74.27786       	74.20413       	74.194275      	74.24467       	74.06715       	74.36989       	74.22339       	73.51133       	76.880585      	79.13998       	74.48635       	74.18396       	74.16263       	74.31159       	74.22502       	74.354095      	74.218636      	74.272705      	74.22699       	74.267746      	74.29992       	74.09624       	74.41457       	74.20159       	74.384995      	73.99554       	74.29712       	74.302246      	74.37336       	74.23775       	74.20095       	74.30644       	74.29198       	74.306885      	74.1648        	74.30031       	74.3888        	74.49235       	74.66778       	72.34945       	67.4766        	73.961975      	74.42816       	74.11389       	74.30979       	74.43296       	74.02216       	74.12858       	74.39088       	74.40098       	74.1973        	74.1459        	74.217186      	74.27127       	74.30148       	74.197464      	74.24029       	74.08929       	74.26469       	74.23173       	74.23836       	74.29898       	74.25265       	74.175934      	74.0863        	74.31746       	74.24825       	74.147224      	74.14573       	73.846375      	77.54455       	78.408295      	74.3337        	74.32595       	74.39801       	74.2313        	74.3672        	75.82465       	74.28871       	72.52049       	73.00275       	73.939255      	
74.10136       	74.162025      	74.31775       	74.18968       	74.14353       	74.29384       	74.350555      	74.299644      	74.21815       	74.21382       	74.11888       	74.4058        	74.236336      	74.12122       	74.3592        	74.08946       	74.3446        	74.223495      	74.24064       	74.223625      	74.2203        	74.31248       	74.16249       	74.21531       	74.092125      	73.81956       	74.41293       	81.02804       	74.09631       	74.23878       	74.06091       	74.237816      	74.278366      	74.32722       	74.1174        	74.15895       	74.321884      	74.25144       	74.39105       	74.12836       	74.21859       	74.32545       	74.2661        	74.20362       	74.330925      	74.12133       	74.27954       	74.238304      	74.38957       	74.21408       	74.13685       	74.277275      	74.27395       	74.33997       	74.362114      	74.23307       	74.65062       	72.45014       	67.93297       	72.687645      	74.14874       	74.33761       	74.246956      	74.28447       	74.17489       	74.19792       	74.252754      	74.1991        	74.22511       	74.41692       	74.13222       	74.322495      	74.21919       	74.20594       	74.17494       	74.20413       	74.41275       	74.231995      	74.15722       	74.16692       	74.09151       	74.38835       	74.1808        	74.119865      	74.19851       	74.15237       	74.20802       	74.16575       	75.02698       	78.19765       	74.926796      	74.19207       	73.4621        	74.66776       	78.2546        	79.0921        	75.834625      	73.58796       	66.82313       	71.79228       	
74.08306       	74.31516       	74.2129        	74.285194      	74.11277       	74.176125      	74.43102       	74.13349       	74.262596      	74.0899        	74.27784       	74.28033       	74.29524       	74.00727       	74.08414       	74.30714       	74.11307       	74.36387       	74.04349       	74.06818       	74.34566       	74.25222       	74.19006       	74.28816       	74.116745      	74.09084       	74.10857       	81.11782       	74.30836       	73.84457       	73.870316      	73.28746       	74.16342       	74.58767       	74.27907       	73.77195       	74.393166      	74.253006      	74.005165      	73.29691       	74.54777       	74.44769       	73.9331        	73.29782       	74.674446      	73.91433       	73.56794       	74.18524       	74.91561       	73.34065       	73.13777       	74.298515      	74.36283       	74.221436      	74.402374      	73.12144       	74.44515       	73.34415       	64.22215       	74.46278       	74.21787       	74.151245      	74.62904       	74.055214      	74.097466      	74.411476      	74.19313       	74.15652       	74.322266      	74.17325       	74.43768       	74.19709       	74.26899       	74.187775      	74.21821       	74.16774       	74.35321       	74.402306      	74.15705       	74.14536       	74.22417       	74.23735       	74.33357       	74.282036      	74.07899       	74.318634      	74.1308        	74.20433       	74.223015      	74.42681       	74.17835       	74.12074       	73.63912       	77.300865      	82.120125      	79.48743       	74.21384       	72.92952       	73.83038       	59.782692      	
74.04923       	74.22604       	74.2824        	74.27569       	74.32425       	74.156586      	74.38082       	74.18395       	74.21697       	74.31328       	74.117134      	74.36181       	74.23301       	74.23666       	74.22919       	74.19196       	74.31832       	74.24857       	74.29753       	74.12593       	74.17698       	74.36005       	74.21507       	74.27752       	74.16613       	74.23442       	73.95383       	74.74294       	75.115906      	72.739         	73.77295       	73.31248       	74.44343       	74.733         	75.10067       	73.305954      	74.91591       	72.26331       	73.55125       	73.802246      	74.31167       	74.36897       	74.175095      	74.12909       	74.430725      	74.09544       	74.34988       	74.522675      	73.94707       	74.243835      	74.13382       	74.33453       	74.06264       	74.37785       	74.14729       	74.478485      	74.12287       	74.08221       	74.27618       	74.26857       	74.214165      	74.2078        	74.41551       	73.7289        	74.33145       	74.174255      	74.183586      	74.33483       	74.233826      	74.2294        	74.208         	74.197586      	74.31985       	74.27019       	74.206024      	74.202484      	74.27282       	74.20971       	74.42988       	74.13162       	74.12171       	74.31796       	74.28698       	74.09504       	74.43207       	74.08668       	74.23977       	74.254814      	74.32983       	74.40168       	74.19642       	74.30474       	74.24559       	73.683235      	75.964584      	79.84098       	75.70824       	69.01097       	70.100105      	71.81783       	
74.28889       	74.36383       	74.26187       	74.220924      	74.24094       	74.16455       	74.23202       	74.19905       	74.3324        	74.2394        	74.14861       	74.334755      	74.28609       	74.42781       	74.211365      	74.09332       	74.15133       	74.35318       	74.259476      	74.23007       	74.289566      	74.22891       	74.24737       	74.31745       	74.275215      	74.163765      	74.23614       	74.481186      	74.19004       	74.221344      	74.202736      	74.18685       	74.370735      	74.14626       	74.12573       	74.22967       	74.37469       	74.22504       	74.18172       	74.357285      	74.256165      	74.3265        	74.36246       	74.322525      	74.1374        	73.98218       	74.32807       	74.394066      	74.202034      	74.21195       	74.42559       	74.12173       	74.05667       	74.231026      	74.32908       	74.2345        	74.16711       	74.153305      	74.14877       	74.34067       	74.16046       	74.31101       	74.157364      	74.34314       	74.19983       	74.036285      	74.33148       	74.26436       	74.38424       	74.083176      	74.2203        	74.409775      	74.16593       	74.20993       	74.08069       	74.32435       	74.503525      	74.0838        	74.33417       	74.2386        	74.41599       	74.198395      	74.139725      	74.28382       	74.23574       	74.37088       	74.30102       	74.21868       	74.22349       	74.590096      	74.35776       	74.20246       	74.29921       	74.025276      	74.234116      	74.28073       	74.32922       	74.54356       	74.609146      	74.65069       	
74.37123       	74.23793       	74.29881       	74.33061       	74.15865       	74.24659       	74.3478        	74.294785      	74.255806      	74.1681        	74.296295      	74.278145      	74.23626       	74.20389       	74.159645      	74.29878       	74.24637       	74.27899       	74.219406      	74.33125       	74.335846      	74.2346        	74.35072       	74.27164       	74.22612       	74.03769       	74.278244      	74.567604      	74.06468       	74.240715      	74.271255      	74.19477       	74.27526       	74.19906       	74.287636      	74.34496       	74.29763       	74.11292       	74.11625       	74.34289       	74.58162       	74.133125      	74.09103       	74.18707       	74.383865      	74.25221       	74.25954       	74.36278       	74.2962        	74.16764       	74.31443       	74.191925      	74.11225       	74.30215       	74.22269       	74.20689       	74.19212       	74.30178       	74.083916      	74.09056       	74.2572        	74.22074       	74.45471       	74.18423       	74.34425       	74.06876       	74.16514       	74.37813       	74.23653       	74.09779       	74.40637       	74.15695       	74.221794      	74.302284      	74.340645      	74.070076      	74.41579       	74.23955       	74.14211       	74.32754       	74.20834       	74.27079       	74.406136      	74.11894       	74.31149       	74.19996       	74.3231        	74.285675      	74.48044       	74.39931       	74.231606      	74.241325      	74.07876       	74.18826       	74.349075      	74.388855      	74.29003       	74.16858       	74.74657       	74.634125      	
74.18527       	74.15787       	74.159584      	74.24317       	74.33928       	74.29214       	74.32555       	74.1862        	74.207146      	74.272995      	74.30796       	74.20012       	74.17633       	74.26318       	74.26085       	74.32351       	74.19781       	74.23828       	74.18844       	74.37857       	74.16653       	74.41161       	74.144844      	74.24964       	74.32215       	74.12944       	74.38217       	74.42849       	74.035934      	74.26068       	74.354195      	74.18223       	74.269966      	74.26984       	74.097115      	74.33175       	74.509735      	74.244576      	74.06527       	74.31655       	74.23287       	74.035866      	74.2578        	74.27571       	74.225746      	74.2167        	74.17401       	74.42285       	74.55819       	74.13225       	74.20535       	74.284836      	74.18694       	74.312645      	74.01398       	74.199905      	74.21747       	74.315125      	73.9761        	74.41977       	74.13034       	74.25137       	74.39099       	74.158264      	74.22832       	74.13127       	74.31526       	74.269485      	74.19654       	74.314995      	74.110756      	74.33149       	74.25052       	74.27539       	74.36921       	74.12578       	74.40594       	74.33229       	74.243324      	74.2959        	74.32554       	74.12661       	74.37247       	74.19924       	74.3199        	74.18844       	74.22687       	74.298256      	74.35923       	74.4257        	74.39989       	74.36624       	73.90179       	74.31776       	74.404175      	74.29929       	74.21175       	74.242775      	74.651955      	74.691574      	
74.247665      	74.3505        	74.25146       	74.11193       	74.38373       	74.273125      	74.17284       	74.259125      	74.30889       	74.1118        	74.27416       	74.136826      	74.21844       	74.378456      	74.22413       	74.2806        	74.27734       	74.18371       	74.31978       	74.239105      	74.16418       	74.38657       	74.053055      	74.433876      	74.20968       	74.32198       	74.17338       	74.37461       	74.41829       	74.015396      	74.26817       	74.263504      	74.294876      	74.15908       	74.06893       	74.53019       	74.59258       	74.17471       	74.2785        	74.18209       	74.1818        	74.106606      	74.15627       	74.13227       	74.32425       	74.291695      	74.243996      	74.2268        	74.28458       	74.31089       	74.240685      	74.113655      	74.423         	74.31237       	74.11043       	74.27398       	74.10939       	74.26771       	74.27742       	74.022194      	74.30874       	74.137146      	74.31386       	74.228745      	74.2674        	74.27147       	74.15869       	74.37647       	74.30686       	74.217         	74.2653        	74.353546      	74.13434       	74.246704      	74.28372       	74.22355       	74.32872       	74.18841       	74.35929       	74.23968       	74.2355        	74.15975       	74.31462       	74.12269       	74.3293        	74.2274        	74.26536       	74.26823       	74.45424       	74.42748       	74.40082       	74.091194      	74.01097       	74.40847       	74.32832       	74.29069       	74.415504      	74.53543       	74.388435      	74.29715       	
74.26019       	74.08687       	74.27839       	74.39244       	74.05734       	74.38666       	74.153015      	74.25568       	74.287796      	74.27062       	74.20687       	74.167694      	74.305016      	74.10592       	74.25764       	74.40585       	74.42703       	74.211296      	74.21617       	74.25074       	74.00209       	74.57384       	74.11052       	74.2478        	74.25762       	74.11565       	74.34144       	74.63784       	74.2904        	74.0665        	74.16182       	74.28883       	74.26693       	74.25767       	74.18473       	74.38664       	74.37527       	74.12042       	74.309975      	74.09344       	74.146645      	74.271324      	74.35299       	74.39313       	74.1704        	74.15169       	74.33015       	74.36316       	74.233376      	74.15385       	74.32864       	74.10216       	74.3834        	74.34294       	74.162544      	74.15576       	74.240265      	74.27776       	74.038864      	74.13949       	74.32208       	74.03336       	74.352516      	74.21514       	74.23075       	74.24339       	74.28147       	74.24712       	74.238686      	74.435455      	73.99266       	74.33389       	74.2911        	74.19634       	74.2212        	74.3025        	74.340034      	74.28709       	74.25496       	74.22214       	74.17087       	74.38089       	74.25686       	74.05872       	74.32037       	74.56085       	74.159294      	74.25962       	74.316055      	74.61004       	74.22272       	74.167534      	74.09872       	74.4679        	74.22148       	74.20849       	74.315155      	74.55778       	74.52513       	74.403824      	
74.21286       	74.20069       	74.32166       	74.25038       	74.05254       	74.330345      	74.29358       	74.276306      	74.15516       	74.408356      	74.157715      	74.2686        	74.17518       	74.19688       	74.23676       	74.30207       	74.220215      	74.34469       	74.14301       	74.28397       	74.263466      	74.305176      	74.21293       	74.21153       	74.1911        	74.32759       	74.24782       	74.43989       	74.44238       	74.288536      	74.06361       	74.3364        	74.23687       	74.06284       	74.22186       	74.3404        	74.18136       	74.19052       	74.22131       	74.31421       	74.28178       	74.13582       	74.24289       	74.3617        	74.21748       	74.21634       	74.174484      	74.388145      	74.24533       	74.300446      	74.32945       	74.151924      	74.27331       	74.483246      	74.10405       	74.27465       	74.14974       	74.16128       	74.06453       	74.2544        	74.24068       	74.25226       	74.230515      	74.055664      	74.31821       	74.23549       	74.245834      	74.26243       	74.26319       	74.203575      	74.20043       	74.3652        	74.25753       	74.201515      	74.2715        	74.140816      	74.407166      	74.2063        	74.372604      	74.22684       	74.066086      	74.265884      	74.44308       	74.381935      	74.09832       	74.265976      	74.34036       	74.30786       	74.190895      	74.45225       	74.442314      	74.33761       	73.917145      	74.265686      	74.30215       	74.333115      	74.38762       	74.324936      	74.56459       	74.2634        	
74.271706      	74.12722       	74.20311       	74.329025      	74.21863       	74.243034      	74.31273       	74.07402       	74.243904      	74.42622       	74.16087       	74.115234      	74.27098       	74.258705      	74.42238       	74.3028        	74.10567       	74.24424       	74.23454       	74.41631       	74.31127       	74.06212       	74.39348       	74.298294      	74.12736       	74.34045       	74.25611       	74.413826      	74.298004      	74.332054      	74.25543       	74.031975      	74.1594        	74.281815      	74.2694        	74.143486      	74.29489       	74.222115      	74.30653       	74.28356       	74.35026       	74.17191       	74.268524      	74.28322       	74.20939       	74.375916      	74.356285      	74.043625      	74.287254      	74.195984      	74.29712       	74.22236       	74.15835       	74.69414       	74.066956      	74.103874      	74.3895        	74.29507       	73.924805      	74.12905       	74.27581       	74.20759       	74.278465      	74.2276        	74.29644       	74.31313       	74.201225      	74.2663        	74.280716      	74.165085      	74.10107       	74.45613       	74.29598       	74.30896       	74.12932       	74.16542       	74.32906       	74.23447       	74.319374      	74.20001       	74.24866       	74.222435      	74.3874        	74.38006       	74.12307       	74.312035      	74.32017       	74.19479       	74.18126       	74.65638       	74.25271       	74.18415       	74.2569        	74.013756      	74.38746       	74.27954       	74.38179       	74.396774      	74.48914       	74.452614      	
74.199615      	74.348404      	74.15738       	74.27864       	74.087006      	74.409836      	74.21226       	74.22118       	74.36449       	74.19478       	74.33522       	74.15843       	74.25          	74.20058       	74.47207       	74.220085      	74.16441       	74.311584      	74.22116       	74.19827       	74.1951        	74.31917       	74.22846       	74.334015      	74.20323       	74.194595      	74.381386      	74.25612       	74.476654      	74.31296       	74.16122       	74.22612       	74.16387       	74.38768       	74.149765      	74.28024       	74.348816      	74.03275       	74.41784       	74.136345      	74.334305      	74.21529       	74.126045      	74.34785       	74.09587       	74.3452        	74.18659       	74.37758       	74.16902       	74.38067       	74.25582       	74.23202       	74.25629       	74.3745        	74.25768       	74.17531       	74.12042       	74.31528       	73.97751       	74.381065      	74.02456       	74.36353       	74.31902       	74.162735      	74.309166      	74.15124       	74.27273       	74.26265       	74.22724       	74.30761       	74.16295       	74.12863       	74.38496       	74.21915       	74.35341       	74.11893       	74.38469       	74.28868       	74.27836       	74.25161       	74.34696       	74.24881       	74.28066       	74.133644      	74.366325      	74.28182       	74.27564       	74.0975        	74.44603       	74.57194       	74.22776       	74.36289       	74.310455      	73.85116       	74.51696       	74.318756      	74.37667       	74.44312       	74.407616      	74.38736       	
74.301445      	74.09514       	74.41243       	74.210106      	74.13846       	74.23718       	74.39191       	74.099106      	74.34466       	74.29631       	74.10472       	74.37438       	74.08407       	74.28992       	74.369896      	74.1514        	74.38112       	74.08221       	74.42274       	74.15383       	74.32112       	74.17083       	74.18264       	74.24415       	74.39714       	74.31541       	74.091034      	74.399185      	74.436775      	74.17084       	74.36922       	74.257286      	74.14173       	74.20504       	74.331566      	74.190605      	74.1834        	74.245155      	74.2221        	74.357346      	74.21185       	74.25896       	74.209076      	74.228745      	74.35125       	74.1406        	74.37274       	74.31981       	74.12265       	74.18716       	74.13708       	74.473076      	74.184944      	74.41759       	74.108025      	74.22267       	74.383415      	74.41999       	74.02594       	74.152245      	74.21624       	74.297516      	74.2081        	74.152916      	74.25832       	74.150116      	74.31854       	74.318596      	74.35794       	74.15881       	74.283516      	74.18091       	74.26695       	74.37619       	74.10704       	74.30344       	74.36324       	74.212776      	74.273964      	74.339424      	74.18632       	74.170715      	74.103836      	74.39245       	74.28966       	74.2567        	74.20655       	74.18611       	74.54152       	74.15611       	74.381065      	74.12207       	74.39022       	74.25657       	74.33855       	74.3004        	74.35634       	74.483         	74.4457        	74.34543       	
74.24557       	74.17703       	74.40887       	74.373566      	74.20801       	74.12939       	74.31804       	74.19774       	74.27004       	74.38527       	74.0823        	74.282974      	74.35066       	74.25482       	74.35081       	74.04944       	74.24714       	74.30792       	74.274826      	74.139175      	74.32315       	74.181335      	74.342415      	74.221375      	74.2609        	74.13576       	74.4985        	74.27941       	74.23259       	74.42615       	74.01783       	74.464966      	74.104095      	74.22544       	74.31662       	74.245026      	74.2452        	74.29434       	74.28134       	74.24641       	74.242004      	74.21309       	74.20485       	74.078384      	74.33457       	74.20861       	74.39012       	74.27773       	74.21159       	74.40677       	74.32943       	74.14147       	74.21501       	74.349365      	74.24911       	74.23725       	74.31766       	74.26162       	74.003586      	74.16604       	74.23285       	74.307465      	74.116905      	74.22938       	74.23403       	74.320694      	74.27537       	74.27522       	74.334145      	74.132996      	74.43981       	74.183846      	74.250046      	74.34778       	74.10287       	74.281006      	74.32378       	74.2468        	74.342926      	74.09461       	74.46787       	74.18669       	74.25621       	74.16194       	74.14249       	74.19026       	74.391556      	74.2669        	74.35042       	74.34896       	74.30825       	74.26074       	74.46971       	74.275475      	74.21317       	74.35352       	74.48679       	74.47808       	74.35098       	74.20362       	
74.082466      	74.33149       	74.354744      	74.13497       	74.17942       	74.26763       	74.354034      	74.31687       	74.08304       	74.26814       	74.20216       	74.31566       	74.31905       	74.13129       	74.194756      	74.34184       	74.29067       	74.09148       	74.26532       	74.25543       	74.42082       	74.183105      	74.25218       	74.17288       	74.234116      	74.24983       	74.32598       	74.42715       	74.21437       	74.24167       	74.33296       	74.315216      	74.21685       	74.03389       	74.23683       	74.3928        	74.30231       	74.117134      	74.25917       	74.262375      	74.220825      	74.1394        	74.25088       	74.31492       	74.20836       	74.353615      	74.15888       	74.2979        	74.23937       	74.46142       	74.1687        	74.315796      	74.0936        	74.57358       	74.158325      	74.10856       	74.45286       	74.25435       	73.91936       	74.03328       	74.2475        	74.16795       	74.18258       	74.33029       	74.17058       	74.33599       	74.31895       	74.10125       	74.43082       	74.13098       	74.27889       	74.21465       	74.35273       	74.16208       	74.39576       	74.27882       	74.21519       	74.23957       	74.233315      	74.318375      	74.24345       	74.39694       	74.23915       	74.13249       	74.48652       	74.08601       	74.306335      	74.30236       	74.21909       	74.331924      	74.25194       	74.37198       	74.602554      	74.02251       	74.31188       	74.43287       	74.296555      	74.360435      	74.51144       	74.35164       	
74.25021       	74.38097       	74.11041       	74.20751       	74.400696      	74.138374      	74.25509       	74.31301       	74.21943       	74.30937       	74.06002       	74.47627       	74.099846      	74.45907       	74.04359       	74.21465       	74.47312       	74.10221       	74.311104      	74.29021       	74.19714       	74.38053       	74.2486        	74.181526      	74.12093       	74.51816       	74.25598       	74.21849       	74.456184      	74.17865       	74.25584       	74.21774       	74.01608       	74.42982       	74.2099        	74.23722       	74.33645       	74.41178       	74.10766       	74.381065      	74.10163       	74.244225      	74.29557       	74.12938       	74.364555      	74.31637       	74.41067       	73.85422       	74.41975       	74.26612       	74.29987       	74.27736       	74.10536       	74.49456       	74.19141       	74.1759        	74.26336       	74.143715      	73.984406      	74.23945       	74.181404      	74.25855       	74.248985      	74.20717       	74.2302        	74.228134      	74.2266        	74.37884       	74.21025       	74.23561       	74.16178       	74.269516      	74.28531       	74.39868       	74.15389       	74.253006      	74.20657       	74.344604      	74.239075      	74.29771       	74.435646      	74.184044      	74.30608       	74.15005       	74.32086       	74.2594        	74.20544       	74.33647       	74.16926       	74.43625       	74.48054       	74.40015       	74.20183       	74.34634       	74.35147       	74.19709       	74.136154      	74.41014       	74.6808        	74.484245      	
74.105644      	74.180916      	74.277405      	74.20924       	74.36142       	74.19471       	74.15986       	74.34451       	74.25401       	74.28068       	74.242134      	74.22592       	74.252625      	74.25879       	74.16181       	74.321075      	74.2063        	74.24637       	74.3249        	74.30962       	74.126945      	74.195335      	74.31658       	74.29984       	74.08048       	74.22608       	74.44035       	74.326195      	74.3728        	74.31723       	74.17396       	74.144165      	74.35696       	74.19516       	74.25572       	74.2917        	74.15063       	74.36329       	74.07857       	74.39003       	74.34151       	74.08988       	74.00848       	74.25726       	74.566284      	74.196304      	74.29684       	74.17796       	74.10579       	74.45331       	74.15278       	74.17765       	74.40971       	74.198524      	74.28261       	74.358         	74.24533       	74.0111        	74.052155      	74.19797       	74.41992       	74.23803       	74.01826       	74.398186      	74.18783       	74.13939       	74.28407       	74.26261       	74.29983       	74.25661       	74.14275       	74.25236       	74.31946       	74.19733       	74.31954       	74.17822       	74.13942       	74.38691       	74.30803       	74.34573       	74.26948       	74.14516       	74.297615      	74.27272       	74.24621       	74.31015       	74.08468       	74.44877       	74.20509       	74.518654      	74.361244      	74.18907       	74.33814       	74.3706        	74.33199       	74.14331       	74.32484       	74.37031       	74.52381       	74.37847       	
74.139305      	74.18141       	74.37055       	74.30906       	74.09056       	74.291855      	74.145805      	74.355095      	74.279045      	74.303375      	74.19226       	74.2211        	74.1515        	74.32201       	74.47596       	74.1803        	74.2082        	74.35615       	74.17204       	74.21494       	74.12206       	74.423164      	74.14115       	74.26831       	74.21797       	74.30704       	74.29714       	74.46343       	74.435875      	74.00598       	74.12882       	74.40725       	74.12954       	74.205246      	74.16259       	74.18765       	74.40064       	74.375824      	74.20963       	74.23764       	74.255585      	74.18078       	74.217         	74.5223        	74.24888       	74.24579       	74.28938       	74.082886      	74.13645       	74.404564      	74.24985       	74.10208       	74.26235       	74.36569       	74.40679       	74.12691       	74.025406      	74.29376       	73.9925        	74.3157        	74.37574       	74.158         	74.2671        	74.1244        	74.45347       	74.3077        	74.165955      	74.37175       	74.12682       	74.305504      	74.1971        	74.361755      	74.22626       	74.24518       	74.414444      	74.14806       	74.197235      	74.35755       	74.22612       	74.23813       	74.33472       	74.255104      	74.16787       	74.23036       	74.2468        	74.338875      	74.14259       	74.358025      	74.14009       	74.73555       	74.10061       	74.23613       	74.247345      	74.06275       	74.40663       	74.26815       	74.5021        	74.740425      	74.42729       	74.59495       	
74.28717       	74.30066       	74.15064       	74.29929       	74.1232        	74.346054      	74.309845      	74.19342       	74.368614      	74.14838       	74.16034       	74.35894       	74.257645      	74.20736       	74.1847        	74.244995      	74.43499       	74.1501        	74.45161       	74.18773       	74.229         	74.24116       	74.25173       	74.30374       	74.25608       	74.14935       	74.319916      	74.58316       	74.35798       	74.0292        	74.181435      	74.23674       	74.33128       	74.43786       	74.04043       	74.17976       	74.39043       	74.21501       	74.21781       	74.20211       	74.22492       	74.185585      	74.43614       	74.35293       	74.17454       	74.24256       	74.17129       	74.20964       	74.22741       	74.20854       	74.30561       	74.179985      	74.35251       	74.191864      	74.38093       	74.27377       	74.12356       	74.18319       	74.25603       	74.0999        	74.334854      	74.37864       	74.20553       	74.012856      	74.25711       	74.31546       	74.20557       	74.28908       	74.307045      	74.443275      	74.09882       	74.28549       	74.26755       	74.29532       	74.21248       	74.213356      	74.327705      	74.104034      	74.188255      	74.494606      	74.19237       	74.0606        	74.37382       	74.322624      	74.23126       	74.203094      	74.186325      	74.578766      	74.21393       	74.49645       	74.36222       	74.23684       	74.2651        	74.0387        	74.12539       	74.31958       	74.41952       	74.69379       	74.5354        	74.44046       	
74.04953       	74.23291       	74.13711       	74.211716      	74.098366      	74.432594      	74.23547       	74.24785       	74.150246      	74.180214      	74.339584      	74.50625       	74.05653       	74.31115       	74.28164       	74.14493       	74.35169       	74.22976       	74.190994      	74.32329       	74.30589       	74.25549       	74.25127       	74.136116      	74.439995      	74.30345       	74.231926      	74.440834      	74.15883       	74.10337       	74.118324      	74.407906      	74.20457       	74.25521       	74.197296      	74.1124        	74.39462       	74.346565      	74.12964       	74.22623       	74.20009       	74.206314      	74.6471        	74.50678       	73.8903        	74.13237       	74.27597       	74.189575      	74.31361       	73.95754       	74.33258       	74.41634       	74.32616       	74.19338       	74.3237        	74.14379       	74.245674      	74.13614       	74.03552       	74.13811       	74.37987       	74.18219       	74.36731       	74.25431       	74.22207       	74.167915      	74.23397       	74.37041       	74.281425      	74.07869       	74.36555       	74.17895       	74.280396      	74.309006      	74.11067       	74.3221        	74.39148       	74.158936      	74.19407       	74.446144      	74.20982       	74.20914       	74.25936       	74.244896      	74.26417       	74.35409       	74.20783       	74.257904      	74.15552       	74.50488       	74.34952       	74.209236      	74.32365       	74.22522       	74.22997       	74.26529       	74.310234      	74.52124       	74.44538       	74.413414      	
74.29118       	74.038284      	74.38868       	74.19025       	74.242775      	74.41313       	74.08672       	74.21468       	74.43458       	74.03108       	74.45582       	74.20281       	74.13677       	74.33777       	74.321075      	74.28475       	74.07108       	74.34798       	74.15868       	74.29236       	74.40427       	74.30601       	74.18789       	73.97547       	74.45933       	74.41192       	74.13723       	74.31485       	74.26994       	74.09318       	74.3779        	74.35977       	74.287575      	74.20137       	74.36507       	74.319374      	74.29598       	74.1391        	73.956055      	74.46381       	74.16214       	74.18258       	74.48667       	74.07589       	74.39664       	74.144066      	74.2667        	74.45067       	74.131065      	74.2942        	74.25107       	74.299614      	74.21251       	74.21855       	74.435394      	74.16102       	74.44774       	74.22638       	73.94705       	74.11791       	74.35691       	74.12642       	74.381424      	74.123375      	74.28713       	74.30123       	74.25852       	74.17786       	74.139854      	74.20811       	74.3522        	74.281425      	74.40022       	74.128975      	74.23356       	74.3127        	74.24562       	74.14672       	74.39699       	74.39587       	74.15043       	74.32359       	74.34001       	74.21333       	74.28387       	74.23832       	74.12183       	74.28868       	74.43384       	74.3162        	74.305626      	74.35531       	74.32848       	74.169235      	74.25056       	74.299904      	74.39562       	74.397865      	74.5623        	74.41146       	
74.00307       	74.06328       	74.35406       	74.251816      	74.14462       	74.22722       	74.33178       	74.2537        	74.27893       	74.18647       	74.252304      	74.27424       	74.28589       	74.171936      	74.20152       	74.19503       	74.29646       	74.16327       	74.25945       	74.32066       	74.22519       	74.296074      	74.18976       	74.47328       	74.192825      	74.15875       	74.34497       	74.37628       	74.25076       	74.216866      	74.208115      	74.20273       	74.37149       	74.32716       	74.2962        	74.32567       	74.226204      	74.32017       	73.97974       	74.05951       	74.36653       	74.4993        	74.13745       	74.078896      	74.28074       	74.205055      	74.25527       	74.35625       	74.23286       	74.325134      	74.31002       	74.23179       	74.2636        	74.170334      	74.5207        	74.38456       	74.233315      	74.22445       	74.00804       	74.010605      	74.319855      	74.246056      	74.10296       	74.32549       	74.25565       	74.23566       	74.32423       	74.14707       	74.34714       	74.16209       	74.2817        	74.303375      	74.17721       	74.3239        	74.14568       	74.41347       	74.27186       	74.47612       	74.19134       	74.28801       	74.22764       	74.142044      	74.342606      	74.14237       	74.289825      	74.353355      	74.20867       	74.16558       	74.28671       	74.57581       	74.02207       	74.39862       	74.382545      	74.28673       	74.13573       	74.23306       	74.44729       	74.52974       	74.53286       	74.45043       	
74.18161       	74.23624       	74.20022       	74.33014       	74.1575        	74.40795       	74.057724      	74.24138       	74.52494       	74.068115      	74.172         	74.324005      	74.17773       	74.23828       	74.34237       	74.13227       	74.23601       	74.282425      	74.20363       	74.39689       	74.22077       	74.196846      	74.31231       	74.2742        	74.35616       	74.093346      	74.40168       	74.384834      	74.09209       	74.37356       	74.08516       	74.218315      	74.48774       	74.24369       	74.26484       	74.390274      	74.250305      	74.15383       	74.14582       	74.15915       	74.44169       	74.041176      	74.21812       	74.25832       	74.36224       	74.29631       	74.128944      	74.34518       	74.216446      	74.325935      	74.2178        	74.28968       	74.27787       	74.22897       	74.3641        	74.50021       	74.293495      	73.87622       	74.16064       	74.10317       	74.14582       	74.254684      	74.30069       	74.23431       	74.2888        	74.21205       	74.25152       	74.21908       	74.31708       	74.306435      	74.08213       	74.38465       	74.191956      	74.28632       	74.348465      	74.108246      	74.25545       	74.262344      	74.40135       	74.09744       	74.200516      	74.34297       	74.1859        	74.38443       	74.27525       	74.30166       	74.225784      	74.120224      	74.234856      	74.67259       	74.19892       	74.28337       	74.18226       	74.12023       	74.298035      	74.33782       	74.32496       	74.47066       	74.4882        	74.339485      	
74.25703       	74.19631       	74.30848       	74.314674      	74.103775      	74.35274       	74.28437       	74.43781       	74.26951       	74.08474       	74.216866      	74.3906        	74.28724       	74.1143        	74.41901       	74.12523       	74.280525      	74.40233       	74.34583       	73.93749       	74.33852       	74.16526       	74.34818       	74.255295      	74.22468       	74.21023       	74.39766       	74.41182       	74.04701       	74.32648       	74.23191       	74.346695      	74.14637       	74.52075       	74.23753       	74.316734      	74.237946      	74.01716       	74.2661        	74.25895       	74.2956        	74.197914      	74.2302        	74.23818       	74.31271       	74.30026       	74.14334       	74.328865      	74.03026       	74.30658       	74.40386       	74.12551       	74.24081       	74.16286       	74.332466      	74.547554      	74.26587       	74.31604       	73.756905      	74.25094       	74.23101       	74.328766      	74.32594       	74.06515       	74.18395       	74.26671       	74.295105      	74.312325      	74.265976      	74.25704       	74.22555       	74.192444      	74.35566       	74.274574      	74.22884       	74.09943       	74.46043       	74.26697       	74.14925       	74.30419       	74.117516      	74.3042        	74.30513       	74.28667       	74.24116       	74.09563       	74.4142        	74.20998       	74.28736       	74.40412       	74.30919       	74.2287        	74.212654      	74.1997        	74.256195      	74.33124       	74.32433       	74.35934       	74.517334      	74.622765      	
74.35379       	74.304016      	74.180534      	74.270035      	74.352165      	74.20554       	74.28424       	74.33361       	74.18247       	74.18466       	74.30626       	74.38684       	74.15542       	74.28672       	74.21402       	74.24481       	74.33339       	74.094475      	74.20727       	74.213646      	74.32197       	74.19937       	74.33745       	74.24641       	74.22003       	74.36404       	74.15996       	74.22438       	74.36333       	74.26384       	74.177246      	74.27137       	74.14782       	74.430984      	74.20819       	74.13405       	74.33896       	74.251175      	74.47382       	74.048485      	74.28772       	74.321175      	74.21454       	74.26791       	74.13405       	74.2768        	74.17888       	74.28821       	74.35794       	74.16493       	74.39128       	74.177444      	74.138855      	74.149475      	74.19516       	74.55949       	74.471985      	74.18579       	73.96717       	74.2518        	74.24013       	74.22772       	74.106895      	74.28689       	74.30062       	74.29658       	74.127464      	74.24886       	74.35948       	74.299934      	74.20465       	74.29051       	74.197014      	74.28612       	74.26018       	74.28029       	74.27254       	74.41842       	74.17378       	74.12773       	74.337776      	74.37046       	74.18493       	74.18587       	74.281395      	74.24331       	74.39202       	74.20694       	74.204575      	74.37452       	74.33122       	74.40428       	74.21445       	74.22769       	74.334404      	74.579956      	74.323456      	74.305916      	74.3287        	74.4467        	
74.08532       	74.24444       	74.12175       	74.43724       	74.181435      	74.28119       	74.267166      	74.30941       	74.08387       	74.27736       	74.42216       	74.140335      	74.184425      	74.322655      	74.19499       	74.33254       	74.1232        	74.26796       	74.13138       	74.52106       	74.06492       	74.20152       	74.352646      	74.32057       	74.20594       	74.20741       	74.37092       	74.21005       	74.33926       	74.15713       	74.33033       	74.28453       	74.22582       	74.32687       	74.12379       	74.19053       	74.35633       	74.3014        	74.37682       	74.147896      	74.25525       	74.26213       	74.39038       	74.33031       	74.23483       	74.054405      	74.26857       	74.42359       	74.04436       	74.50988       	70.7744        	74.218895      	74.23032       	74.08947       	74.22542       	74.2842        	74.51308       	74.08873       	74.18576       	74.303246      	74.18009       	74.33648       	74.181854      	74.20885       	73.8723        	74.234634      	74.21899       	74.13231       	74.36645       	74.24063       	74.489494      	74.29013       	74.259346      	74.3206        	74.34884       	74.11995       	74.07598       	74.02202       	74.29327       	74.39565       	74.280426      	74.192         	74.11373       	74.465614      	74.23398       	74.15431       	74.457634      	74.300354      	74.2027        	74.36754       	74.17452       	74.50427       	74.10243       	74.18324       	74.2837        	74.55377       	74.50777       	74.1405        	74.36828       	74.34312       	
74.11823       	74.12797       	74.26422       	74.44072       	74.24225       	74.155556      	74.27348       	74.3975        	74.14451       	74.30808       	74.02415       	74.25883       	74.31977       	74.2905        	74.10567       	74.34965       	74.25543       	74.36291       	74.07619       	74.30159       	74.30695       	74.29169       	74.27825       	74.176186      	74.26187       	74.31844       	74.30014       	74.27389       	74.3061        	74.22617       	74.214676      	74.141266      	74.36802       	74.24382       	74.11175       	74.35028       	74.30355       	74.11093       	74.35789       	74.42933       	74.08324       	74.224045      	74.246254      	74.17969       	74.41033       	74.21637       	74.486084      	74.147         	74.139175      	74.38455       	74.23191       	74.137184      	74.22654       	74.20642       	74.25706       	74.199135      	74.55693       	74.17428       	74.16622       	74.12583       	73.95136       	74.50057       	74.159035      	74.206635      	74.27723       	74.23067       	74.208626      	74.30792       	74.26902       	74.31912       	74.39053       	74.18397       	74.1967        	74.185936      	74.246445      	74.193535      	74.251686      	74.36675       	74.241806      	74.21421       	74.060905      	74.4536        	74.30027       	74.27264       	74.24193       	74.28561       	74.33316       	74.13133       	74.42106       	74.112526      	74.259346      	74.307686      	74.33705       	74.32619       	74.268814      	74.452156      	74.6316        	74.51539       	74.16371       	74.146545      	
74.05211       	74.20353       	74.20958       	74.37506       	74.37879       	74.06015       	74.39906       	74.14729       	74.25656       	74.30107       	74.08423       	74.39957       	74.22798       	74.21593       	74.23266       	74.18567       	74.30419       	74.207664      	74.17785       	74.45874       	74.257164      	74.29496       	74.21178       	74.031525      	74.523636      	74.16341       	74.23442       	74.27981       	74.313774      	74.279274      	74.1455        	74.265564      	74.43311       	73.9596        	74.31296       	74.33709       	74.16985       	74.25617       	74.31566       	74.58841       	74.2078        	74.167114      	74.063705      	74.21335       	74.46221       	74.16386       	74.36891       	74.08773       	74.170235      	74.204796      	74.39804       	74.32466       	74.17094       	74.1606        	74.238304      	74.32931       	74.37098       	74.510216      	74.168304      	73.772896      	74.293755      	74.23086       	74.23823       	74.37617       	74.10584       	74.41528       	74.21379       	74.31236       	74.33129       	74.22762       	74.314606      	74.10902       	74.20924       	74.17113       	74.184975      	74.32607       	74.40477       	74.22946       	74.07351       	74.4321        	74.37083       	74.182915      	74.47963       	74.26814       	74.2205        	74.32059       	74.0143        	74.36011       	74.30231       	74.497406      	74.40147       	74.16915       	74.2975        	74.15708       	74.38476       	74.58924       	74.35346       	74.327354      	74.61183       	74.479256      	
74.167404      	74.18719       	74.2495        	74.32087       	74.33665       	74.284355      	74.22187       	74.324356      	74.32683       	74.16335       	74.29221       	74.05662       	74.385056      	74.25955       	74.1528        	74.15914       	74.41008       	74.18624       	74.23925       	74.37161       	74.1991        	74.27096       	74.1724        	74.24396       	74.32682       	74.12875       	74.37841       	74.23163       	74.58644       	74.29046       	74.06204       	74.123215      	74.29134       	74.30551       	74.21428       	74.411415      	74.06893       	74.2903        	74.36946       	74.33835       	74.33137       	74.1629        	74.18564       	74.322586      	74.42887       	74.07137       	74.29694       	74.03112       	74.222084      	74.35267       	74.33349       	74.11343       	74.30495       	74.18773       	74.29849       	74.2534        	74.230034      	74.412895      	73.98959       	74.00323       	74.282974      	74.13923       	74.21498       	74.21339       	74.23653       	74.09838       	74.42875       	74.134346      	74.28394       	74.24297       	74.40241       	74.34319       	74.2264        	74.14122       	74.22016       	74.35833       	74.311775      	74.13899       	74.13776       	74.39235       	74.27404       	74.37858       	74.34517       	74.20892       	74.1729        	74.35494       	74.20841       	74.349         	74.343575      	74.43336       	74.1623        	74.257675      	74.41473       	74.40932       	74.277565      	74.07384       	74.517586      	74.45723       	74.51408       	74.52341       	
74.15687       	74.26266       	74.34686       	74.30405       	74.10712       	74.06399       	74.535774      	74.30981       	74.050705      	74.3909        	74.18344       	74.284195      	74.23949       	74.298035      	74.1795        	74.22274       	74.27971       	74.28807       	74.20742       	74.400764      	74.34123       	74.217545      	74.10665       	74.27162       	74.279076      	74.29843       	74.19149       	74.47589       	74.280334      	74.29426       	74.25058       	74.24892       	74.09251       	74.20439       	74.3289        	74.166176      	74.29511       	74.42378       	74.30709       	74.20455       	74.149734      	74.402794      	74.40428       	74.21417       	74.2362        	74.18647       	74.1852        	74.37839       	74.0936        	74.29358       	74.17016       	74.14103       	74.36217       	74.23349       	74.30035       	74.32271       	74.16143       	74.30515       	74.077675      	74.184586      	74.11619       	74.27527       	74.25581       	74.15595       	74.49394       	74.10776       	74.16534       	74.21731       	74.310715      	74.21686       	74.28084       	74.17839       	74.38829       	74.259         	74.145874      	74.334785      	74.22          	74.16831       	74.10004       	74.34327       	74.315575      	74.293236      	74.213234      	74.161316      	74.32384       	74.101265      	74.47517       	74.18668       	74.149605      	74.165955      	73.3783        	74.44242       	74.35052       	73.8234        	73.33434       	73.24451       	74.27232       	76.58839       	73.49351       	72.73637       	
74.11688       	74.231186      	74.18214       	74.23639       	74.326515      	74.25426       	74.08455       	74.10925       	74.18416       	74.156075      	74.16919       	74.325775      	74.27358       	74.27008       	74.28961       	74.2743        	74.290855      	74.24907       	74.10601       	74.22061       	73.954384      	74.20743       	74.29507       	74.27867       	74.23437       	74.14041       	74.34905       	74.555954      	74.11986       	74.50751       	74.22044       	73.942276      	74.11932       	74.30944       	74.19976       	74.25154       	74.349884      	74.47818       	74.3022        	74.3348        	74.10162       	74.32951       	74.2524        	73.697754      	74.283875      	74.05407       	74.34533       	74.24958       	74.24779       	74.358154      	74.281235      	74.08777       	74.19015       	73.92851       	74.60591       	74.1652        	74.43963       	74.47279       	73.999275      	74.10565       	74.368034      	74.20945       	74.35688       	74.20295       	74.40638       	74.21995       	74.10283       	74.26403       	74.295456      	74.27622       	74.170845      	74.29677       	74.265656      	74.339584      	74.21932       	74.06766       	74.396484      	74.24745       	74.22368       	74.16014       	74.34734       	73.98914       	74.11436       	74.15743       	74.24637       	74.32652       	74.35604       	73.99044       	73.579155      	79.24296       	76.11936       	74.120445      	74.61559       	73.81386       	73.385635      	74.621315      	73.88461       	75.39852       	73.92719       	74.083115      	
74.198296      	74.33398       	74.26639       	74.18894       	74.19782       	74.33617       	74.18699       	74.19627       	74.30671       	74.104256      	74.386185      	74.13211       	74.20536       	74.3712        	73.92405       	73.96921       	74.375984      	74.158226      	74.31725       	74.18466       	74.08248       	74.23295       	74.18453       	74.025925      	74.15382       	74.183975      	74.190834      	73.52558       	75.232056      	73.22637       	74.914665      	74.10263       	74.51982       	76.00577       	72.06445       	72.202095      	74.82518       	74.49976       	73.619576      	77.636055      	74.52737       	73.672386      	74.509605      	73.243195      	73.81392       	75.31344       	73.7775        	74.46033       	73.32787       	73.27314       	74.89465       	73.91765       	75.009514      	74.07421       	73.352325      	73.6518        	74.50564       	75.220634      	70.402214      	68.592476      	74.24671       	74.26817       	74.219505      	74.17655       	74.22131       	74.38896       	74.16307       	74.25333       	74.323715      	74.17343       	74.24357       	74.32751       	74.1637        	74.25878       	74.29488       	74.24724       	74.306404      	74.17879       	74.25323       	74.11328       	74.100204      	74.27179       	74.290825      	74.07579       	74.230286      	73.94469       	73.11092       	74.210396      	74.085464      	80.02594       	75.96476       	74.1554        	74.44957       	74.348         	74.23988       	74.245415      	74.24012       	74.48693       	74.55301       	74.48472       	
74.33555       	74.20673       	74.248314      	74.24464       	74.21934       	74.26776       	74.43729       	74.21941       	74.10916       	74.22289       	74.24186       	74.192825      	74.265915      	74.1673        	74.28151       	74.21971       	74.344604      	74.182755      	74.26793       	74.17464       	74.2371        	74.31653       	74.06754       	74.12015       	74.19611       	73.92249       	73.774734      	79.86284       	76.17808       	73.65007       	74.407135      	74.35316       	74.07024       	74.125275      	74.17033       	73.61851       	74.43004       	74.309296      	74.20418       	74.434044      	74.32634       	74.27964       	74.17208       	74.249886      	74.09401       	74.337975      	74.34665       	74.475395      	74.13874       	74.2197        	74.32286       	74.11739       	74.51374       	74.28453       	74.13654       	74.40487       	74.26554       	74.461525      	69.62753       	68.189926      	74.11539       	74.15161       	74.29604       	74.24667       	74.22592       	74.24334       	74.20651       	74.24537       	74.259415      	74.15584       	74.34941       	74.36846       	74.2365        	74.14667       	74.16078       	74.28456       	74.33151       	74.26773       	74.28871       	74.2308        	74.127075      	74.25256       	74.22852       	74.326744      	74.11371       	74.20793       	74.24758       	73.87853       	74.45935       	80.54372       	75.384445      	74.081375      	74.38309       	74.0567        	74.431984      	74.27934       	74.4191        	74.43711       	74.52158       	74.47238       	
74.073204      	70.410545      	74.030136      	74.37577       	74.167755      	74.19512       	74.28526       	74.28035       	74.22205       	74.24218       	74.30454       	74.11168       	74.26762       	74.30176       	74.17139       	74.35959       	74.20744       	74.22496       	74.16863       	74.27852       	74.4182        	73.99133       	74.101555      	74.272896      	74.23742       	74.29001       	73.383095      	79.13501       	77.39426       	74.043526      	74.33789       	74.13487       	74.28908       	74.076096      	74.20758       	74.26289       	74.341484      	74.29858       	74.06054       	74.32611       	74.179436      	74.413124      	74.29353       	74.245575      	74.24928       	74.17029       	74.294266      	74.2184        	74.248116      	74.27854       	74.315414      	74.24601       	74.344406      	74.1389        	74.3983        	74.31798       	74.429115      	74.42819       	69.9113        	67.708984      	74.2198        	74.31896       	74.16526       	74.26614       	73.93039       	74.39636       	74.29781       	74.38325       	74.00387       	74.32399       	74.28757       	74.299835      	74.31299       	74.19023       	74.11338       	74.28599       	74.33664       	74.24588       	74.29893       	74.188866      	74.164154      	74.279236      	74.19014       	74.24954       	74.25318       	74.10479       	74.10759       	74.018394      	73.45816       	81.16095       	74.64035       	74.24767       	74.33497       	74.30002       	74.328804      	74.31313       	74.37033       	74.51625       	74.419106      	74.32755       	
74.175285      	74.068634      	74.15625       	74.29288       	74.29389       	74.265495      	74.11301       	74.29076       	74.26855       	74.19824       	74.31          	74.27918       	74.17945       	74.26566       	74.23884       	74.270164      	74.27845       	74.350914      	74.06026       	74.06425       	74.21832       	74.33275       	74.134514      	74.247314      	74.21575       	74.11409       	73.44811       	79.69375       	77.295906      	74.05612       	74.20426       	74.31172       	74.373856      	74.136696      	74.21517       	74.25173       	74.310875      	74.32032       	74.21497       	74.21685       	74.25329       	74.14979       	74.33566       	74.3244        	74.18126       	74.28886       	74.30246       	74.19796       	74.2146        	74.3031        	74.30235       	74.201164      	74.43157       	74.29273       	74.25217       	74.30258       	74.299965      	74.26709       	71.09514       	68.096466      	74.26312       	74.04588       	74.168465      	74.34741       	74.09945       	74.4082        	74.20832       	74.16375       	74.29468       	74.258095      	74.11593       	74.37218       	74.200485      	74.23329       	74.27715       	74.22442       	74.173294      	74.46632       	74.18432       	74.31712       	74.089165      	74.221466      	74.24408       	74.19626       	74.18374       	74.27573       	74.23506       	74.091705      	73.56904       	79.4598        	76.22029       	74.144356      	74.31684       	74.38434       	74.20998       	74.29861       	74.37187       	74.341705      	74.48635       	74.609924      	
74.139946      	74.179         	74.34586       	74.23658       	74.17203       	74.29539       	74.29142       	74.12823       	74.3751        	74.15491       	74.20754       	74.499886      	73.952515      	74.389465      	74.248344      	74.26035       	74.195656      	74.29724       	74.14103       	74.15319       	74.34158       	74.05889       	74.21397       	74.28898       	74.10877       	73.9472        	73.84198       	78.72867       	77.41825       	74.108246      	74.21513       	74.33539       	74.2068        	74.172424      	74.371994      	74.18904       	74.36295       	74.219315      	74.195984      	74.26068       	74.25293       	74.21241       	74.13091       	74.352905      	74.264275      	74.36219       	74.35567       	74.20674       	74.16877       	74.429115      	74.13845       	74.263405      	74.293915      	74.25861       	74.355896      	74.38802       	74.292854      	74.52816       	69.51067       	68.23179       	74.28902       	74.285934      	74.150444      	74.21529       	74.314575      	74.31756       	74.2454        	74.317505      	74.19282       	74.150665      	74.19278       	74.21154       	74.33494       	74.14904       	74.132454      	74.32658       	74.37407       	74.325935      	74.206055      	74.27696       	74.09332       	74.30462       	74.34091       	74.11631       	74.26239       	74.200645      	74.13097       	74.04178       	73.508354      	79.24676       	77.632545      	74.19143       	74.22781       	74.25198       	74.34393       	74.26196       	74.38216       	74.46923       	74.41821       	74.35586       	
