# www.neaspec.com
# Scan:	 	AFM
# Project:	 	20251007_PS
# Description:	 	
# Date:	 	10/07/2025 15:58:42
# Scanner Center Position (X, Y):	[µm]	49.66	48.17	 
# Rotation:	[°]	0	 	 
# Scan Area (X, Y, Z):	[µm]	5.000	5.000	0.000
# Pixel Area (X, Y, Z):	[px]	100	100	1
# Averaging:	 	1	 	 
# Integration time:	[ms]	5	 	 
# Laser Source:	 	4.5-15 µm nano-FTIR laser
# Detector:	 	R
# Target Wavelength:	[µm]	7.502	 	 
# Demodulation Mode:	 	Fourier
# Tip Frequency:	[Hz]	238,800.109	 	 
# Tip Amplitude:	[mV]	13.000	 	 
# Tapping Amplitude:	[nm]	74.376	 	 
# Modulation Frequency:	[Hz]	0.000	 	 
# Modulation Amplitude:	[mV]	0.000	 	 
# Modulation Offset:	[mV]	0.000	 	 
# Setpoint:	[%]	79.75	 	 
# Regulator (P, I, D):	 	4.206850	8.625812	1.000000
# Tip Potential:	[mV]	0.000	 	 
# M1A Scaling:	[nm/V]	0.426	 	 
# M1A Cantilever Factor:	 	1,000	 	 
# Q-Factor:	 	452.3	 	 
# Version:	 	2.1.11536.0
216.23395      	216.19409      	216.216        	216.17323      	216.16302      	216.17307      	216.25676      	216.15901      	216.20541      	216.02467      	215.94855      	216.00404      	215.9623       	215.97586      	216.01292      	216.00052      	215.9877       	216.02962      	215.99928      	216.00845      	216.03285      	216.02531      	216.04039      	215.99501      	216.03801      	216.06041      	216.0919       	216.13364      	216.13818      	216.15009      	216.11673      	216.10341      	216.14494      	216.11917      	216.16881      	216.14798      	216.11554      	216.16602      	216.11157      	216.1315       	216.12865      	216.07184      	216.11208      	216.08905      	216.06725      	216.09654      	216.11638      	216.14796      	216.11632      	216.08112      	216.11334      	216.12657      	216.09627      	216.04173      	216.04037      	216.03859      	215.99568      	215.93602      	215.99078      	215.97667      	215.97523      	215.93463      	215.95883      	215.97621      	215.9578       	215.94865      	215.9393       	215.87115      	215.9044       	215.8654       	215.89906      	215.9034       	215.8928       	216.00471      	216.03572      	216.00789      	215.96681      	215.89896      	215.90126      	215.86282      	215.88287      	215.92606      	215.9401       	215.93643      	216.00182      	215.97641      	215.9307       	215.83823      	215.89732      	216.01341      	215.95624      	215.95116      	215.98055      	215.99934      	216.00221      	216.02156      	216.04921      	216.00931      	215.99031      	215.96901      	
216.4173       	216.44075      	216.46283      	216.4611       	216.47336      	216.46036      	216.44093      	216.45172      	216.4567       	216.43597      	216.4393       	216.44759      	216.46442      	216.51736      	216.4475       	216.45416      	216.42978      	216.45956      	216.46571      	216.32114      	216.3428       	216.33475      	216.30121      	216.32907      	216.2606       	216.33499      	216.37997      	216.38455      	216.40073      	216.39532      	216.35641      	216.33786      	216.3295       	216.3418       	216.36948      	216.38353      	216.32153      	216.38893      	216.38022      	216.39447      	216.32323      	216.2776       	216.30008      	216.36426      	216.36606      	216.34315      	216.32991      	216.36493      	216.36224      	216.40341      	216.40948      	216.40448      	216.35442      	216.36417      	216.3868       	216.39561      	216.39174      	216.33652      	216.43544      	216.42064      	216.4238       	216.40103      	216.36282      	216.36108      	216.35231      	216.3744       	216.39012      	216.35873      	216.38486      	216.3476       	216.35326      	216.30519      	216.2888       	216.27716      	216.32233      	216.32077      	216.327        	216.34052      	216.33372      	216.33315      	216.33139      	216.34659      	216.30682      	216.26775      	216.2848       	216.18042      	216.1669       	216.13815      	216.15747      	216.2509       	216.30331      	216.3307       	216.28465      	216.23648      	216.28464      	216.29701      	216.24892      	216.23961      	216.2416       	216.28265      	
216.5101       	216.56664      	216.55417      	216.53857      	216.56093      	216.55273      	216.57974      	216.58376      	216.56906      	216.54962      	216.54688      	216.54233      	216.56532      	216.61826      	216.5792       	216.57675      	216.42822      	216.39029      	216.4296       	216.45964      	216.51456      	216.51755      	216.51723      	216.50526      	216.51668      	216.48106      	216.45956      	216.43472      	216.46208      	216.44354      	216.41933      	216.40463      	216.3977       	216.41867      	216.41933      	216.484        	216.51814      	216.5171       	216.5176       	216.49504      	216.51569      	216.51547      	216.48647      	216.47054      	216.47346      	216.42375      	216.42606      	216.43333      	216.42833      	216.51619      	216.3638       	216.4942       	216.50229      	216.51279      	216.54175      	216.59503      	216.63086      	216.56126      	216.50291      	216.51277      	216.49753      	216.51302      	216.51437      	216.5525       	216.52376      	216.48863      	216.52757      	216.5158       	216.49661      	216.5018       	216.5263       	216.5192       	216.52232      	216.54477      	216.54514      	216.56345      	216.54433      	216.53087      	216.54855      	216.54393      	216.52179      	216.54501      	216.5353       	216.50758      	216.51349      	216.30602      	216.29817      	216.34532      	216.32925      	216.38249      	216.45087      	216.50551      	216.15335      	216.13216      	216.07657      	216.08229      	216.09294      	216.10313      	216.09691      	216.13931      	
216.37094      	216.42725      	216.40121      	216.37921      	216.40823      	216.37648      	216.41107      	216.43718      	216.43123      	216.4353       	216.43213      	216.44606      	216.40749      	216.38014      	216.43887      	216.43301      	216.41081      	216.40671      	216.40668      	216.41116      	216.38783      	216.37799      	216.35812      	216.40753      	216.40877      	216.18454      	216.32489      	216.45143      	216.44237      	216.48558      	216.45058      	216.43129      	216.42108      	216.44908      	216.45375      	216.44052      	216.42204      	216.43459      	216.4239       	216.42107      	216.38638      	216.40733      	216.42245      	216.43652      	216.42473      	216.44954      	216.46812      	216.43854      	216.46515      	216.46738      	216.49416      	216.4798       	216.43141      	216.46169      	216.43454      	216.46495      	216.38107      	216.32297      	216.50676      	216.45877      	216.45158      	216.41132      	216.46225      	216.42458      	216.42195      	216.44695      	216.40126      	216.41318      	216.45493      	216.43129      	216.4573       	216.45543      	216.45566      	216.4375       	216.42188      	216.4404       	216.41208      	216.37117      	216.34424      	216.3629       	216.28964      	216.3217       	216.33058      	216.27684      	216.30417      	216.26556      	216.33138      	216.33116      	216.31256      	216.32115      	216.28174      	216.35374      	216.40388      	216.48691      	216.57912      	216.53067      	216.37051      	216.34862      	216.36148      	216.37218      	
215.9138       	215.89268      	215.89201      	215.8929       	215.89088      	215.92946      	215.90984      	215.90346      	215.892        	215.9186       	215.9287       	215.91512      	215.92801      	215.93597      	215.91667      	215.92706      	215.92935      	215.94768      	215.93585      	215.94342      	215.91568      	215.94823      	215.94333      	215.97762      	215.91225      	215.78133      	215.83131      	215.94676      	215.88005      	215.88428      	215.88705      	215.90599      	215.92023      	215.88954      	215.92505      	215.93362      	215.90137      	215.93622      	215.9274       	215.93434      	215.92812      	215.93065      	215.88222      	215.88916      	215.91481      	215.88737      	215.90994      	215.89038      	215.92174      	215.8915       	215.94199      	215.97313      	215.9453       	216.0017       	216.02396      	216.01804      	215.9614       	215.89021      	216.07283      	216.0285       	216.0557       	216.08823      	216.01334      	216.0391       	216.02687      	216.01833      	216.01483      	215.95633      	215.9815       	215.97989      	215.95021      	215.94075      	215.91374      	215.92894      	215.93492      	215.93549      	215.92484      	215.90402      	215.87637      	215.87608      	215.91628      	215.86353      	215.96954      	215.96242      	215.819        	215.87688      	215.96666      	215.95204      	215.9151       	215.91827      	215.93507      	216.01761      	216.05418      	216.14854      	216.18141      	216.14108      	215.94954      	215.9103       	215.88646      	215.89003      	
215.54178      	215.53339      	215.54372      	215.56253      	215.5568       	215.56361      	215.57861      	215.56554      	215.55356      	215.53604      	215.54034      	215.53233      	215.53418      	215.49283      	215.50803      	215.50299      	215.4772       	215.48141      	215.5355       	215.49055      	215.48581      	215.48714      	215.49123      	215.47063      	215.49261      	215.34312      	215.26198      	215.49466      	215.45917      	215.46672      	215.47078      	215.47055      	215.45042      	215.47179      	215.4961       	215.4712       	215.4686       	215.49799      	215.45047      	215.45944      	215.4916       	215.39659      	215.517        	215.53369      	215.45808      	215.41357      	215.393        	215.39752      	215.33504      	215.34052      	215.32187      	215.33757      	215.30203      	215.30292      	215.35634      	215.35365      	215.34677      	215.3746       	215.55338      	215.57697      	215.58469      	215.52122      	215.51427      	215.54573      	215.52061      	215.5385       	215.53476      	215.51288      	215.548        	215.52515      	215.54655      	215.56422      	215.5593       	215.56638      	215.53827      	215.5525       	215.54294      	215.53671      	215.55438      	215.50449      	215.54189      	215.4224       	215.41888      	215.33469      	215.32114      	215.37367      	215.41612      	215.5036       	215.47754      	215.50876      	215.49173      	215.53069      	215.58238      	215.67259      	215.72867      	215.67221      	215.67178      	215.5843       	215.4933       	215.48195      	
215.6869       	215.7276       	215.6744       	215.71732      	215.68472      	215.6961       	215.7046       	215.67435      	215.69125      	215.6813       	215.6719       	215.69305      	215.69948      	215.7006       	215.71573      	215.702        	215.69879      	215.67871      	215.66446      	215.6913       	215.63524      	215.66978      	215.634        	215.6642       	215.62665      	215.44385      	215.38438      	215.39381      	215.40839      	215.46918      	215.44968      	215.43027      	215.36534      	215.36765      	215.39119      	215.36255      	215.34708      	215.3234       	215.36673      	215.30374      	215.33144      	215.38084      	215.35303      	215.3638       	215.38103      	215.38893      	215.38591      	215.39723      	215.32927      	215.36737      	215.3824       	215.4935       	215.4396       	215.37459      	215.4213       	215.40555      	215.5889       	215.60048      	215.62247      	215.62608      	215.61108      	215.62616      	215.60211      	215.59357      	215.57278      	215.59995      	215.59668      	215.59792      	215.59302      	215.55428      	215.56487      	215.55856      	215.58539      	215.60011      	215.5997       	215.60558      	215.59987      	215.55983      	215.60638      	215.56827      	215.51443      	215.42682      	215.35847      	215.31659      	215.35336      	215.36472      	215.37302      	215.42258      	215.43651      	215.39508      	215.43097      	215.43729      	215.5117       	215.62758      	215.55992      	215.52591      	215.59491      	215.53001      	215.55719      	215.5686       	
215.62733      	215.60808      	215.6205       	215.64447      	215.59653      	215.63258      	215.62605      	215.63205      	215.68173      	215.68109      	215.6531       	215.66351      	215.63713      	215.66464      	215.6548       	215.58968      	215.61075      	215.62256      	215.60594      	215.63397      	215.6163       	215.63321      	215.61311      	215.6327       	215.61844      	215.62497      	215.64285      	215.65927      	215.63045      	215.60927      	215.5661       	215.61974      	215.6421       	215.60538      	215.6237       	215.57819      	215.60204      	215.63159      	215.63658      	215.59877      	215.63185      	215.65663      	215.6843       	215.65915      	215.64536      	215.59344      	215.5839       	215.57683      	215.61497      	215.62563      	215.58502      	215.58885      	215.56706      	215.57146      	215.58702      	215.54402      	215.52922      	215.53856      	215.5423       	215.54147      	215.56468      	215.55743      	215.5283       	215.52051      	215.54459      	215.55266      	215.55496      	215.54031      	215.54298      	215.5776       	215.53673      	215.55551      	215.5443       	215.5527       	215.53665      	215.5252       	215.53262      	215.51308      	215.54167      	215.55638      	215.44797      	215.36867      	215.25017      	215.35074      	215.33124      	215.35187      	215.33139      	215.49547      	215.49298      	215.43378      	215.42587      	215.45427      	215.57346      	215.6857       	215.55643      	215.5705       	215.58258      	215.59196      	215.56717      	215.58984      	
215.54787      	215.55052      	215.57997      	215.5154       	215.53459      	215.57086      	215.6119       	215.55946      	215.54329      	215.58209      	215.5984       	215.58939      	215.54704      	215.57948      	215.55794      	215.58034      	215.57587      	215.59123      	215.59796      	215.6017       	215.57991      	215.57843      	215.5797       	215.5711       	215.61017      	215.5895       	215.53604      	215.5826       	215.57745      	215.57082      	215.5935       	215.60362      	215.58008      	215.54437      	215.53354      	215.5549       	215.5547       	215.5506       	215.55893      	215.52538      	215.53229      	215.60066      	215.60934      	215.59557      	215.61667      	215.53989      	215.55447      	215.5513       	215.53375      	215.50424      	215.49684      	215.48976      	215.52345      	215.54901      	215.52951      	215.55414      	215.51114      	215.52701      	215.53604      	215.54337      	215.56888      	215.54193      	215.53343      	215.52766      	215.5557       	215.61263      	215.56642      	215.52069      	215.55061      	215.4502       	215.55043      	215.50081      	215.53018      	215.53468      	215.5062       	215.53523      	215.52687      	215.52222      	215.50652      	215.35132      	215.32396      	215.16634      	215.12555      	215.19615      	215.25035      	215.2604       	215.17369      	215.33131      	215.45963      	215.35338      	215.32236      	215.35963      	215.49452      	215.57497      	215.49066      	215.48967      	215.51784      	215.53494      	215.5403       	215.53694      	
215.82892      	215.84221      	215.83878      	215.78143      	215.82463      	215.82257      	215.81998      	215.83192      	215.80524      	215.82733      	215.8261       	215.838        	215.84303      	215.8471       	215.85269      	215.84602      	215.84964      	215.81534      	215.83263      	215.84164      	215.8035       	215.85927      	215.84944      	215.84392      	215.84425      	215.8041       	215.78668      	215.79703      	215.80762      	215.80113      	215.80988      	215.80981      	215.79054      	215.77856      	215.78586      	215.7693       	215.78246      	215.78043      	215.78879      	215.78238      	215.75848      	215.74423      	215.74113      	215.74574      	215.76237      	215.76593      	215.76349      	215.75572      	215.76309      	215.73738      	215.76646      	215.76805      	215.77142      	215.78197      	215.77155      	215.75095      	215.73795      	215.75         	215.7404       	215.77847      	215.75838      	215.73923      	215.77637      	215.79112      	215.76857      	215.76022      	215.7509       	215.77933      	215.77501      	215.77464      	215.7671       	215.75871      	215.75795      	215.76955      	215.77322      	215.72655      	215.73932      	215.72412      	215.70326      	215.66376      	215.59367      	215.35052      	215.31981      	215.38484      	215.43121      	215.37961      	215.38498      	215.69798      	215.66545      	215.54855      	215.53645      	215.5838       	215.64651      	215.73167      	215.66953      	215.63295      	215.67137      	215.70595      	215.67892      	215.684        	
216.0322       	216.03697      	216.03676      	216.03441      	216.03505      	216.04916      	216.00177      	216.01122      	215.99246      	215.99924      	216.01857      	216.02068      	215.96835      	216.01012      	215.97702      	215.9827       	215.9926       	215.95135      	215.98546      	215.99632      	215.97629      	216.01198      	216.05255      	216.02058      	216.01657      	215.99547      	215.96768      	215.98248      	215.99306      	215.99062      	216.04543      	215.9955       	215.95158      	215.96413      	215.92084      	215.93666      	215.96477      	215.9236       	215.91698      	215.92432      	215.91257      	215.92442      	215.91994      	215.95216      	215.93073      	215.94081      	215.93036      	215.9444       	215.91983      	215.90761      	215.90909      	215.95473      	215.93687      	215.9236       	215.95428      	215.91043      	215.94272      	215.92091      	215.95802      	215.9484       	215.95676      	215.9603       	215.98878      	215.98741      	215.9715       	215.96259      	215.98538      	216.01093      	215.994        	215.99536      	215.97409      	215.9595       	215.98386      	215.96725      	215.96288      	215.97433      	215.95863      	215.96826      	215.96297      	215.91441      	215.83536      	215.77231      	215.58145      	215.60449      	215.71126      	215.83005      	215.89362      	215.87128      	215.89339      	215.84781      	215.78882      	215.86906      	215.94907      	215.98248      	215.95087      	215.97011      	215.97218      	215.96208      	215.97812      	215.97879      	
215.92142      	215.9104       	215.87671      	215.90454      	215.91096      	215.91504      	215.90167      	215.90839      	215.90039      	215.8644       	215.89761      	215.88852      	215.90643      	215.90492      	215.90161      	215.93307      	215.89613      	215.90302      	215.9256       	215.89723      	215.93802      	215.89694      	215.92146      	215.92422      	215.88445      	215.92252      	215.90887      	215.93521      	215.92064      	215.91022      	215.91864      	215.97412      	215.9175       	215.89906      	215.92926      	215.90811      	215.93288      	215.952        	215.9353       	215.96655      	215.9949       	216.00496      	215.97342      	216.01044      	215.97275      	215.96457      	215.99925      	215.98288      	215.99365      	215.99902      	215.98605      	215.9921       	215.99731      	215.97258      	215.96503      	216.0057       	216.03825      	216.00449      	215.9672       	215.9716       	215.97287      	215.97513      	215.97366      	215.94485      	215.98822      	215.96536      	215.99445      	216.01765      	215.98058      	215.99942      	216.0456       	216.03961      	216.03366      	216.04198      	216.02313      	216.01556      	216.02501      	216.0444       	216.04736      	216.04086      	215.95282      	215.87883      	215.8297       	215.72723      	215.78505      	215.86         	215.89035      	215.9879       	215.96051      	215.91275      	215.91246      	215.9711       	216.01343      	216.02522      	216.12692      	216.0599       	216.10162      	216.10594      	216.09718      	216.08278      	
215.64247      	215.68358      	215.65964      	215.64847      	215.66873      	215.62184      	215.62396      	215.62476      	215.64517      	215.64934      	215.62302      	215.67065      	215.7203       	215.63132      	215.67303      	215.6718       	215.72353      	215.64917      	215.65195      	215.6713       	215.65997      	215.67555      	215.65036      	215.65347      	215.66187      	215.65591      	215.63544      	215.63533      	215.66815      	215.663        	215.66525      	215.66351      	215.66008      	215.6548       	215.64925      	215.66574      	215.65079      	215.64279      	215.6535       	215.67047      	215.65553      	215.65787      	215.67303      	215.63516      	215.62009      	215.63783      	215.65851      	215.65309      	215.65042      	215.64784      	215.63756      	215.6596       	215.62042      	215.64275      	215.6826       	215.63412      	215.59326      	215.6765       	215.67638      	215.66132      	215.59056      	215.59433      	215.71979      	215.65323      	215.62582      	215.64787      	215.64386      	215.63394      	215.64896      	215.65858      	215.65082      	215.66417      	215.65302      	215.6641       	215.67993      	215.63986      	215.68365      	215.67665      	215.69626      	215.68953      	215.67462      	215.57643      	215.57063      	215.37384      	215.42433      	215.50432      	215.54965      	215.56424      	215.56195      	215.58035      	215.54971      	215.59035      	215.64749      	215.74754      	215.70502      	215.77379      	215.6005       	215.70596      	215.68645      	215.66577      	
215.8371       	215.8561       	215.81519      	215.81435      	215.83821      	215.84048      	215.82578      	215.80553      	215.81528      	215.83008      	215.81749      	215.8222       	215.832        	215.88918      	215.86949      	215.85439      	215.86003      	215.83421      	215.83864      	215.84518      	215.82396      	215.83804      	215.83998      	215.83755      	215.85938      	215.83376      	215.83774      	215.8279       	215.82025      	215.81618      	215.8161       	215.82721      	215.81032      	215.81642      	215.8636       	215.8546       	215.86493      	215.82118      	215.80731      	215.82603      	215.81609      	215.8294       	215.7975       	215.79744      	215.7985       	215.79582      	215.80615      	215.79752      	215.80331      	215.82286      	215.81781      	215.79565      	215.79767      	215.80585      	215.79523      	215.76735      	215.75502      	215.79852      	215.78519      	215.76717      	215.75136      	215.75633      	215.75406      	215.76863      	215.76888      	215.75865      	215.75035      	215.7567       	215.74066      	215.7574       	215.74748      	215.72638      	215.74022      	215.75749      	215.76099      	215.80588      	215.78915      	215.76913      	215.77086      	215.76596      	215.78337      	215.76335      	215.684        	215.55148      	215.44801      	215.60062      	215.56885      	215.586        	215.57867      	215.59174      	215.63861      	215.68439      	215.76813      	215.74619      	215.86668      	215.80653      	215.74112      	215.74344      	215.70897      	215.75165      	
216.00885      	215.99062      	216.03659      	216.03012      	216.06705      	216.03363      	216.01999      	216.05078      	216.0324       	216.02084      	216.01472      	216.01224      	216.00092      	216.01625      	216.00475      	215.99332      	216.00111      	216.03311      	215.9914       	215.99733      	215.99382      	216.00893      	216.00603      	216.00072      	215.98416      	215.99168      	215.98187      	215.99983      	216.00021      	216.00838      	215.99261      	215.99771      	216.0056       	216.00087      	216.00255      	215.99055      	215.95392      	215.98845      	215.98943      	216.03001      	216.00885      	215.99843      	215.99112      	216.05891      	216.05882      	216.01703      	216.00052      	216.00806      	216.00108      	216.02034      	216.01123      	215.9979       	215.98468      	215.97728      	215.99197      	215.98102      	215.98413      	215.98566      	215.98404      	215.95969      	215.98097      	215.96599      	215.96376      	215.96101      	215.96515      	215.96506      	215.97018      	215.96487      	215.95331      	216.03477      	216.00821      	215.99277      	215.99538      	215.95598      	216.00449      	215.96516      	215.9968       	216.00401      	215.99461      	216.02158      	215.97845      	215.99681      	215.98314      	215.96387      	215.81996      	215.86028      	215.86635      	215.84734      	215.8618       	215.88997      	215.91014      	215.92113      	216.00653      	216.07053      	216.05312      	215.9606       	215.93938      	215.91922      	215.92848      	215.94002      	
215.93228      	215.95734      	215.91798      	215.90866      	215.92334      	215.91689      	215.93434      	215.95462      	215.94095      	215.95134      	215.97032      	215.97592      	215.97047      	215.96544      	216.01277      	215.98909      	215.97942      	215.98253      	215.9903       	216.00554      	215.98584      	215.99954      	215.9949       	215.97223      	216.02545      	215.9805       	215.97012      	216.00475      	215.97916      	216.02238      	215.96397      	215.98288      	216.00032      	215.99759      	215.99916      	216.02313      	216.01447      	216.01424      	216.01093      	216.04018      	216.05217      	216.06479      	216.05995      	216.04523      	216.05585      	216.02911      	216.09256      	216.06378      	216.03268      	216.03665      	216.03973      	216.05211      	216.03973      	216.0891       	216.0596       	216.05615      	216.05463      	216.08783      	216.0551       	216.06313      	216.0305       	216.02663      	216.06451      	216.06915      	216.0485       	216.04645      	216.0602       	216.0704       	216.07924      	216.077        	216.05322      	216.04947      	216.08939      	216.12653      	216.12288      	216.08105      	216.05394      	216.08879      	216.09564      	216.10464      	216.13881      	216.11717      	216.07034      	216.09123      	216.1102       	216.11223      	216.04031      	215.95964      	216.03537      	216.01605      	215.9732       	215.92781      	216.0148       	216.17244      	216.10432      	216.09692      	216.0902       	216.08105      	216.08821      	216.10416      	
215.8967       	215.88058      	215.85175      	215.86938      	215.86554      	215.867        	215.85295      	215.86082      	215.86354      	215.8235       	215.84128      	215.8297       	215.84547      	215.86366      	215.82953      	215.79077      	215.80313      	215.79199      	215.78947      	215.80344      	215.80849      	215.82666      	215.82225      	215.8326       	215.86554      	215.83578      	215.84148      	215.78282      	215.79942      	215.81174      	215.81052      	215.81006      	215.77962      	215.816        	215.83119      	215.81268      	215.81525      	215.81895      	215.7842       	215.7788       	215.80704      	215.78473      	215.75987      	215.79433      	215.77606      	215.77548      	215.81863      	215.78296      	215.77232      	215.81802      	215.78435      	215.80272      	215.75214      	215.74168      	215.792        	215.76413      	215.74197      	215.75377      	215.7427       	215.75317      	215.74966      	215.74156      	215.72583      	215.768        	215.74089      	215.73709      	215.78314      	215.75871      	215.79767      	215.79419      	215.8198       	215.801        	215.81569      	215.82916      	215.79764      	215.8086       	215.8042       	215.80692      	215.77704      	215.75612      	215.79788      	215.78761      	215.80406      	215.76529      	215.82095      	215.80948      	215.79617      	215.77675      	215.78589      	215.76523      	215.78156      	215.84012      	215.80183      	215.80397      	215.80624      	215.78464      	215.77362      	215.79485      	215.78798      	215.76736      	
216.39812      	216.4813       	216.58432      	216.43509      	216.36282      	216.36903      	216.37897      	216.36116      	216.34882      	216.34625      	216.35863      	216.35971      	216.35547      	216.34882      	216.35191      	216.37115      	216.32582      	216.34059      	216.37962      	216.35663      	216.33543      	216.3348       	216.32883      	216.33856      	216.32347      	216.33716      	216.31776      	216.33572      	216.3238       	216.33676      	216.316        	216.36523      	216.3851       	216.32903      	216.32132      	216.33617      	216.32162      	216.31813      	216.33493      	216.33444      	216.31326      	216.3274       	216.32082      	216.30486      	216.3491       	216.31859      	216.28587      	216.32983      	216.29837      	216.31         	216.31903      	216.29112      	216.3091       	216.27176      	216.27531      	216.28142      	216.26923      	216.27032      	216.24234      	216.25421      	216.24551      	216.2495       	216.25063      	216.21642      	216.25531      	216.23029      	216.24594      	216.21835      	216.24437      	216.23976      	216.22626      	216.20555      	216.19359      	216.24396      	216.1996       	216.17934      	216.18802      	216.18748      	216.20174      	216.1777       	216.18248      	216.15964      	216.19385      	216.18475      	216.17117      	216.16542      	216.1505       	216.15736      	216.1459       	216.1525       	216.16936      	216.17284      	216.14407      	216.17337      	216.14671      	216.14474      	216.15529      	216.15395      	216.11786      	216.12834      	
216.34885      	216.35251      	216.31491      	216.32217      	216.32794      	216.31862      	216.36269      	216.3298       	216.30406      	216.31348      	216.34518      	216.37181      	216.35306      	216.37712      	216.36156      	216.38058      	216.37337      	216.37663      	216.35724      	216.37189      	216.37169      	216.37166      	216.37436      	216.37796      	216.37628      	216.4046       	216.4125       	216.39374      	216.3548       	216.36896      	216.40257      	216.39577      	216.41083      	216.38756      	216.39027      	216.41559      	216.40634      	216.42268      	216.44362      	216.43196      	216.42259      	216.41568      	216.43207      	216.42377      	216.44127      	216.41495      	216.4317       	216.45085      	216.42966      	216.43707      	216.42043      	216.42958      	216.44092      	216.44359      	216.41983      	216.45735      	216.47496      	216.49577      	216.49205      	216.50658      	216.51419      	216.48918      	216.5032       	216.5187       	216.49464      	216.50668      	216.49748      	216.49652      	216.5105       	216.51172      	216.51395      	216.5077       	216.51833      	216.49911      	216.48671      	216.51678      	216.52425      	216.52213      	216.53474      	216.52878      	216.52985      	216.52574      	216.54254      	216.56151      	216.53282      	216.56998      	216.54053      	216.55225      	216.55331      	216.53922      	216.52252      	216.52602      	216.51053      	216.54962      	216.5292       	216.54321      	216.51239      	216.50171      	216.52423      	216.50711      	
215.76385      	215.73744      	215.78421      	215.76996      	215.74805      	215.7888       	215.78835      	215.77513      	215.7877       	215.79709      	215.77092      	215.79494      	215.77628      	215.75401      	215.85669      	215.83286      	215.819        	215.8435       	215.84732      	215.85678      	215.86792      	215.84262      	215.88182      	215.85915      	215.88657      	215.89421      	215.87845      	215.902        	215.90234      	215.89966      	215.8644       	215.9039       	215.90562      	215.87636      	215.92432      	215.8935       	215.89014      	215.92271      	215.9308       	215.9055       	215.93166      	215.91022      	215.93433      	215.95453      	215.93765      	215.96762      	215.94547      	215.91522      	215.92465      	215.94455      	215.93222      	215.94089      	215.93439      	215.93134      	215.94269      	215.9559       	215.9423       	215.97049      	215.94667      	215.92854      	216.01239      	215.97176      	215.97845      	215.99072      	215.97974      	215.97372      	215.96664      	215.95029      	215.94627      	215.97165      	215.9454       	215.9931       	215.97903      	215.94728      	215.9938       	215.97464      	215.9831       	216.00223      	215.99503      	215.98534      	215.975        	216.0077       	215.99542      	216.00642      	216.0057       	215.9935       	216.03204      	215.99571      	216.01334      	216.00522      	216.02246      	216.00754      	216.03314      	216.03116      	216.01074      	216.00375      	216.01996      	216.04083      	216.04807      	216.06337      	
215.35373      	215.35036      	215.33398      	215.32756      	215.33969      	215.30069      	215.32082      	215.3357       	215.33034      	215.35948      	215.35213      	215.34415      	215.32756      	215.37581      	215.33757      	215.34274      	215.34003      	215.34988      	215.34692      	215.35216      	215.35536      	215.36         	215.3397       	215.37872      	215.37265      	215.41422      	215.40071      	215.40105      	215.38617      	215.41887      	215.42145      	215.43587      	215.39648      	215.40514      	215.43001      	215.43149      	215.43922      	215.46588      	215.4443       	215.43265      	215.43187      	215.42654      	215.4453       	215.44937      	215.47504      	215.4558       	215.46388      	215.4412       	215.47778      	215.49135      	215.43393      	215.49123      	215.46637      	215.47168      	215.48024      	215.473        	215.45914      	215.45749      	215.47615      	215.46101      	215.4733       	215.50374      	215.4628       	215.48322      	215.49689      	215.47697      	215.50757      	215.46526      	215.47589      	215.50807      	215.491        	215.5005       	215.47374      	215.53241      	215.51271      	215.5044       	215.51758      	215.50438      	215.52156      	215.51256      	215.49837      	215.51146      	215.52054      	215.53285      	215.5066       	215.52525      	215.51134      	215.53426      	215.518        	215.54037      	215.53206      	215.56627      	215.53604      	215.54874      	215.54053      	215.51604      	215.52914      	215.53717      	215.54305      	215.55023      	
215.5053       	215.50597      	215.51544      	215.50516      	215.52469      	215.49072      	215.46991      	215.47234      	215.48444      	215.484        	215.46509      	215.43402      	215.4668       	215.4684       	215.45995      	215.46094      	215.4397       	215.44395      	215.45996      	215.44504      	215.47104      	215.47852      	215.44003      	215.45172      	215.4489       	215.44531      	215.44672      	215.39778      	215.39548      	215.44615      	215.45866      	215.41496      	215.43297      	215.47174      	215.44977      	215.47363      	215.45264      	215.4492       	215.45584      	215.42715      	215.43439      	215.45262      	215.44255      	215.44748      	215.43008      	215.43593      	215.42491      	215.43973      	215.41708      	215.44005      	215.42285      	215.3998       	215.41081      	215.41608      	215.40416      	215.40424      	215.39272      	215.39528      	215.42107      	215.41151      	215.39969      	215.41751      	215.41074      	215.40384      	215.39813      	215.34155      	215.3574       	215.38785      	215.3852       	215.35284      	215.35133      	215.34422      	215.35939      	215.39949      	215.36453      	215.37599      	215.35208      	215.32921      	215.32225      	215.31935      	215.33395      	215.3004       	215.34587      	215.33475      	215.32303      	215.34674      	215.31389      	215.33661      	215.33919      	215.33049      	215.34636      	215.32843      	215.33727      	215.30428      	215.32034      	215.30893      	215.31706      	215.28986      	215.29022      	215.31535      	
215.96164      	215.9432       	215.95245      	215.94026      	215.97647      	215.91989      	215.94833      	215.94467      	215.92839      	215.92921      	215.93042      	215.91135      	215.90297      	215.93617      	215.95616      	215.94745      	215.96568      	215.95647      	215.91452      	215.92743      	215.90593      	215.92497      	215.92003      	215.8977       	215.92578      	215.90492      	215.91257      	215.90866      	215.91881      	215.9021       	215.94797      	215.87335      	215.9173       	215.95038      	215.92491      	215.92319      	215.90608      	215.8956       	215.9002       	215.90332      	215.88109      	215.86986      	215.88925      	215.89973      	215.88734      	215.8978       	215.88933      	215.89267      	215.90903      	215.91977      	215.90253      	215.8884       	215.90897      	215.90033      	215.91112      	215.89407      	215.89186      	215.8953       	215.85294      	215.86073      	215.86589      	215.87352      	215.86694      	215.88971      	215.88379      	215.87949      	215.88593      	215.87213      	215.8658       	215.89804      	215.86044      	215.84726      	215.91652      	215.8703       	215.8587       	215.82062      	215.83206      	215.86465      	215.85533      	215.8386       	215.81432      	215.80348      	215.80638      	215.80365      	215.82028      	215.81966      	215.81223      	215.78647      	215.79851      	215.8202       	215.82642      	215.76717      	215.79477      	215.8021       	215.83356      	215.79262      	215.75829      	215.76634      	215.80357      	215.77596      	
216.07277      	216.08234      	216.05856      	216.03613      	216.08089      	216.05853      	216.05362      	216.06139      	216.05531      	216.02986      	216.07544      	216.03383      	216.03123      	216.02069      	216.04105      	216.03578      	216.07411      	216.06         	216.09009      	216.06937      	216.05568      	216.06845      	216.07643      	216.0621       	216.09142      	216.04027      	216.03833      	216.0547       	216.00284      	216.03767      	216.02832      	216.0123       	216.044        	216.0567       	216.02834      	216.04176      	216.02919      	216.03517      	216.03854      	216.02757      	216.046        	216.03745      	216.04523      	216.05487      	216.0829       	216.04413      	216.04926      	216.06975      	216.02406      	216.0618       	216.06009      	216.05807      	216.04901      	216.0384       	216.06142      	216.03508      	216.0628       	216.05553      	216.06436      	216.06844      	216.04935      	216.04752      	216.07959      	216.08961      	216.07567      	216.08214      	216.08163      	216.1044       	216.09845      	216.04807      	216.04318      	216.03589      	216.0737       	216.0572       	216.06664      	216.08932      	216.05061      	216.08261      	216.04776      	216.0552       	216.07056      	216.0163       	216.03844      	216.04584      	216.09955      	216.07433      	216.07315      	216.05832      	216.05466      	216.07057      	216.06418      	216.05441      	216.06778      	216.06306      	216.06787      	216.04077      	216.0591       	216.05197      	216.07689      	216.06834      	
215.99437      	215.96262      	215.96075      	215.96086      	215.97931      	215.9564       	215.96103      	215.96194      	215.98032      	215.97136      	215.98627      	216.01218      	216.02438      	216.00806      	215.95859      	215.97125      	215.96469      	215.965        	215.99069      	215.98843      	216.01144      	215.94022      	215.9472       	215.93605      	215.95045      	215.97084      	215.9218       	215.95567      	215.92268      	215.92522      	216.0008       	215.94925      	215.94943      	215.94815      	215.93468      	215.94745      	215.94841      	215.93628      	215.93448      	215.93341      	215.9511       	215.94235      	215.94545      	215.95361      	215.96681      	215.927        	215.96646      	215.93039      	215.91455      	215.9131       	215.92268      	215.96442      	215.99448      	215.98526      	215.9483       	215.9479       	215.97995      	215.96027      	215.91412      	215.94588      	215.91669      	215.91959      	215.92389      	215.95079      	215.93098      	215.96696      	215.95367      	215.97235      	216.02574      	215.98334      	215.96791      	215.99843      	215.96623      	215.96593      	215.96883      	215.98901      	215.98306      	215.95775      	216.00676      	216.00308      	215.97488      	215.99536      	216.003        	216.00905      	216.02586      	215.99902      	216.01022      	215.9995       	215.98068      	215.97435      	215.99681      	215.98167      	215.99144      	215.99417      	216.00113      	216.01025      	216.0307       	215.9969       	216.05402      	216.01991      	
215.83868      	215.86351      	215.81735      	215.84769      	215.82127      	215.84462      	215.86032      	215.8508       	215.85068      	215.83478      	215.8244       	215.83546      	215.80222      	215.84001      	215.84264      	215.8299       	215.83894      	215.8244       	215.84557      	215.83546      	215.8282       	215.8821       	215.81004      	215.8186       	215.8182       	215.78326      	215.79596      	215.81429      	215.84897      	215.83957      	215.81519      	215.83105      	215.83206      	215.7888       	215.83723      	215.81975      	215.83748      	215.80258      	215.78061      	215.8428       	215.78934      	215.81924      	215.8183       	215.79897      	215.85394      	215.78079      	215.79543      	215.80484      	215.84683      	215.81819      	215.82301      	215.80748      	215.82497      	215.81712      	215.81496      	215.82127      	215.81226      	215.81561      	215.81134      	215.82904      	215.79332      	215.793        	215.77147      	215.72865      	215.7606       	215.80281      	215.82738      	215.789        	215.79051      	215.78876      	215.78885      	215.7871       	215.73047      	215.79039      	215.77513      	215.75458      	215.79259      	215.78784      	215.78587      	215.79405      	215.77048      	215.77728      	215.78029      	215.78685      	215.78224      	215.77434      	215.77457      	215.76059      	215.75397      	215.78598      	215.76628      	215.81964      	215.83522      	215.81442      	215.81642      	215.82576      	215.8036       	215.75644      	215.75558      	215.77489      	
216.27742      	216.3068       	216.29672      	216.2385       	216.262        	216.24706      	216.26677      	216.24388      	216.22987      	216.24554      	216.2446       	216.23738      	216.24242      	216.23268      	216.27141      	216.22911      	216.22577      	216.25323      	216.21011      	216.2216       	216.20572      	216.23672      	216.24063      	216.22765      	216.20937      	216.23074      	216.24791      	216.22963      	216.22643      	216.19876      	216.19571      	216.20914      	216.19977      	216.24818      	216.20459      	216.1985       	216.19998      	216.21094      	216.2012       	216.20149      	216.23372      	216.21304      	216.25133      	216.26984      	216.2373       	216.25214      	216.17783      	216.1966       	216.17943      	216.19485      	216.19098      	216.16357      	216.18028      	216.17117      	216.17409      	216.18652      	216.19562      	216.18977      	216.16258      	216.1476       	216.15448      	216.2158       	216.1927       	216.17767      	216.14136      	216.15016      	216.13553      	216.15797      	216.13908      	216.13815      	216.15161      	216.12584      	216.14502      	216.15306      	216.12225      	216.15689      	216.13744      	216.12933      	216.15004      	216.12364      	216.11148      	216.13426      	216.15178      	216.11546      	216.11687      	216.0947       	216.1157       	216.11424      	216.09885      	216.11546      	216.08528      	216.07083      	216.09296      	216.08328      	216.08015      	216.06055      	216.07593      	216.06932      	216.06769      	216.05818      	
216.61082      	216.61082      	216.60744      	216.59023      	216.61229      	216.576        	216.57397      	216.5717       	216.58008      	216.56375      	216.55634      	216.5738       	216.52563      	216.54811      	216.52539      	216.54034      	216.55128      	216.54135      	216.50188      	216.48495      	216.4992       	216.52553      	216.54207      	216.47908      	216.50089      	216.51076      	216.50682      	216.5038       	216.53079      	216.45753      	216.46544      	216.47208      	216.46751      	216.47421      	216.4755       	216.45523      	216.45338      	216.44765      	216.46695      	216.48512      	216.48068      	216.49644      	216.49594      	216.49828      	216.463        	216.46344      	216.45686      	216.46349      	216.47778      	216.45114      	216.4839       	216.50253      	216.49835      	216.45947      	216.46248      	216.45395      	216.46881      	216.48082      	216.44499      	216.4547       	216.39462      	216.46414      	216.45555      	216.43573      	216.43683      	216.43336      	216.45432      	216.41617      	216.45207      	216.39468      	216.39983      	216.43988      	216.42847      	216.44904      	216.43309      	216.40804      	216.43262      	216.44858      	216.44475      	216.43002      	216.41782      	216.42584      	216.42133      	216.43631      	216.46121      	216.43285      	216.43153      	216.39087      	216.41106      	216.39032      	216.41986      	216.39836      	216.39557      	216.39386      	216.3594       	216.36507      	216.33894      	216.3605       	216.35558      	216.35143      	
217.1132       	217.10121      	217.13731      	217.13101      	217.07164      	217.11343      	217.11154      	217.08522      	217.11516      	217.09619      	217.11443      	217.09573      	217.05756      	217.09547      	217.08594      	217.11395      	217.09695      	217.11205      	217.1289       	217.09189      	217.1361       	217.10345      	217.11156      	217.10532      	217.05727      	217.08853      	217.05374      	217.06967      	217.05885      	217.06535      	217.04282      	217.12875      	217.07625      	217.07623      	217.07262      	217.08951      	217.06741      	217.05891      	217.08556      	217.05533      	217.06908      	217.07349      	217.04051      	217.06764      	217.05405      	217.03294      	217.0498       	217.04233      	217.02148      	217.02214      	216.99515      	217.00276      	217.02945      	217.00188      	216.9956       	217.0341       	216.99559      	217.0185       	217.0302       	216.96942      	217.02922      	217.02159      	217.0156       	217.02351      	217.01996      	217.04202      	217.02968      	217.00494      	217.01831      	217.0391       	217.00311      	217.01474      	217.02621      	217.04282      	216.99863      	216.98851      	217.00156      	217.01224      	217.0198       	216.99872      	217.00276      	217.01382      	217.01614      	216.98134      	216.98288      	217.00024      	217.0036       	216.99835      	217.02403      	216.97679      	216.97495      	216.96631      	216.96854      	216.95958      	216.92612      	216.9322       	216.92383      	216.94342      	216.954        	216.94424      	
217.30959      	217.30104      	217.29254      	217.30444      	217.32463      	217.28746      	217.29915      	217.30566      	217.31276      	217.3259       	217.32439      	217.31883      	217.33943      	217.28363      	217.30496      	217.29608      	217.29616      	217.28693      	217.31575      	217.29813      	217.30698      	217.32945      	217.31906      	217.32698      	217.32826      	217.29991      	217.30183      	217.30746      	217.30612      	217.29924      	217.29845      	217.31763      	217.30301      	217.29015      	217.30159      	217.27045      	217.30951      	217.27467      	217.29305      	217.26474      	217.27463      	217.30917      	217.30699      	217.30772      	217.29224      	217.31396      	217.31322      	217.31323      	217.31804      	217.30722      	217.30344      	217.30128      	217.29579      	217.29686      	217.28484      	217.28372      	217.27164      	217.29918      	217.27792      	217.27911      	217.3225       	217.2907       	217.30891      	217.29791      	217.31627      	217.30954      	217.28809      	217.30658      	217.3159       	217.32314      	217.32094      	217.31163      	217.31374      	217.29893      	217.31226      	217.32455      	217.31363      	217.33366      	217.32387      	217.3217       	217.30406      	217.31293      	217.2828       	217.3064       	217.31528      	217.34105      	217.33774      	217.32683      	217.28473      	217.29984      	217.3015       	217.30759      	217.2847       	217.27509      	217.26175      	217.27742      	217.25781      	217.26244      	217.22353      	217.27905      	
216.87856      	216.89517      	216.90646      	216.93175      	216.91039      	216.94037      	216.95807      	216.96909      	216.96336      	216.9443       	216.93277      	216.92233      	216.9406       	216.97414      	216.92722      	216.93639      	216.93295      	216.93654      	216.95058      	216.90479      	216.92577      	216.97313      	216.94518      	216.9649       	216.9835       	216.96547      	216.98877      	216.98502      	216.99292      	216.99014      	216.98885      	217.00027      	216.99217      	217.0427       	217.0161       	217.03352      	217.00392      	217.00307      	217.02107      	217.02513      	216.98975      	217.03204      	217.06898      	217.06078      	217.04874      	217.0475       	217.04543      	217.0419       	217.06032      	217.09808      	217.06076      	217.07318      	217.08743      	217.07088      	217.0647       	217.04396      	217.0525       	217.10497      	217.09325      	217.10321      	217.08351      	217.08179      	217.09032      	217.08083      	217.10255      	217.09442      	217.07907      	217.08119      	217.09406      	217.0845       	217.10178      	217.08441      	217.08282      	217.06764      	217.07782      	217.0874       	217.07245      	217.12033      	217.10641      	217.08835      	217.10133      	217.09288      	217.10985      	217.11124      	217.14857      	217.11842      	217.15518      	217.11354      	217.08371      	217.08788      	217.10622      	217.10434      	217.10246      	217.08888      	217.13255      	217.1089       	217.1055       	217.10954      	217.0957       	217.1192       	
216.81537      	216.77725      	216.80956      	216.81569      	216.79674      	216.8115       	216.81235      	216.79816      	216.80792      	216.81293      	216.7674       	216.76562      	216.7493       	216.7579       	216.80875      	216.77365      	216.77074      	216.76009      	216.78745      	216.78763      	216.77946      	216.81703      	216.77309      	216.76222      	216.8039       	216.77963      	216.78052      	216.76108      	216.75293      	216.73595      	216.72508      	216.75177      	216.75716      	216.75798      	216.76292      	216.75047      	216.7492       	216.74782      	216.74454      	216.74107      	216.72525      	216.74867      	216.72845      	216.69835      	216.70718      	216.74837      	216.73845      	216.76228      	216.74428      	216.77957      	216.78426      	216.72755      	216.78885      	216.74902      	216.76166      	216.77051      	216.76663      	216.77342      	216.76709      	216.79524      	216.78445      	216.7867       	216.75633      	216.75368      	216.78932      	216.75993      	216.75433      	216.78297      	216.72583      	216.74867      	216.77756      	216.77435      	216.76413      	216.75189      	216.7872       	216.77338      	216.74934      	216.76035      	216.75845      	216.73259      	216.75496      	216.734        	216.71053      	216.73601      	216.74081      	216.78456      	216.75677      	216.76425      	216.759        	216.77231      	216.74393      	216.74083      	216.75461      	216.74055      	216.75168      	216.74313      	216.7475       	216.74014      	216.72433      	216.71844      	
217.21313      	217.17432      	217.18375      	217.20917      	217.17513      	217.21028      	217.16579      	217.17714      	217.16438      	217.14183      	217.17488      	217.17642      	217.18893      	217.15527      	217.18593      	217.19313      	217.15921      	217.16893      	217.13727      	217.12646      	217.14684      	217.11618      	217.14757      	217.1324       	217.14886      	217.14133      	217.11806      	217.1049       	217.11649      	217.13428      	217.14395      	217.12117      	217.13364      	217.13412      	217.15448      	217.13817      	217.12946      	217.15384      	217.13103      	217.11679      	217.12018      	217.07616      	217.15186      	217.15817      	217.0995       	217.11212      	217.08104      	217.0755       	217.05878      	217.0715       	217.0565       	217.09627      	217.0588       	217.09238      	217.08344      	217.07237      	217.05402      	217.05875      	217.03305      	217.04955      	217.06395      	217.03043      	217.04799      	217.04901      	217.03938      	217.05783      	217.0325       	217.05467      	217.0696       	217.0944       	217.06624      	217.07599      	217.03531      	217.04202      	217.03549      	217.0259       	217.0267       	217.00276      	217.00223      	216.9728       	216.99545      	217.02594      	217.00233      	217.01556      	216.99811      	216.99966      	216.99162      	217.01358      	216.98712      	216.98193      	216.97606      	216.97691      	216.97536      	216.95168      	216.9381       	216.95871      	216.9426       	216.95085      	216.95605      	216.94493      	
217.70045      	217.71466      	217.7121       	217.68088      	217.69089      	217.66846      	217.66476      	217.66367      	217.66037      	217.65338      	217.6461       	217.67494      	217.65408      	217.64723      	217.64949      	217.66104      	217.64003      	217.6057       	217.60289      	217.64725      	217.60513      	217.60765      	217.59155      	217.63498      	217.62083      	217.6076       	217.61711      	217.63402      	217.65073      	217.60406      	217.61586      	217.59921      	217.59901      	217.64096      	217.61086      	217.62071      	217.5974       	217.62068      	217.60237      	217.57536      	217.59598      	217.59592      	217.59743      	217.57237      	217.58939      	217.5594       	217.56592      	217.5691       	217.55673      	217.5702       	217.55594      	217.55052      	217.53806      	217.57535      	217.56656      	217.57837      	217.6078       	217.55688      	217.5773       	217.58665      	217.54996      	217.58446      	217.56584      	217.5966       	217.57521      	217.53891      	217.55783      	217.55917      	217.54538      	217.54018      	217.53473      	217.51718      	217.49953      	217.51424      	217.49753      	217.51532      	217.5197       	217.51888      	217.56943      	217.50583      	217.50642      	217.49571      	217.49309      	217.48814      	217.48698      	217.49149      	217.49156      	217.4899       	217.48111      	217.452        	217.45685      	217.45541      	217.41193      	217.42683      	217.41382      	217.43796      	217.43369      	217.41992      	217.43571      	217.465        	
217.48853      	217.48483      	217.46281      	217.47812      	217.43166      	217.4629       	217.44443      	217.46034      	217.47208      	217.45761      	217.47934      	217.42316      	217.43617      	217.4282       	217.45369      	217.46132      	217.47592      	217.48096      	217.44757      	217.42189      	217.44524      	217.47101      	217.40663      	217.44402      	217.44312      	217.38698      	217.45042      	217.44785      	217.44029      	217.46703      	217.46901      	217.45274      	217.4503       	217.42426      	217.43703      	217.43349      	217.42316      	217.41417      	217.4427       	217.40163      	217.43748      	217.46687      	217.4726       	217.46039      	217.48494      	217.445        	217.51678      	217.4948       	217.50534      	217.50424      	217.51903      	217.54135      	217.49976      	217.51328      	217.52808      	217.51628      	217.57065      	217.49132      	217.49359      	217.52988      	217.49718      	217.51944      	217.51897      	217.50795      	217.51823      	217.49062      	217.52191      	217.4795       	217.47043      	217.50536      	217.4975       	217.51326      	217.52286      	217.50291      	217.54866      	217.54045      	217.54251      	217.518        	217.51256      	217.48929      	217.53954      	217.54158      	217.52083      	217.57655      	217.56096      	217.56094      	217.57771      	217.54695      	217.3444       	217.41151      	217.45583      	217.40685      	217.39975      	217.36816      	217.42033      	217.50067      	217.4655       	217.42635      	217.40611      	217.43344      	
217.34898      	217.3567       	217.33556      	217.34546      	217.34706      	217.3593       	217.35573      	217.3356       	217.37085      	217.32742      	217.34955      	217.33347      	217.30817      	217.34177      	217.33235      	217.30109      	217.33238      	217.33095      	217.28995      	217.26639      	217.2897       	217.26671      	217.33453      	217.32202      	217.29007      	217.30519      	217.3026       	217.16673      	217.0987       	217.31741      	217.30685      	217.35368      	217.29881      	217.24188      	217.26488      	217.10873      	217.10411      	217.10272      	217.18846      	217.03978      	217.0563       	217.0137       	217.0013       	217.08371      	217.05333      	217.13918      	217.14438      	217.07985      	217.05402      	217.05476      	217.0963       	217.11514      	217.15335      	217.1267       	217.03883      	217.08133      	217.15208      	217.13826      	217.15845      	217.32774      	217.32037      	217.3242       	217.27783      	217.30484      	217.34602      	217.28725      	217.31902      	217.27736      	217.28313      	217.32237      	217.27829      	217.3179       	217.29294      	217.28696      	217.27707      	217.29054      	217.31242      	217.33275      	217.30412      	217.32048      	217.30905      	217.30255      	217.33522      	217.32797      	217.33945      	217.29202      	217.331        	217.32083      	217.09909      	217.15456      	217.26349      	217.24355      	217.23358      	217.25276      	217.2505       	217.23317      	217.2319       	217.24178      	217.25006      	217.23795      	
217.1961       	217.21233      	217.20425      	217.20361      	217.20233      	217.18407      	217.20602      	217.20004      	217.2109       	217.23227      	217.20638      	217.19963      	217.22372      	217.1798       	217.20164      	217.20386      	217.19034      	217.19066      	217.19196      	217.18666      	217.19963      	217.19533      	217.1738       	217.22516      	217.20876      	217.14024      	216.91498      	217.00491      	217.12238      	217.04726      	217.0744       	217.08546      	217.04715      	217.01245      	217.0507       	217.12282      	217.10019      	217.12791      	217.1316       	217.09538      	217.11394      	217.12563      	217.12592      	217.13087      	217.12917      	217.10506      	217.14192      	217.13022      	217.13962      	217.17635      	217.13075      	217.18143      	217.17917      	217.14996      	217.12714      	217.12283      	217.12924      	217.18481      	217.21515      	217.21243      	217.21272      	217.23972      	217.17783      	217.23294      	217.21915      	217.21742      	217.21939      	217.18317      	217.2225       	217.22862      	217.20335      	217.2143       	217.14906      	217.18425      	217.18385      	217.178        	217.18031      	217.19235      	217.16937      	217.18552      	217.17274      	217.16502      	217.19727      	217.18329      	217.18806      	217.19167      	217.18765      	217.13107      	216.9014       	217.03958      	217.17653      	217.14967      	217.18918      	217.17136      	217.16805      	217.17488      	217.17708      	217.17912      	217.1775       	217.19684      	
216.82484      	216.82455      	216.78004      	216.86937      	216.85864      	216.86307      	216.83057      	216.81941      	216.8068       	216.85463      	216.84665      	216.8374       	216.81047      	216.82837      	216.83644      	216.84431      	216.8577       	216.85634      	216.81424      	216.82771      	216.83081      	216.81598      	216.81224      	216.83493      	216.84703      	216.7857       	216.62825      	216.72748      	216.79604      	216.81552      	216.77107      	216.83928      	216.8382       	216.8562       	216.87141      	216.80911      	216.87215      	216.86002      	216.82562      	216.85011      	216.82875      	216.80258      	216.86469      	216.86053      	216.87614      	216.84758      	216.87224      	216.86053      	216.85806      	216.89812      	216.87006      	216.8758       	216.89024      	216.87518      	216.88162      	216.85321      	216.89743      	216.85985      	216.8679       	216.94162      	216.9827       	216.96368      	216.97264      	217.00066      	216.99374      	217.0053       	216.97011      	217.00092      	216.98119      	216.99257      	216.96901      	216.99857      	217.0097       	217.0235       	217.03297      	216.99754      	216.97089      	217.00682      	217.00197      	217.00723      	217.00006      	216.99         	216.99583      	216.96501      	217.0034       	216.9881       	216.96759      	216.95908      	216.75656      	216.7829       	216.94281      	216.93248      	216.9578       	216.9544       	216.94449      	216.91673      	216.91872      	216.90253      	216.91055      	216.89592      	
216.48778      	216.4852       	216.51405      	216.50562      	216.48505      	216.51303      	216.5108       	216.50633      	216.49135      	216.4898       	216.50252      	216.49585      	216.49974      	216.47527      	216.4886       	216.45609      	216.49596      	216.45522      	216.48755      	216.4918       	216.4637       	216.47545      	216.51663      	216.49747      	216.5119       	216.46243      	216.39526      	216.41498      	216.44102      	216.44798      	216.40799      	216.40994      	216.4194       	216.39452      	216.42313      	216.45265      	216.43457      	216.4713       	216.44981      	216.45404      	216.48161      	216.47263      	216.49387      	216.4261       	216.44043      	216.45726      	216.39714      	216.46823      	216.43532      	216.43788      	216.442        	216.42197      	216.4376       	216.42131      	216.42213      	216.44832      	216.44751      	216.60954      	216.62775      	216.6028       	216.62018      	216.61147      	216.61359      	216.58636      	216.61594      	216.60222      	216.59804      	216.59752      	216.60295      	216.61159      	216.59384      	216.58218      	216.59105      	216.56027      	216.57968      	216.58243      	216.59343      	216.60251      	216.60309      	216.59608      	216.58253      	216.5875       	216.61464      	216.62265      	216.60124      	216.60391      	216.62637      	216.61905      	216.37758      	216.49286      	216.59131      	216.59212      	216.57639      	216.6114       	216.60764      	216.61404      	216.59521      	216.58284      	216.60509      	216.58485      	
216.54703      	216.52452      	216.53893      	216.54684      	216.51651      	216.53261      	216.54611      	216.48218      	216.54584      	216.5118       	216.5215       	216.54971      	216.50711      	216.4935       	216.50911      	216.4807       	216.5056       	216.47679      	216.4708       	216.49162      	216.47885      	216.50735      	216.4931       	216.4881       	216.4708       	216.44171      	216.29753      	216.3008       	216.40184      	216.39053      	216.37387      	216.33548      	216.33195      	216.36887      	216.3585       	216.34122      	216.3453       	216.3524       	216.34546      	216.37566      	216.33725      	216.35829      	216.35231      	216.34465      	216.35124      	216.3471       	216.3559       	216.37646      	216.39095      	216.38133      	216.35252      	216.38556      	216.34618      	216.38095      	216.35532      	216.35526      	216.35344      	216.33978      	216.31134      	216.39749      	216.3432       	216.36938      	216.3935       	216.37657      	216.3855       	216.40048      	216.4166       	216.4013       	216.37062      	216.42116      	216.36076      	216.39447      	216.41751      	216.36197      	216.38419      	216.36862      	216.37135      	216.39633      	216.34865      	216.39136      	216.36241      	216.36198      	216.36066      	216.35686      	216.36678      	216.32172      	216.28824      	216.21658      	216.0533       	216.18547      	216.2308       	216.22414      	216.29942      	216.28632      	216.3178       	216.34573      	216.33034      	216.3057       	216.30753      	216.30211      	
217.25366      	217.2372       	217.25795      	217.25562      	217.2299       	217.22243      	217.22568      	217.22133      	217.24362      	217.19499      	217.16808      	217.17426      	217.15578      	217.15802      	217.12631      	217.15135      	217.1361       	217.1173       	217.13527      	217.13641      	217.1327       	217.12271      	217.11964      	217.09218      	217.09204      	217.07018      	216.92342      	216.96957      	217.08636      	217.0673       	217.07957      	217.06815      	217.07379      	217.05168      	217.04672      	217.0652       	217.07887      	217.08517      	217.04962      	217.02791      	217.0628       	217.03183      	217.05055      	217.05914      	217.01668      	217.03912      	217.01291      	217.02937      	217.01242      	217.02032      	217.01205      	216.97884      	217.01031      	216.98006      	216.98148      	216.96129      	216.9822       	216.95502      	216.95099      	217.02864      	217.00586      	217.02115      	217.03842      	217.02365      	217.05301      	217.01454      	217.04584      	216.96344      	216.94472      	216.94418      	216.9708       	216.95575      	216.92334      	216.92635      	216.93936      	216.9361       	216.91396      	216.92929      	216.93503      	216.92473      	216.91519      	216.89186      	216.92563      	216.88937      	216.92204      	216.9278       	216.89003      	216.87035      	216.64218      	216.68015      	216.8277       	216.82127      	216.80038      	216.77695      	216.80818      	216.79866      	216.75258      	216.74265      	216.75702      	216.7488       	
217.28969      	217.28442      	217.26263      	217.29904      	217.27939      	217.29324      	217.2794       	217.26569      	217.28958      	217.30202      	217.24724      	217.26521      	217.28767      	217.28712      	217.26408      	217.27884      	217.2604       	217.27826      	217.2713       	217.25595      	217.29733      	217.25189      	217.23103      	217.27147      	217.28519      	217.24641      	217.04666      	217.15918      	217.27458      	217.24658      	217.25047      	217.25638      	217.27975      	217.26434      	217.25043      	217.23927      	217.26016      	217.29282      	217.25336      	217.27255      	217.27264      	217.29042      	217.30618      	217.29482      	217.31975      	217.32042      	217.32578      	217.27853      	217.31512      	217.32625      	217.34149      	217.35677      	217.31592      	217.34503      	217.33075      	217.33449      	217.33878      	217.32668      	217.31989      	217.37074      	217.38297      	217.34822      	217.36156      	217.39369      	217.35939      	217.30612      	217.3661       	217.38736      	217.37238      	217.35736      	217.35951      	217.35406      	217.36143      	217.39551      	217.3487       	217.34416      	217.3848       	217.34988      	217.37079      	217.34268      	217.33629      	217.3505       	217.3456       	217.33482      	217.34155      	217.36986      	217.34096      	217.30057      	217.07037      	217.19827      	217.3156       	217.3181       	217.31763      	217.32454      	217.32204      	217.31342      	217.31363      	217.3274       	217.32326      	217.34283      	
217.08014      	217.06915      	217.04547      	217.0441       	217.05672      	217.07083      	217.09108      	217.07152      	217.07384      	217.03891      	217.03212      	217.03581      	217.0776       	217.10655      	217.12517      	217.12994      	217.08046      	217.07704      	217.06194      	217.0257       	217.04726      	217.01839      	217.05246      	217.06314      	217.0232       	217.06854      	216.80905      	216.88918      	217.02107      	217.03262      	217.00575      	216.97232      	217.0122       	216.99977      	216.99821      	216.99278      	216.99538      	217.00862      	216.98764      	216.97258      	216.96713      	216.99474      	217.00507      	216.99219      	217.01935      	216.96867      	217.00813      	217.01443      	217.00969      	217.01157      	217.0161       	217.02922      	217.02696      	217.0149       	217.0399       	217.00952      	217.05534      	217.00478      	217.00194      	217.13101      	217.09853      	217.0297       	217.0445       	217.07614      	217.08621      	217.09117      	217.0976       	217.07333      	217.06267      	217.0596       	217.05666      	217.0399       	217.07419      	217.02248      	217.06439      	217.04747      	217.06406      	217.05362      	217.05307      	217.05653      	217.0925       	217.06502      	217.06128      	217.10199      	217.06747      	217.11761      	217.1072       	217.0475       	216.86717      	217.00877      	217.07121      	217.07634      	217.09618      	217.09163      	217.08244      	217.1237       	217.0979       	217.08041      	217.05891      	217.09036      	
216.99632      	217.0264       	217.0184       	217.00815      	217.00983      	217.01236      	216.98741      	216.99611      	216.96104      	216.97667      	216.98842      	216.98654      	216.97842      	216.97867      	216.92801      	216.93237      	216.9703       	216.95212      	216.96786      	216.95493      	216.92943      	216.94588      	216.94531      	216.93405      	216.9593       	216.9411       	216.67442      	216.7853       	216.92693      	216.90053      	216.89435      	216.90315      	216.95328      	216.93373      	216.9304       	216.92885      	216.94418      	216.94269      	216.92313      	216.91315      	216.8854       	216.91202      	216.90302      	216.9209       	216.91591      	216.91771      	216.9224       	216.93332      	216.89064      	216.92497      	216.93735      	216.9264       	216.94814      	216.92824      	216.92715      	216.91373      	216.95819      	216.89917      	216.90746      	216.99611      	216.97806      	217.0232       	216.99484      	217.00189      	216.98659      	216.99875      	216.97394      	216.99924      	216.98866      	216.95718      	216.95668      	216.94719      	216.94434      	216.95514      	216.93639      	216.96062      	216.95856      	216.96251      	216.92703      	216.90372      	216.93211      	216.94255      	216.94167      	216.94426      	216.91267      	216.91032      	216.90169      	216.83751      	216.6797       	216.75974      	216.89609      	216.91144      	216.90163      	216.88284      	216.89972      	216.90077      	216.90643      	216.88168      	216.89359      	216.91522      	
216.92311      	216.93484      	216.90167      	216.92921      	216.91217      	216.91364      	216.93962      	216.90977      	216.93558      	216.90085      	216.89032      	216.91853      	216.86378      	216.85973      	216.87402      	216.87697      	216.85541      	216.87892      	216.88321      	216.85849      	216.87613      	216.84926      	216.8464       	216.8645       	216.87294      	216.88187      	216.64517      	216.69785      	216.84894      	216.81107      	216.8126       	216.83255      	216.8182       	216.77776      	216.79884      	216.80832      	216.7857       	216.79245      	216.79689      	216.8046       	216.83466      	216.80771      	216.8283       	216.82445      	216.82436      	216.81346      	216.85236      	216.8475       	216.8323       	216.84023      	216.84483      	216.82858      	216.85764      	216.83838      	216.8358       	216.84854      	216.86948      	216.93024      	216.87779      	216.90512      	216.88933      	216.90265      	216.92401      	216.87158      	216.87592      	216.89532      	216.8679       	216.86914      	216.87198      	216.89174      	216.91486      	216.9006       	216.91734      	216.87506      	216.86722      	216.89835      	216.91354      	216.84662      	216.84354      	216.8707       	216.87228      	216.85074      	216.88637      	216.884        	216.88202      	216.8668       	216.88568      	216.81337      	216.61642      	216.67165      	216.81152      	216.83034      	216.8562       	216.82889      	216.82014      	216.81006      	216.8291       	216.82399      	216.8209       	216.82538      	
216.70282      	216.6717       	216.68051      	216.69084      	216.68051      	216.67447      	216.65492      	216.71689      	216.73642      	216.72021      	216.72931      	216.73912      	216.70702      	216.72581      	216.68813      	216.7089       	216.70305      	216.69157      	216.71056      	216.67966      	216.67357      	216.66168      	216.71487      	216.67279      	216.67184      	216.67253      	216.47852      	216.4768       	216.6234       	216.61868      	216.61165      	216.62753      	216.61003      	216.60164      	216.598        	216.62955      	216.61273      	216.60986      	216.62888      	216.5941       	216.63892      	216.63972      	216.63858      	216.66318      	216.63387      	216.65088      	216.64322      	216.63168      	216.67204      	216.6791       	216.65665      	216.65274      	216.66537      	216.64665      	216.64949      	216.65013      	216.629        	216.72003      	216.70474      	216.6777       	216.6631       	216.6813       	216.6579       	216.68163      	216.6757       	216.64989      	216.65251      	216.65323      	216.65543      	216.6796       	216.66814      	216.68098      	216.70898      	216.66656      	216.66895      	216.70595      	216.70184      	216.69229      	216.68604      	216.6973       	216.66698      	216.69418      	216.71175      	216.6869       	216.66005      	216.6486       	216.71169      	216.6339       	216.41183      	216.55444      	216.65291      	216.68655      	216.68854      	216.67131      	216.68927      	216.68881      	216.68887      	216.671        	216.64464      	216.61807      	
216.20662      	216.20602      	216.20265      	216.18683      	216.1807       	216.18881      	216.17764      	216.20868      	216.19952      	216.20343      	216.2214       	216.19386      	216.22142      	216.207        	216.20224      	216.20221      	216.21194      	216.19524      	216.21405      	216.22105      	216.18678      	216.18115      	216.21214      	216.22519      	216.19978      	216.17732      	216.04932      	216.0268       	216.18248      	216.16049      	216.14201      	216.17096      	216.20258      	216.17719      	216.17503      	216.17792      	216.19214      	216.20175      	216.20825      	216.18604      	216.20482      	216.24757      	216.2244       	216.2009       	216.22739      	216.24973      	216.26752      	216.24673      	216.27394      	216.28459      	216.24794      	216.27487      	216.25922      	216.2487       	216.23318      	216.2494       	216.25732      	216.23727      	216.2337       	216.28705      	216.27971      	216.27274      	216.2754       	216.30574      	216.29083      	216.3039       	216.31207      	216.31749      	216.2969       	216.34877      	216.3047       	216.27953      	216.29834      	216.32504      	216.31998      	216.3345       	216.32648      	216.35547      	216.36693      	216.32352      	216.37352      	216.36636      	216.32666      	216.25848      	216.37192      	216.3581       	216.32921      	216.33977      	216.13786      	216.19826      	216.29468      	216.27344      	216.28204      	216.29413      	216.28822      	216.27672      	216.24493      	216.26886      	216.30923      	216.27806      	
216.19249      	216.1502       	216.14291      	216.14899      	216.17557      	216.18996      	216.17986      	216.17557      	216.14772      	216.17503      	216.14827      	216.12704      	216.16985      	216.16405      	216.18214      	216.16127      	216.1434       	216.14716      	216.13744      	216.15077      	216.15291      	216.16286      	216.12982      	216.1062       	216.14493      	216.09943      	215.93408      	215.93326      	216.10411      	216.12218      	216.1176       	216.10101      	216.10349      	216.10342      	216.10324      	216.07558      	216.10773      	216.11163      	216.1067       	216.10638      	216.0809       	216.09007      	216.1365       	216.11182      	216.112        	216.0836       	216.09161      	216.10231      	216.07498      	216.09995      	216.09056      	216.08984      	216.1113       	216.10165      	216.11038      	216.12047      	216.17398      	216.0851       	216.06302      	216.15521      	216.13695      	216.16249      	216.12682      	216.11961      	216.15985      	216.13576      	216.13034      	216.10512      	216.14174      	216.12392      	216.15103      	216.1092       	216.11261      	216.16608      	216.15997      	216.12106      	216.12408      	216.1096       	216.11182      	216.0897       	216.11472      	216.08147      	216.11638      	216.14456      	216.098        	216.12312      	216.11192      	216.06819      	215.89136      	215.95502      	216.0908       	216.0995       	216.09027      	216.08836      	216.08357      	216.0672       	216.09642      	216.08586      	216.10808      	216.09088      	
216.45598      	216.47382      	216.46097      	216.51126      	216.48715      	216.5003       	216.48404      	216.47778      	216.40218      	216.4358       	216.41602      	216.41103      	216.38287      	216.39023      	216.39493      	216.38596      	216.3964       	216.37549      	216.38763      	216.35799      	216.37692      	216.34822      	216.36563      	216.35243      	216.35327      	216.39973      	216.1411       	216.15266      	216.31024      	216.32219      	216.28903      	216.29216      	216.30365      	216.33072      	216.33678      	216.34523      	216.29572      	216.3131       	216.30956      	216.29593      	216.25768      	216.26476      	216.2761       	216.30368      	216.29118      	216.31395      	216.32747      	216.28265      	216.31062      	216.26158      	216.27702      	216.31029      	216.29881      	216.2848       	216.3174       	216.25537      	216.29208      	216.3125       	216.28185      	216.36371      	216.32782      	216.34259      	216.33546      	216.33676      	216.32928      	216.30217      	216.3243       	216.32106      	216.30174      	216.31456      	216.28595      	216.32912      	216.31062      	216.31389      	216.32031      	216.2688       	216.331        	216.3226       	216.28754      	216.3178       	216.2781       	216.33177      	216.33823      	216.27411      	216.29015      	216.24706      	216.27188      	216.26328      	216.0223       	216.09         	216.23322      	216.22684      	216.23415      	216.18822      	216.20776      	216.20706      	216.23697      	216.21886      	216.23691      	216.21935      	
217.2635       	217.23952      	217.24045      	217.26471      	217.25789      	217.2403       	217.15614      	217.19057      	217.21297      	217.18736      	217.17628      	217.17285      	217.16652      	217.16086      	217.14427      	217.15158      	217.16505      	217.17477      	217.197        	217.16212      	217.12424      	217.13121      	217.06464      	217.11752      	217.08046      	217.04742      	216.91718      	216.8833       	217.02449      	217.02083      	216.99525      	216.99059      	216.98717      	216.98997      	216.94724      	216.93303      	216.96272      	216.98163      	216.97614      	216.96056      	216.92848      	216.9354       	216.9505       	216.9488       	216.92479      	216.90707      	216.90219      	216.90793      	216.91333      	216.92679      	216.87523      	216.86102      	216.86105      	216.89966      	216.85345      	216.8574       	216.83911      	216.89296      	217.00383      	216.85228      	216.85287      	216.82968      	216.86781      	216.80568      	216.80284      	216.8196       	216.83879      	216.85211      	216.84926      	216.82993      	216.79817      	216.82645      	216.79352      	216.78448      	216.80243      	216.7891       	216.73306      	216.7422       	216.79709      	216.75706      	216.74878      	216.73212      	216.73712      	216.73802      	216.73103      	216.74521      	216.68823      	216.65237      	216.45897      	216.51414      	216.68385      	216.6448       	216.62013      	216.62491      	216.65105      	216.62856      	216.62793      	216.62656      	216.63084      	216.6385       	
217.97247      	217.96893      	217.99521      	217.98427      	217.94498      	217.97655      	217.97192      	217.94606      	217.94635      	217.9645       	217.96828      	217.94278      	217.96828      	217.97874      	217.94289      	217.95654      	217.9515       	217.97557      	217.9402       	217.933        	217.93678      	217.91612      	217.91745      	217.94315      	217.94897      	217.8967       	217.75612      	217.66869      	217.88312      	217.87556      	217.84717      	217.83992      	217.87709      	217.85497      	217.86469      	217.86433      	217.83722      	217.86049      	217.85992      	217.88313      	217.8583       	217.84685      	217.86862      	217.85628      	217.86826      	217.85904      	217.8456       	217.86305      	217.83495      	217.87828      	217.85622      	217.85245      	217.84796      	217.85516      	217.85294      	217.85504      	217.8697       	217.91772      	217.78693      	217.90465      	217.90489      	217.8967       	217.87323      	217.87604      	217.88704      	217.84277      	217.83128      	217.8513       	217.8411       	217.90015      	217.91428      	217.8908       	217.89648      	217.84976      	217.87794      	217.9143       	217.90497      	217.93336      	217.85817      	217.9075       	217.8991       	217.89728      	217.74959      	217.62027      	217.50587      	217.58975      	217.63625      	217.76979      	217.74496      	217.64427      	217.78607      	217.78893      	217.79865      	217.78622      	217.78094      	217.75357      	217.77084      	217.78171      	217.79984      	217.77989      	
217.61252      	217.65137      	217.63493      	217.60992      	217.61903      	217.61842      	217.60684      	217.61987      	217.62787      	217.61638      	217.64243      	217.64487      	217.63292      	217.664        	217.68695      	217.67805      	217.6467       	217.67735      	217.64926      	217.64064      	217.67905      	217.68362      	217.66637      	217.67905      	217.69394      	217.72292      	217.52751      	217.50034      	217.63617      	217.62619      	217.6776       	217.67854      	217.67267      	217.66196      	217.66957      	217.67282      	217.68906      	217.70944      	217.66936      	217.68484      	217.6785       	217.70476      	217.746        	217.7114       	217.70041      	217.70848      	217.74872      	217.72545      	217.71439      	217.70874      	217.72086      	217.74251      	217.73611      	217.72992      	217.71143      	217.73738      	217.73851      	217.77246      	217.76595      	217.79185      	217.798        	217.78209      	217.81427      	217.81473      	217.7875       	217.81686      	217.82535      	217.82948      	217.82478      	217.79152      	217.80643      	217.79372      	217.85573      	217.83473      	217.83488      	217.79478      	217.7991       	217.84776      	217.80103      	217.8137       	217.80133      	217.78822      	217.79012      	217.80959      	217.802        	217.80104      	217.80426      	217.79945      	217.6333       	217.65416      	217.77988      	217.77716      	217.80843      	217.77013      	217.77982      	217.78499      	217.78079      	217.76381      	217.78818      	217.77019      	
217.18431      	217.21474      	217.22112      	217.22412      	217.21951      	217.20306      	217.23964      	217.19173      	217.18216      	217.19957      	217.21959      	217.19089      	217.20473      	217.2525       	217.21698      	217.23253      	217.23465      	217.2305       	217.28058      	217.3002       	217.31972      	217.33131      	217.36565      	217.39767      	217.32376      	217.32234      	217.15813      	217.18459      	217.29533      	217.28688      	217.31         	217.29117      	217.32248      	217.30988      	217.31009      	217.30664      	217.32364      	217.29825      	217.33646      	217.34332      	217.3318       	217.30511      	217.29584      	217.2975       	217.319        	217.30948      	217.29617      	217.34718      	217.31194      	217.32144      	217.34898      	217.2921       	217.3261       	217.32455      	217.35301      	217.3265       	217.31682      	217.3664       	217.42313      	217.38051      	217.36102      	217.39134      	217.36792      	217.34572      	217.37898      	217.36385      	217.39087      	217.36485      	217.35204      	217.37161      	217.41194      	217.3947       	217.42278      	217.44672      	217.42255      	217.38629      	217.40843      	217.40929      	217.36916      	217.38626      	217.37894      	217.41487      	217.4025       	217.41061      	217.41466      	217.38419      	217.4028       	217.41696      	217.25893      	217.20364      	217.39664      	217.40952      	217.3906       	217.37898      	217.38118      	217.38118      	217.3968       	217.37492      	217.36049      	217.38214      	
217.1609       	217.13007      	217.15862      	217.15848      	217.12344      	217.10837      	217.06834      	217.06438      	217.09682      	217.12172      	217.12303      	217.09148      	217.09377      	217.06808      	217.09604      	217.07414      	217.05399      	217.07669      	217.03412      	217.0678       	217.02875      	217.03735      	217.01675      	217.07211      	217.09093      	217.05133      	216.93414      	216.93507      	217.0488       	217.01653      	217.05467      	216.99083      	216.99582      	217.01332      	217.00621      	217.03294      	217.01805      	217.04175      	217.03079      	217.0341       	217.06265      	217.0637       	217.07878      	217.04999      	217.05577      	217.09732      	217.10997      	217.09799      	217.088        	217.10033      	217.1228       	217.11314      	217.11214      	217.11092      	217.13972      	217.15387      	217.10606      	217.09898      	217.0137       	217.06795      	217.11476      	217.08318      	217.13019      	217.1214       	217.12265      	217.13307      	217.14532      	217.14005      	217.12596      	217.11688      	217.10449      	217.1378       	217.11711      	217.10712      	217.12566      	217.13501      	217.12318      	217.15405      	217.12492      	217.11569      	217.1094       	217.09846      	217.10188      	217.05727      	217.04436      	217.087        	217.0471       	217.10751      	216.91545      	216.84703      	217.00668      	217.01277      	217.06126      	217.03787      	217.042        	217.0485       	217.03444      	217.03474      	217.01405      	217.01434      	
217.29166      	217.26926      	217.28192      	217.25198      	217.24535      	217.26175      	217.26312      	217.26901      	217.29526      	217.2651       	217.24889      	217.26346      	217.244        	217.2659       	217.25491      	217.25334      	217.2363       	217.2177       	217.2634       	217.25267      	217.23737      	217.21086      	217.25266      	217.25978      	217.2207       	217.24225      	217.05138      	217.01468      	217.201        	217.18343      	217.20084      	217.20242      	217.21233      	217.18872      	217.18845      	217.19777      	217.21892      	217.22643      	217.20499      	217.2146       	217.2401       	217.20193      	217.27582      	217.23904      	217.26855      	217.25934      	217.21729      	217.25244      	217.20906      	217.2383       	217.24886      	217.23167      	217.23804      	217.21477      	217.23395      	217.21307      	217.21283      	217.2636       	217.3515       	217.27419      	217.2902       	217.25862      	217.23347      	217.23024      	217.23322      	217.2326       	217.18507      	217.20647      	217.19554      	217.2213       	217.17381      	217.1881       	217.2452       	217.24564      	217.2413       	217.2267       	217.26613      	217.25719      	217.27611      	217.27318      	217.21913      	217.21313      	217.22098      	217.17317      	217.2111       	217.18573      	217.23462      	217.14455      	217.02986      	216.944        	217.11655      	217.10732      	217.11781      	217.117        	217.1679       	217.14436      	217.17526      	217.17         	217.13405      	217.13304      	
217.51175      	217.51979      	217.52167      	217.51654      	217.5233       	217.52637      	217.49861      	217.50706      	217.46378      	217.50613      	217.52509      	217.52272      	217.52664      	217.53142      	217.51895      	217.52292      	217.52536      	217.49892      	217.46182      	217.48357      	217.5106       	217.51222      	217.506        	217.47446      	217.52538      	217.52922      	217.3829       	217.31961      	217.4904       	217.55264      	217.53993      	217.54028      	217.521        	217.531        	217.54526      	217.55736      	217.56686      	217.5818       	217.56447      	217.54436      	217.57233      	217.53871      	217.56584      	217.52937      	217.51361      	217.54672      	217.48936      	217.50896      	217.52383      	217.49452      	217.46523      	217.5088       	217.53711      	217.51375      	217.49875      	217.50475      	217.52756      	217.49086      	217.35753      	217.46034      	217.56032      	217.57278      	217.5591       	217.57481      	217.53146      	217.55653      	217.5593       	217.55705      	217.55737      	217.56293      	217.55566      	217.56277      	217.54173      	217.53377      	217.55783      	217.55574      	217.517        	217.53474      	217.5159       	217.51837      	217.5252       	217.50165      	217.54524      	217.54721      	217.55585      	217.52448      	217.57959      	217.57538      	217.36412      	217.29514      	217.49734      	217.51883      	217.47385      	217.45546      	217.48126      	217.49026      	217.47403      	217.44603      	217.43774      	217.43456      	
217.59242      	217.58725      	217.62157      	217.63089      	217.59488      	217.58328      	217.57591      	217.5611       	217.53615      	217.5432       	217.54192      	217.56569      	217.55095      	217.54929      	217.52547      	217.53108      	217.53651      	217.54153      	217.54794      	217.54451      	217.50223      	217.51137      	217.48643      	217.52669      	217.53244      	217.48778      	217.35336      	217.33514      	217.4939       	217.50876      	217.42586      	217.47997      	217.46281      	217.45613      	217.47946      	217.47198      	217.50131      	217.45491      	217.43027      	217.45355      	217.426        	217.44688      	217.46727      	217.4445       	217.50658      	217.5228       	217.48933      	217.47816      	217.44167      	217.43042      	217.4357       	217.46663      	217.45525      	217.45944      	217.44302      	217.42465      	217.44693      	217.48392      	217.36423      	217.42871      	217.39911      	217.42337      	217.43204      	217.44814      	217.44978      	217.44289      	217.4388       	217.42572      	217.44395      	217.41428      	217.43481      	217.43352      	217.44302      	217.4379       	217.39578      	217.41429      	217.39436      	217.42923      	217.43262      	217.41261      	217.4203       	217.40138      	217.42361      	217.40744      	217.43607      	217.44974      	217.4398       	217.4526       	217.2758       	217.23         	217.42865      	217.38832      	217.41878      	217.39647      	217.40828      	217.43172      	217.40952      	217.40102      	217.41403      	217.41827      	
217.54947      	217.56323      	217.54991      	217.56552      	217.54549      	217.53012      	217.56264      	217.53287      	217.50806      	217.49643      	217.53888      	217.55971      	217.49658      	217.44443      	217.5167       	217.54639      	217.51048      	217.47037      	217.47841      	217.44078      	217.54321      	217.51524      	217.50877      	217.5651       	217.49767      	217.46027      	217.42494      	217.3784       	217.43527      	217.43944      	217.38867      	217.42285      	217.45995      	217.41624      	217.44783      	217.41805      	217.49326      	217.46718      	217.45596      	217.46811      	217.46315      	217.48863      	217.45978      	217.4659       	217.49553      	217.52435      	217.50935      	217.45763      	217.52652      	217.52954      	217.49664      	217.52686      	217.58269      	217.58368      	217.46439      	217.49689      	217.58946      	217.46274      	217.38615      	217.53046      	217.5912       	217.59448      	217.53888      	217.5895       	217.56696      	217.57446      	217.51878      	217.4979       	217.54941      	217.54254      	217.56535      	217.52913      	217.56863      	217.5423       	217.50124      	217.58328      	217.53644      	217.52277      	217.53664      	217.54306      	217.5398       	217.5582       	217.53815      	217.56836      	217.58273      	217.5609       	217.57112      	217.55574      	217.33421      	217.36678      	217.47688      	217.51549      	217.54012      	217.51512      	217.48216      	217.48888      	217.4907       	217.49724      	217.51102      	217.48228      	
217.77701      	217.71239      	217.73415      	217.73708      	217.71446      	217.69655      	217.77145      	217.7494       	217.71703      	217.71004      	217.72606      	217.7182       	217.71461      	217.73357      	217.73048      	217.72574      	217.72699      	217.70451      	217.76492      	217.73964      	217.76903      	217.76808      	217.77806      	217.75592      	217.77432      	217.81517      	217.58217      	217.5565       	217.73145      	217.72404      	217.6962       	217.72893      	217.70993      	217.75471      	217.71942      	217.70062      	217.6898       	217.69075      	217.66895      	217.67287      	217.68597      	217.68924      	217.69794      	217.6639       	217.6639       	217.66515      	217.6824       	217.67952      	217.65584      	217.66522      	217.68297      	217.66814      	217.67825      	217.66127      	217.6736       	217.64275      	217.63829      	217.66591      	217.54474      	217.66528      	217.6652       	217.66884      	217.71063      	217.67372      	217.67625      	217.63222      	217.664        	217.67198      	217.64664      	217.67326      	217.63095      	217.63298      	217.63583      	217.63593      	217.66714      	217.62796      	217.60028      	217.62119      	217.59196      	217.61334      	217.66177      	217.59677      	217.62741      	217.62509      	217.57062      	217.61378      	217.61621      	217.61217      	217.44894      	217.36429      	217.5838       	217.59593      	217.58122      	217.58105      	217.58714      	217.59341      	217.5966       	217.57553      	217.58147      	217.57152      	
217.76796      	217.75613      	217.7374       	217.74309      	217.76106      	217.7876       	217.78146      	217.7768       	217.77066      	217.76129      	217.7732       	217.7832       	217.79816      	217.79062      	217.81773      	217.84442      	217.85         	217.81007      	217.83212      	217.84349      	217.83286      	217.78801      	217.81772      	217.8546       	217.80203      	217.82495      	217.64969      	217.59036      	217.78989      	217.77376      	217.76859      	217.7757       	217.76852      	217.8172       	217.7968       	217.79869      	217.80821      	217.81502      	217.81618      	217.81755      	217.80826      	217.774        	217.7641       	217.76033      	217.77414      	217.82993      	217.82535      	217.80936      	217.87218      	217.8182       	217.81505      	217.85027      	217.82973      	217.84203      	217.84889      	217.82713      	217.82184      	217.85736      	217.76329      	217.86827      	217.85349      	217.86298      	217.83952      	217.83748      	217.86743      	217.87473      	217.84036      	217.83607      	217.84293      	217.8497       	217.85912      	217.84138      	217.83325      	217.84683      	217.87785      	217.8464       	217.831        	217.8365       	217.84352      	217.84586      	217.82333      	217.83295      	217.83572      	217.84132      	217.8494       	217.81102      	217.86629      	217.84494      	217.66855      	217.55273      	217.80975      	217.77187      	217.78217      	217.80159      	217.76382      	217.77513      	217.77197      	217.78046      	217.7685       	217.7936       	
217.4354       	217.44589      	217.44939      	217.46541      	217.46428      	217.45287      	217.42351      	217.4537       	217.46078      	217.48276      	217.46939      	217.4676       	217.50189      	217.47879      	217.47475      	217.49303      	217.4562       	217.44693      	217.41293      	217.4632       	217.44704      	217.42561      	217.41968      	217.40134      	217.41603      	217.43211      	217.19759      	217.23102      	217.38739      	217.39523      	217.36655      	217.3445       	217.37448      	217.41849      	217.34995      	217.36227      	217.31046      	217.34023      	217.36417      	217.34482      	217.35248      	217.32655      	217.30908      	217.32501      	217.31564      	217.34598      	217.34431      	217.33456      	217.36287      	217.34744      	217.35086      	217.37231      	217.33318      	217.36864      	217.30434      	217.35289      	217.3591       	217.38882      	217.2662       	217.36322      	217.3734       	217.40042      	217.4013       	217.44054      	217.44078      	217.44423      	217.39638      	217.38968      	217.40868      	217.39313      	217.41449      	217.41057      	217.42342      	217.37889      	217.4077       	217.42783      	217.41287      	217.42073      	217.44005      	217.4381       	217.43967      	217.4397       	217.44156      	217.4223       	217.48488      	217.45517      	217.48405      	217.48616      	217.41994      	217.26646      	217.37508      	217.42912      	217.4611       	217.46257      	217.50545      	217.50482      	217.4894       	217.47992      	217.47493      	217.46007      	
217.4426       	217.45393      	217.4646       	217.4332       	217.45273      	217.45863      	217.48396      	217.47737      	217.44968      	217.46002      	217.41507      	217.44792      	217.4754       	217.44882      	217.41829      	217.41737      	217.43031      	217.45929      	217.41713      	217.4248       	217.39844      	217.39357      	217.3767       	217.35638      	217.4073       	217.4111       	217.21957      	217.22371      	217.39664      	217.4192       	217.39548      	217.36722      	217.40779      	217.40063      	217.39598      	217.3987       	217.38312      	217.39525      	217.37001      	217.41574      	217.39958      	217.36913      	217.35814      	217.40584      	217.31087      	217.37344      	217.39899      	217.3684       	217.4056       	217.39925      	217.39139      	217.36272      	217.40036      	217.38687      	217.39438      	217.37965      	217.388        	217.40813      	217.29205      	217.431        	217.44019      	217.43549      	217.42172      	217.41615      	217.42593      	217.38405      	217.40619      	217.3985       	217.40169      	217.38037      	217.3859       	217.37457      	217.38168      	217.35645      	217.37303      	217.39436      	217.40628      	217.41342      	217.43369      	217.43018      	217.42392      	217.43164      	217.38666      	217.38925      	217.3772       	217.37619      	217.41196      	217.47217      	217.24944      	217.14586      	217.32448      	217.35104      	217.37518      	217.33607      	217.3502       	217.34596      	217.35344      	217.34409      	217.37273      	217.37418      	
217.98561      	217.98521      	217.97382      	217.95985      	217.97043      	217.99323      	218.00331      	217.92593      	217.96872      	217.94296      	217.95532      	217.95076      	217.93056      	217.93341      	217.94028      	217.9534       	217.91364      	217.9337       	217.90877      	217.89093      	217.91696      	217.88553      	217.95888      	217.93416      	217.89714      	217.92526      	217.6928       	217.66673      	217.83917      	217.81598      	217.84912      	217.8422       	217.84921      	217.83412      	217.84506      	217.81436      	217.84009      	217.82623      	217.84709      	217.8431       	217.78987      	217.78781      	217.80486      	217.76321      	217.79315      	217.79378      	217.78694      	217.75935      	217.76874      	217.76352      	217.71996      	217.74767      	217.74149      	217.73563      	217.73256      	217.7214       	217.739        	217.7657       	217.81308      	217.73148      	217.73755      	217.7575       	217.75781      	217.72032      	217.71481      	217.72943      	217.69891      	217.73471      	217.74896      	217.76747      	217.72755      	217.71994      	217.697        	217.71036      	217.6779       	217.69174      	217.67244      	217.66539      	217.65903      	217.63931      	217.64601      	217.64903      	217.66731      	217.67177      	217.66388      	217.63875      	217.66628      	217.65137      	217.49985      	217.38354      	217.63573      	217.62115      	217.6072       	217.61618      	217.60709      	217.61034      	217.60237      	217.57986      	217.58368      	217.57037      	
218.29678      	218.31113      	218.33559      	218.32512      	218.34691      	218.3749       	218.34183      	218.31999      	218.31569      	218.30754      	218.30716      	218.30093      	218.33493      	218.33487      	218.33463      	218.30258      	218.31487      	218.33478      	218.29842      	218.34279      	218.33482      	218.30525      	218.36261      	218.3268       	218.27238      	218.28654      	218.12306      	218.08577      	218.2726       	218.30069      	218.2953       	218.30466      	218.31786      	218.3015       	218.30527      	218.27594      	218.2928       	218.3078       	218.27644      	218.28883      	218.29494      	218.28336      	218.2463       	218.28117      	218.2698       	218.26976      	218.31554      	218.28703      	218.29454      	218.33348      	218.28995      	218.2831       	218.31781      	218.27866      	218.27484      	218.30959      	218.2672       	218.32047      	218.29297      	218.27075      	218.34103      	218.323        	218.32217      	218.32103      	218.277        	218.25645      	218.27374      	218.26985      	218.26196      	218.29623      	218.27077      	218.28809      	218.2841       	218.25974      	218.29811      	218.30052      	218.30202      	218.25583      	218.2861       	218.25879      	218.26393      	218.27815      	218.26166      	218.29442      	218.27638      	218.24974      	218.2739       	218.26572      	218.13191      	218.02946      	218.20775      	218.27086      	218.27892      	218.25401      	218.24632      	218.26935      	218.25182      	218.23048      	218.23166      	218.23383      	
218.12086      	218.1053       	218.15495      	218.1224       	218.11671      	218.10522      	218.1215       	218.16273      	218.1478       	218.10684      	218.08127      	218.1144       	218.13998      	218.09547      	218.13568      	218.10109      	218.11935      	218.10452      	218.13112      	218.1419       	218.09644      	218.10623      	218.14291      	218.12125      	218.1256       	218.12437      	218.0111       	217.86465      	218.05228      	218.0887       	218.08531      	218.09251      	218.09186      	218.09866      	218.10944      	218.08922      	218.10352      	218.12704      	218.1176       	218.11346      	218.10837      	218.09409      	218.13315      	218.12485      	218.11385      	218.11214      	218.12823      	218.10449      	218.1198       	218.1148       	218.13333      	218.11513      	218.06235      	218.09293      	218.1069       	218.11227      	218.10327      	218.11777      	218.29218      	218.1259       	218.1218       	218.12872      	218.1352       	218.16507      	218.16193      	218.17285      	218.15096      	218.19115      	218.18057      	218.16824      	218.12718      	218.1961       	218.16534      	218.12932      	218.14021      	218.12305      	218.13931      	218.13501      	218.1247       	218.17041      	218.16379      	218.14613      	218.15489      	218.17238      	218.18056      	218.15573      	218.19052      	218.17438      	218.01653      	217.95541      	218.11366      	218.13364      	218.14987      	218.11403      	218.11781      	218.12503      	218.11237      	218.18854      	218.17868      	218.16061      	
218.065        	218.07684      	218.06573      	218.0432       	218.0453       	218.05894      	218.05435      	218.07373      	218.05241      	218.06155      	218.06519      	218.06204      	218.07684      	218.06169      	218.06456      	218.0315       	218.08421      	218.05618      	218.03996      	218.04959      	218.03304      	218.08353      	218.03377      	218.04352      	218.07188      	218.04898      	218.01894      	217.82642      	217.95258      	218.03673      	218.04967      	218.06087      	218.07779      	218.02905      	217.98582      	217.97977      	217.976        	217.9878       	218.00455      	217.98126      	217.96909      	217.97215      	217.9789       	217.97363      	217.99384      	217.98752      	217.96432      	217.9703       	217.98827      	217.98016      	217.96791      	217.9448       	217.98119      	217.96146      	217.9471       	217.96515      	217.95958      	217.9817       	217.94675      	217.98244      	218.0167       	218.01161      	218.00914      	218.02223      	218.02145      	218.03258      	218.03624      	218.05797      	218.06024      	218.06093      	218.02132      	218.03328      	218.05922      	218.0546       	218.01663      	218.00775      	218.01495      	218.0298       	218.016        	218.05063      	218.02985      	218.03355      	218.02887      	217.9977       	218.01605      	218.0211       	218.04738      	218.00494      	217.9064       	217.78653      	217.76788      	217.7888       	217.76999      	217.8168       	217.8246       	217.8547       	217.8729       	217.88484      	217.98495      	217.90578      	
218.04869      	218.0156       	218.02019      	218.03651      	217.99217      	217.98651      	217.99275      	217.98854      	218.01349      	218.00632      	218.01971      	218.04587      	218.03906      	217.9715       	217.94798      	217.97887      	217.9795       	217.96492      	217.98001      	217.9857       	217.9892       	217.99684      	217.95848      	217.97363      	217.96559      	217.96707      	217.9307       	217.79164      	217.77393      	217.91078      	217.80585      	217.78998      	217.80995      	217.8399       	217.86241      	217.86197      	217.79417      	217.85829      	217.84988      	217.81882      	217.76497      	217.79745      	217.83195      	217.812        	217.7321       	217.77402      	217.7671       	217.73965      	217.78937      	217.77579      	217.73137      	217.70985      	217.73534      	217.71379      	217.74791      	217.73732      	217.79202      	217.77295      	217.82016      	217.986        	217.99986      	217.94577      	217.99707      	218.03098      	218.00516      	217.98763      	218.00824      	218.00276      	217.97617      	217.9492       	217.9861       	217.9707       	217.9702       	217.99236      	218.00616      	217.99072      	218.01529      	217.991        	217.97485      	217.99815      	217.98358      	217.95424      	217.9658       	217.98888      	218.02818      	218.00266      	217.98717      	217.99213      	217.99876      	218.01318      	217.98302      	217.92136      	217.97711      	217.84613      	217.69772      	217.73029      	217.80519      	217.76897      	217.76775      	217.85376      	
217.98685      	217.98338      	217.9898       	218.00838      	218.03372      	217.99872      	217.99585      	217.97433      	217.97919      	217.99046      	217.95354      	218.00935      	217.99982      	218.00294      	218.01474      	218.0102       	218.01677      	218.00816      	218.02005      	218.0596       	218.04991      	218.11086      	218.06903      	218.01765      	218.04593      	218.07635      	218.06917      	218.05597      	218.07422      	218.00667      	218.06958      	218.09471      	218.10788      	218.10368      	218.08487      	218.11336      	218.12372      	217.9908       	218.16946      	218.16603      	218.11526      	218.1281       	218.11566      	218.15334      	218.17351      	218.1446       	218.14313      	218.12022      	218.16829      	218.17819      	218.16466      	218.1806       	218.15826      	218.18321      	218.17244      	218.20433      	218.1798       	218.20076      	218.19257      	218.17122      	218.2158       	218.23103      	218.21794      	218.16437      	218.23203      	218.21426      	218.17946      	218.21303      	218.20145      	218.22903      	218.23007      	218.23714      	218.21754      	218.25307      	218.21901      	218.21916      	218.22934      	218.22234      	218.22874      	218.24487      	218.22755      	218.26253      	218.24675      	218.22713      	218.26788      	218.24742      	218.25099      	218.2842       	218.24037      	218.25844      	218.27716      	218.30411      	218.28067      	218.28766      	218.21387      	218.10573      	218.20914      	218.2131       	218.23721      	218.25848      	
217.9601       	217.96829      	217.94505      	217.99191      	217.96927      	217.947        	217.94113      	217.95909      	217.96239      	217.95355      	217.94075      	217.94931      	217.98949      	217.99487      	217.94945      	217.96817      	217.97363      	217.96274      	217.99767      	217.98242      	217.96536      	217.96007      	217.94896      	217.95116      	217.96526      	217.96312      	217.97987      	217.9766       	217.93716      	217.95413      	217.95142      	217.91078      	217.97575      	217.95483      	217.9002       	217.92593      	217.94064      	217.95299      	217.914        	217.91966      	217.92041      	217.93655      	217.93878      	217.92668      	217.91106      	217.88525      	217.90967      	217.9393       	217.90431      	217.91493      	217.94653      	217.89894      	217.9038       	217.9066       	217.92746      	217.90071      	217.91019      	217.89484      	217.90666      	217.90251      	217.90494      	217.89488      	217.85571      	217.84796      	217.88069      	217.8679       	217.88599      	217.85808      	217.85654      	217.85683      	217.8328       	217.87299      	217.8597       	217.88028      	217.82376      	217.86362      	217.85408      	217.83372      	217.83331      	217.85358      	217.82677      	217.82262      	217.8291       	217.83841      	217.82318      	217.82956      	217.80435      	217.81277      	217.78783      	217.76752      	217.78897      	217.76169      	217.7496       	217.75839      	217.7684       	217.76001      	217.75519      	217.81276      	217.76913      	217.76419      	
218.25722      	218.27863      	218.26942      	218.2365       	218.23381      	218.247        	218.25168      	218.26552      	218.28938      	218.23746      	218.26195      	218.28117      	218.27162      	218.27692      	218.2497       	218.26978      	218.27672      	218.2446       	218.23305      	218.26524      	218.23973      	218.28662      	218.31369      	218.28922      	218.2803       	218.28055      	218.29984      	218.29532      	218.26424      	218.24504      	218.24635      	218.26524      	218.24733      	218.22763      	218.2493       	218.23103      	218.2094       	218.26044      	218.22589      	218.20998      	218.23068      	218.1911       	218.21007      	218.16585      	218.21631      	218.22902      	218.18002      	218.17882      	218.21536      	218.19492      	218.20158      	218.21799      	218.16954      	218.19539      	218.19347      	218.15878      	218.19293      	218.18283      	218.18115      	218.18556      	218.15382      	218.15848      	218.17912      	218.17702      	218.16147      	218.2029       	218.19278      	218.22168      	218.17715      	218.1807       	218.20403      	218.19012      	218.2114       	218.19849      	218.20604      	218.18349      	218.20607      	218.2138       	218.19008      	218.16103      	218.1655       	218.14777      	218.18382      	218.17284      	218.16414      	218.17358      	218.19148      	218.19113      	218.20795      	218.19644      	218.19357      	218.18341      	218.17108      	218.17944      	218.17416      	218.16676      	218.14296      	218.16489      	218.17654      	218.13126      	
217.81575      	217.82411      	217.7986       	217.83919      	217.85733      	217.83046      	217.83046      	217.8196       	217.84567      	217.8607       	217.8688       	217.87909      	217.88463      	217.84474      	217.83617      	217.83113      	217.8606       	217.83067      	217.82257      	217.8483       	217.79552      	217.7772       	217.78679      	217.82997      	217.82346      	217.82303      	217.847        	217.85121      	217.81137      	217.85387      	217.85382      	217.85248      	217.83377      	217.83699      	217.8396       	217.82042      	217.84235      	217.85263      	217.84497      	217.8523       	217.81712      	217.87833      	217.86302      	217.84897      	217.83615      	217.83353      	217.8627       	217.87364      	217.8833       	217.85645      	217.84393      	217.87817      	217.8855       	217.85767      	217.84377      	217.8388       	217.8383       	217.85745      	217.86646      	217.86977      	217.89987      	217.91154      	217.9208       	217.87483      	217.86377      	217.84213      	217.92253      	217.861        	217.8443       	217.85774      	217.86304      	217.88272      	217.88931      	217.8931       	217.90965      	217.90472      	217.91115      	217.92642      	217.90575      	217.92645      	217.94662      	217.91006      	217.93585      	217.96031      	217.95132      	217.93834      	217.936        	217.96066      	217.97366      	217.96861      	217.97157      	217.98505      	217.98595      	218.00519      	217.98317      	217.94385      	217.9429       	217.92464      	217.95377      	217.93161      	
217.26215      	217.28307      	217.2641       	217.2774       	217.26906      	217.31155      	217.31471      	217.29369      	217.32358      	217.30531      	217.32202      	217.33708      	217.31456      	217.36247      	217.3654       	217.36867      	217.37003      	217.3597       	217.38983      	217.3693       	217.39581      	217.41562      	217.39053      	217.40988      	217.36092      	217.40422      	217.38411      	217.36302      	217.44623      	217.36627      	217.38602      	217.4174       	217.39174      	217.41994      	217.38104      	217.4354       	217.42503      	217.44173      	217.42282      	217.43384      	217.45326      	217.43524      	217.43375      	217.45273      	217.4055       	217.39615      	217.44276      	217.38852      	217.3772       	217.39735      	217.36436      	217.4047       	217.40265      	217.40054      	217.40514      	217.42545      	217.44781      	217.47722      	217.46933      	217.46848      	217.47826      	217.46927      	217.48135      	217.4569       	217.45578      	217.45654      	217.46811      	217.49805      	217.46149      	217.4633       	217.48746      	217.45538      	217.46996      	217.46117      	217.47049      	217.47841      	217.4805       	217.49008      	217.49506      	217.45168      	217.49626      	217.51839      	217.5366       	217.51245      	217.53236      	217.5349       	217.53555      	217.53394      	217.52664      	217.51758      	217.5119       	217.51968      	217.52596      	217.52367      	217.54373      	217.53737      	217.52756      	217.48349      	217.51492      	217.5368       	
216.94794      	216.9379       	216.96556      	216.96556      	216.96532      	216.96599      	216.95676      	216.93498      	216.9129       	216.90746      	216.93251      	216.94572      	216.91302      	216.88646      	216.90082      	216.91942      	216.93883      	216.93234      	216.88356      	216.90414      	216.89989      	216.88295      	216.90413      	216.90045      	216.8895       	216.8725       	216.86351      	216.89543      	216.8715       	216.89027      	216.9257       	216.90451      	216.91423      	216.91594      	216.88202      	216.889        	216.88156      	216.90579      	216.94101      	216.9528       	216.93327      	216.97731      	216.96153      	216.93767      	216.90672      	216.94165      	216.94981      	216.92516      	216.91989      	216.90782      	216.91757      	216.90642      	216.95193      	216.92477      	216.95197      	216.95784      	216.93918      	216.95624      	216.92116      	216.93538      	216.92935      	216.92145      	216.93617      	216.93942      	216.9397       	216.93414      	216.93272      	216.9423       	216.94508      	216.99327      	216.96962      	216.93195      	216.97081      	216.93541      	216.97076      	216.97078      	216.94704      	216.97185      	216.95169      	216.93855      	216.91232      	216.9669       	216.9606       	216.97865      	217.00316      	217.02077      	217.0348       	216.98926      	216.98167      	216.9719       	216.98997      	216.95921      	216.97716      	217.00293      	216.99675      	216.99498      	216.97917      	216.97743      	217.00226      	217.00458      	
217.13988      	217.11224      	217.13437      	217.12909      	217.1334       	217.14395      	217.15245      	217.09804      	217.10162      	217.10318      	217.09619      	217.09831      	217.0691       	217.09683      	217.11443      	217.08755      	217.09274      	217.1089       	217.09232      	217.11224      	217.11354      	217.10776      	217.15298      	217.13373      	217.12524      	217.14374      	217.11427      	217.13208      	217.1673       	217.15524      	217.13927      	217.19824      	217.14635      	217.13751      	217.13849      	217.14183      	217.1635       	217.1552       	217.077        	217.10643      	217.10075      	217.125        	217.11751      	217.08936      	217.0711       	217.05127      	217.02946      	217.06589      	217.04652      	217.03319      	217.02846      	217.04135      	217.0226       	217.00381      	217.01523      	217.02995      	217.04755      	217.02054      	217.04218      	217.0443       	217.02402      	217.00352      	217.00099      	217.0087       	217.02434      	217.00987      	217.00212      	216.991        	217.0136       	217.04045      	217.02016      	217.01994      	217.02219      	217.03197      	217.02539      	216.99937      	217.03212      	217.01874      	217.01562      	217.02524      	217.0344       	217.01382      	217.04932      	217.0258       	217.01115      	216.97942      	216.99365      	217.00691      	216.99721      	216.97217      	216.99724      	216.99162      	217.00584      	216.99567      	216.9778       	217.00237      	217.00241      	216.98933      	217.03572      	216.99763      	
217.4005       	217.38702      	217.39142      	217.37929      	217.40553      	217.42752      	217.41336      	217.38339      	217.38857      	217.38248      	217.39793      	217.37059      	217.3977       	217.41064      	217.42548      	217.39801      	217.41583      	217.42415      	217.41415      	217.44168      	217.45963      	217.40504      	217.42351      	217.3946       	217.40933      	217.45966      	217.45827      	217.40845      	217.42447      	217.40128      	217.40675      	217.41187      	217.40213      	217.38713      	217.43161      	217.41423      	217.40591      	217.42682      	217.37218      	217.44366      	217.43611      	217.45892      	217.4932       	217.46957      	217.45645      	217.46468      	217.47928      	217.44354      	217.46631      	217.45497      	217.42317      	217.4314       	217.43643      	217.433        	217.43703      	217.41843      	217.44223      	217.42043      	217.44499      	217.42581      	217.45767      	217.42017      	217.44211      	217.42871      	217.40186      	217.4187       	217.39743      	217.42065      	217.41154      	217.40952      	217.39859      	217.3825       	217.38916      	217.40514      	217.3703       	217.36922      	217.37277      	217.41502      	217.38779      	217.34071      	217.36574      	217.36395      	217.35687      	217.34442      	217.35857      	217.35602      	217.3688       	217.33861      	217.4          	217.34047      	217.36229      	217.36221      	217.33504      	217.32828      	217.3305       	217.34158      	217.32669      	217.32481      	217.32387      	217.31601      	
217.64586      	217.65097      	217.62486      	217.62286      	217.61247      	217.61955      	217.62723      	217.59563      	217.62083      	217.59514      	217.60643      	217.62975      	217.62624      	217.6486       	217.64795      	217.60016      	217.59561      	217.63333      	217.62523      	217.63339      	217.61356      	217.63231      	217.61678      	217.61444      	217.62965      	217.60477      	217.63068      	217.6166       	217.61185      	217.63406      	217.61371      	217.63289      	217.62196      	217.62904      	217.62491      	217.63724      	217.6098       	217.6083       	217.63731      	217.62462      	217.60545      	217.61465      	217.58499      	217.6013       	217.5814       	217.60133      	217.60645      	217.5945       	217.54338      	217.58124      	217.62088      	217.55692      	217.56404      	217.57747      	217.60724      	217.61491      	217.56863      	217.58116      	217.57632      	217.6114       	217.56595      	217.55641      	217.54019      	217.53168      	217.55853      	217.5073       	217.54654      	217.54416      	217.54897      	217.58714      	217.55267      	217.55612      	217.52599      	217.54605      	217.54282      	217.52165      	217.53801      	217.54398      	217.5535       	217.55899      	217.54549      	217.57443      	217.56143      	217.55699      	217.5781       	217.59927      	217.61813      	217.58946      	217.58197      	217.58144      	217.55487      	217.5444       	217.56055      	217.55324      	217.58282      	217.57828      	217.55435      	217.53946      	217.54625      	217.54533      	
218.00328      	217.96303      	217.95526      	217.97714      	217.96649      	217.94131      	217.9387       	217.91617      	217.89795      	217.92401      	217.88258      	217.93425      	217.90282      	217.87033      	217.91891      	217.9326       	217.90991      	217.90764      	217.92633      	217.95169      	217.92648      	217.88185      	217.88893      	217.8963       	217.9079       	217.89203      	217.85333      	217.88422      	217.90154      	217.9196       	217.95116      	217.93924      	217.97716      	217.94647      	217.97089      	217.95181      	217.97144      	217.93776      	217.92667      	217.9524       	217.92522      	217.94249      	217.93631      	217.9223       	217.94073      	217.93556      	217.93764      	217.88504      	217.90298      	217.8784       	217.92093      	217.8939       	217.93161      	217.91902      	217.88675      	217.91176      	217.9066       	217.87042      	217.88722      	217.85167      	217.84447      	217.8876       	217.83717      	217.82893      	217.83885      	217.84549      	217.84425      	217.84189      	217.85695      	217.83197      	217.81561      	217.81195      	217.8139       	217.82767      	217.81378      	217.82104      	217.83667      	217.83861      	217.8368       	217.82591      	217.78848      	217.79239      	217.81293      	217.7885       	217.80983      	217.8572       	217.83876      	217.79625      	217.80568      	217.77065      	217.77757      	217.76785      	217.75139      	217.77116      	217.76125      	217.76123      	217.76639      	217.7756       	217.7717       	217.78168      	
218.6227       	218.63902      	218.66512      	218.65408      	218.65761      	218.60612      	218.63045      	218.63463      	218.59589      	218.61655      	218.58983      	218.62294      	218.60419      	218.58868      	218.6387       	218.61685      	218.56891      	218.58424      	218.60374      	218.57135      	218.57523      	218.56888      	218.54866      	218.55876      	218.58575      	218.53314      	218.57005      	218.52464      	218.56166      	218.58968      	218.53961      	218.56056      	218.52919      	218.50563      	218.54492      	218.53143      	218.49953      	218.50784      	218.49998      	218.50243      	218.54625      	218.55673      	218.5452       	218.51666      	218.51657      	218.49863      	218.5092       	218.47462      	218.45428      	218.50494      	218.50787      	218.48216      	218.45316      	218.4466       	218.42972      	218.47516      	218.47192      	218.4436       	218.47209      	218.45071      	218.46452      	218.46642      	218.45815      	218.46286      	218.41733      	218.44107      	218.42554      	218.41653      	218.44762      	218.43224      	218.44151      	218.4495       	218.42088      	218.42642      	218.41193      	218.41048      	218.43024      	218.44246      	218.40138      	218.40569      	218.3862       	218.39395      	218.39801      	218.39796      	218.34738      	218.3648       	218.37967      	218.35477      	218.35594      	218.34512      	218.34535      	218.38156      	218.35146      	218.35269      	218.32236      	218.33308      	218.3365       	218.30876      	218.31714      	218.31583      	
219.12454      	219.09341      	219.13531      	219.09904      	219.10081      	219.11786      	219.11554      	219.12979      	219.08592      	219.13788      	219.12607      	219.1277       	219.115        	219.11029      	219.14716      	219.12433      	219.1318       	219.1422       	219.12042      	219.13878      	219.11272      	219.10994      	219.1053       	219.08986      	219.13333      	219.08105      	219.11621      	219.0797       	219.08046      	219.08206      	219.07787      	219.10954      	219.08409      	219.11165      	219.11154      	219.11761      	219.13583      	219.14265      	219.13347      	219.12672      	219.14308      	219.09846      	219.10945      	219.1153       	219.12875      	219.14874      	219.14926      	219.13354      	219.10403      	219.13998      	219.1409       	219.12479      	219.14621      	219.1862       	219.18156      	219.13165      	219.15079      	219.14656      	219.15024      	219.12737      	219.13907      	219.1369       	219.08536      	219.12933      	219.09871      	219.14247      	219.13316      	219.10841      	219.10794      	219.10199      	219.1066       	219.11008      	219.1035       	219.10468      	219.11485      	219.11949      	219.12175      	219.12364      	219.10426      	219.1238       	219.13844      	219.10791      	219.12424      	219.09895      	219.11725      	219.1356       	219.14413      	219.11844      	219.15172      	219.09122      	219.08458      	219.11359      	219.11247      	219.10826      	219.06966      	219.07227      	219.09193      	219.1026       	219.11223      	219.10934      	
218.88727      	218.87088      	218.8568       	218.90031      	218.89786      	218.92253      	218.9088       	218.87917      	218.91286      	218.91714      	218.91812      	218.93083      	218.96214      	218.90506      	218.90811      	218.95192      	218.99951      	219.01562      	219.00002      	218.96738      	218.95256      	218.92076      	218.97513      	218.92966      	218.94113      	218.9187       	218.91765      	218.90378      	218.90529      	218.94362      	218.92235      	218.96071      	218.94357      	218.9615       	218.98347      	218.93655      	219.0001       	218.9965       	218.99048      	219.0141       	218.9856       	218.94809      	218.96523      	218.98152      	218.94678      	218.96225      	218.95721      	218.99136      	218.99025      	218.9723       	218.95549      	218.97208      	218.97144      	218.96582      	218.97324      	218.99313      	219.03127      	219.0512       	219.0136       	219.00417      	219.00401      	218.98517      	219.01077      	219.00179      	219.00697      	219.00856      	219.00627      	219.02354      	219.056        	219.0118       	219.05032      	219.03809      	219.05005      	219.08116      	219.06314      	219.0204       	219.05373      	219.0717       	219.06757      	219.11192      	219.08708      	219.0791       	219.04996      	219.06552      	219.07155      	219.07693      	219.08084      	219.05821      	219.0825       	219.07893      	219.12247      	219.11911      	219.09128      	219.11606      	219.1159       	219.10992      	219.09598      	219.0768       	219.09352      	219.10406      	
218.3191       	218.32767      	218.34546      	218.34854      	218.33691      	218.34529      	218.30856      	218.32144      	218.33432      	218.35634      	218.36717      	218.36247      	218.3664       	218.36815      	218.3912       	218.3546       	218.35872      	218.35971      	218.38153      	218.40535      	218.38524      	218.37714      	218.39847      	218.41263      	218.40504      	218.40335      	218.43582      	218.43639      	218.4298       	218.43213      	218.47874      	218.47855      	218.45393      	218.45354      	218.45132      	218.46591      	218.5006       	218.49788      	218.49846      	218.49142      	218.52887      	218.48103      	218.48396      	218.50055      	218.52274      	218.50578      	218.51686      	218.54636      	218.51706      	218.55443      	218.5338       	218.56842      	218.53946      	218.52434      	218.49008      	218.51532      	218.55466      	218.55228      	218.5309       	218.50697      	218.52094      	218.55168      	218.52539      	218.53865      	218.56502      	218.54135      	218.58527      	218.55765      	218.55081      	218.56178      	218.53612      	218.54636      	218.58458      	218.55995      	218.55142      	218.58087      	218.57895      	218.59341      	218.6184       	218.61325      	218.59552      	218.6088       	218.633        	218.67522      	218.6243       	218.57283      	218.61478      	218.60448      	218.63075      	218.61362      	218.60585      	218.64032      	218.62543      	218.62875      	218.63254      	218.61746      	218.60701      	218.61827      	218.63802      	218.61473      	
217.60825      	217.6325       	217.60623      	217.6452       	217.62842      	217.60756      	217.62186      	217.67805      	217.64923      	217.6382       	217.6594       	217.64642      	217.66553      	217.67044      	217.67406      	217.6879       	217.69472      	217.68004      	217.69969      	217.7035       	217.70168      	217.71002      	217.70929      	217.74121      	217.74615      	217.74481      	217.77882      	217.75938      	217.79181      	217.79323      	217.7779       	217.80414      	217.8137       	217.77603      	217.85309      	217.83812      	217.86465      	217.90799      	217.82959      	217.86362      	217.88268      	217.8675       	217.90794      	217.92546      	217.9114       	217.90646      	217.92879      	217.91301      	217.93756      	217.9606       	217.97763      	217.97585      	217.98001      	217.96404      	218.02585      	218.02808      	217.99802      	218.05861      	218.08528      	218.08583      	218.08748      	218.09085      	218.10104      	218.13812      	218.164        	218.16898      	218.1674       	218.18376      	218.18312      	218.19824      	218.21771      	218.21803      	218.24411      	218.21841      	218.21432      	218.26459      	218.27957      	218.29315      	218.27762      	218.30426      	218.31216      	218.26859      	218.31534      	218.31844      	218.33788      	218.36125      	218.36931      	218.3632       	218.36012      	218.3937       	218.38159      	218.39207      	218.39844      	218.41623      	218.40761      	218.45084      	218.41922      	218.41534      	218.36661      	218.41647      	
217.80707      	217.85269      	217.87337      	217.84007      	217.84505      	217.84447      	217.88026      	217.89027      	217.9046       	217.92651      	217.90788      	217.8976       	217.90123      	217.90959      	217.88959      	217.90862      	217.91959      	217.90265      	217.94801      	217.9206       	217.86331      	217.9379       	217.95169      	217.96126      	217.90813      	217.89044      	217.87605      	217.91496      	217.9315       	217.95506      	217.94011      	217.89716      	217.92804      	217.89793      	217.89565      	217.88821      	217.92944      	217.90396      	217.89957      	217.92853      	217.90005      	217.87231      	217.89478      	217.88168      	217.9173       	217.89305      	217.89085      	217.87608      	217.89095      	217.8798       	217.88258      	217.87372      	217.9055       	217.88214      	217.88997      	217.86644      	217.84882      	217.89024      	217.91617      	217.91525      	217.88745      	217.86899      	217.8396       	217.85017      	217.87155      	217.90283      	217.90585      	217.8803       	217.83543      	217.88205      	217.87772      	217.89023      	217.89403      	217.87668      	217.8544       	217.8358       	217.84396      	217.84764      	217.84679      	217.88467      	217.906        	217.88463      	217.88112      	217.83229      	217.83893      	217.83278      	217.8692       	217.89076      	217.90622      	217.86711      	217.81868      	217.83583      	217.89468      	217.91595      	217.92986      	217.93857      	217.92673      	217.84503      	217.83885      	217.81496      	
217.958        	217.96054      	217.9667       	217.90936      	217.94386      	217.93195      	217.90234      	217.89432      	217.90733      	217.9318       	217.94077      	217.95299      	217.90503      	217.92375      	217.90276      	217.86473      	217.8635       	217.89215      	217.86217      	217.89282      	217.9029       	217.88957      	217.89421      	217.89609      	217.91393      	217.90538      	217.93527      	217.9182       	217.91496      	217.95851      	217.9226       	217.92383      	217.93895      	217.90445      	217.95189      	217.9669       	217.95494      	217.91245      	217.91225      	217.94986      	217.94662      	217.99576      	218.00156      	218.00258      	217.95589      	217.97198      	217.98233      	217.94559      	217.95824      	217.96237      	217.98885      	218.02547      	217.98615      	218.00092      	217.93878      	217.95404      	217.9339       	217.92157      	217.92503      	217.91747      	217.91316      	217.94304      	217.93307      	217.92024      	217.95963      	217.90071      	217.89154      	217.92657      	217.92833      	217.92287      	217.90634      	217.94284      	217.94475      	217.94972      	217.93382      	217.89746      	217.92255      	217.89323      	217.89886      	217.97049      	217.93417      	217.91046      	217.91061      	217.91962      	217.93782      	217.93622      	217.87779      	217.87704      	217.85013      	217.86237      	217.88075      	217.87112      	217.86386      	217.86288      	217.87408      	217.85408      	217.84584      	217.85683      	217.84494      	217.85075      	
218.6385       	218.59856      	218.64801      	218.65944      	218.64525      	218.65573      	218.5699       	218.63858      	218.63788      	218.60442      	218.63747      	218.61505      	218.58055      	218.56061      	218.5935       	218.55435      	218.56438      	218.56404      	218.54688      	218.5576       	218.53317      	218.51642      	218.51465      	218.49184      	218.52214      	218.54346      	218.48315      	218.47362      	218.49606      	218.56175      	218.53741      	218.51195      	218.48834      	218.48714      	218.47073      	218.46193      	218.46068      	218.43694      	218.45181      	218.45256      	218.43594      	218.40915      	218.42526      	218.41454      	218.40137      	218.39342      	218.37022      	218.38605      	218.39494      	218.36482      	218.35495      	218.34146      	218.3295       	218.36172      	218.35208      	218.30103      	218.32224      	218.31027      	218.32372      	218.32541      	218.28477      	218.28305      	218.28508      	218.30032      	218.31552      	218.30403      	218.34734      	218.32571      	218.32033      	218.31337      	218.33066      	218.38263      	218.38454      	218.33894      	218.3396       	218.35403      	218.3226       	218.39105      	218.37137      	218.38693      	218.37302      	218.42752      	218.43408      	218.40453      	218.43642      	218.42407      	218.43823      	218.4541       	218.45758      	218.46043      	218.46419      	218.50453      	218.4549       	218.4722       	218.48581      	218.50919      	218.50073      	218.47966      	218.48918      	218.51549      	
218.68195      	218.68391      	218.69821      	218.68492      	218.65593      	218.64719      	218.67195      	218.65063      	218.64706      	218.67188      	218.66257      	218.69562      	218.67879      	218.65541      	218.6736       	218.65094      	218.6805       	218.66368      	218.65186      	218.64917      	218.65488      	218.65846      	218.59138      	218.67447      	218.66283      	218.62885      	218.61896      	218.61798      	218.64415      	218.62883      	218.62119      	218.62198      	218.61725      	218.6158       	218.60353      	218.61676      	218.62085      	218.65106      	218.62482      	218.58478      	218.60915      	218.6037       	218.58958      	218.58176      	218.59218      	218.59578      	218.60507      	218.6046       	218.58939      	218.58835      	218.58041      	218.59972      	218.6081       	218.61035      	218.56708      	218.56773      	218.58893      	218.58737      	218.57884      	218.58585      	218.57932      	218.60701      	218.55023      	218.57785      	218.581        	218.59186      	218.63951      	218.59152      	218.58617      	218.59523      	218.59784      	218.59608      	218.61407      	218.57433      	218.58064      	218.61266      	218.5975       	218.62166      	218.59138      	218.57108      	218.5877       	218.61409      	218.60147      	218.56357      	218.5798       	218.59398      	218.58998      	218.59271      	218.6194       	218.63072      	218.60847      	218.60086      	218.60117      	218.57729      	218.61101      	218.64267      	218.62018      	218.59439      	218.58934      	218.59521      	
218.51016      	218.46213      	218.4624       	218.48676      	218.44482      	218.48215      	218.4538       	218.47296      	218.49794      	218.47542      	218.49202      	218.48663      	218.49986      	218.4826       	218.48842      	218.47537      	218.47708      	218.46791      	218.48332      	218.46864      	218.45834      	218.46762      	218.50894      	218.51126      	218.47328      	218.45882      	218.44434      	218.46368      	218.46701      	218.4633       	218.49982      	218.48642      	218.49171      	218.47882      	218.47914      	218.51364      	218.49815      	218.47537      	218.49188      	218.49799      	218.51288      	218.49469      	218.50316      	218.4556       	218.46507      	218.47577      	218.45868      	218.478        	218.48949      	218.46849      	218.49237      	218.48996      	218.49063      	218.49469      	218.48471      	218.46143      	218.49022      	218.4813       	218.4695       	218.47781      	218.46664      	218.48561      	218.48738      	218.45811      	218.48218      	218.5043       	218.52676      	218.50925      	218.48657      	218.49985      	218.45784      	218.51617      	218.46849      	218.48834      	218.51564      	218.50937      	218.50879      	218.50458      	218.49193      	218.47981      	218.50514      	218.50177      	218.49591      	218.50645      	218.48674      	218.51733      	218.5271       	218.4652       	218.50125      	218.48862      	218.47949      	218.52127      	218.50543      	218.52547      	218.50584      	218.52524      	218.511        	218.53523      	218.52956      	218.53102      	
218.0434       	218.0368       	218.08624      	218.05846      	218.03171      	218.04239      	218.04042      	218.07259      	218.07161      	218.04607      	218.04523      	218.03883      	218.05704      	218.0803       	218.09276      	218.05557      	218.07281      	218.09164      	218.08804      	218.06438      	218.04094      	218.08228      	218.07541      	218.10638      	218.09096      	218.06296      	218.10216      	218.09505      	218.09618      	218.13258      	218.13649      	218.15883      	218.15546      	218.14723      	218.14554      	218.08351      	218.115        	218.09589      	218.1429       	218.1202       	218.13362      	218.13086      	218.10954      	218.1551       	218.15234      	218.16046      	218.15245      	218.14261      	218.1299       	218.14265      	218.19452      	218.17538      	218.15892      	218.1243       	218.21136      	218.19604      	218.19554      	218.1773       	218.17007      	218.20973      	218.21063      	218.23033      	218.22191      	218.17815      	218.2212       	218.2005       	218.2333       	218.22903      	218.20892      	218.25838      	218.27122      	218.24121      	218.24684      	218.23416      	218.20473      	218.25206      	218.24341      	218.26659      	218.24266      	218.25969      	218.22475      	218.20946      	218.20998      	218.19786      	218.18874      	218.18027      	218.2237       	218.22316      	218.22427      	218.26776      	218.24405      	218.22878      	218.22437      	218.22966      	218.28148      	218.25368      	218.25656      	218.28136      	218.26588      	218.28226      	
218.11392      	218.08864      	218.10068      	218.06586      	218.10245      	218.08461      	218.06656      	218.06396      	218.03606      	218.03468      	218.07013      	218.05466      	218.06291      	218.04591      	218.01466      	218.01799      	218.0524       	218.0421       	218.00612      	218.02313      	217.98167      	217.96109      	217.9716       	217.94385      	217.97165      	217.95975      	217.95616      	217.94832      	217.96973      	217.93484      	217.93889      	217.95557      	217.93228      	217.952        	217.97244      	217.9336       	217.93356      	217.9503       	217.93138      	217.91136      	217.87329      	217.87646      	217.887        	217.89304      	217.88103      	217.90892      	217.87587      	217.89003      	217.88243      	217.85878      	217.86993      	217.87839      	217.8575       	217.85439      	217.82986      	217.83992      	217.80618      	217.84181      	217.86514      	217.83815      	217.82188      	217.78104      	217.80463      	217.84317      	217.76772      	217.80563      	217.77757      	217.74762      	217.78598      	217.79959      	217.79858      	217.78094      	217.74701      	217.73415      	217.78163      	217.77661      	217.74205      	217.75482      	217.78613      	217.79938      	217.81477      	217.83244      	217.77174      	217.7849       	217.78548      	217.74477      	217.75246      	217.725        	217.74501      	217.76082      	217.75645      	217.78293      	217.72849      	217.77333      	217.76448      	217.74901      	217.75307      	217.76215      	217.72838      	217.75758      	
219.57707      	219.5486       	219.51645      	219.53758      	219.53014      	219.5375       	219.55846      	219.54576      	219.47116      	219.49684      	219.53925      	219.51147      	219.465        	219.46289      	219.46954      	219.4769       	219.44556      	219.46072      	219.45183      	219.44882      	219.45166      	219.49132      	219.45932      	219.47374      	219.44225      	219.43025      	219.41444      	219.3882       	219.38766      	219.38092      	219.38034      	219.41252      	219.36295      	219.38193      	219.38136      	219.34792      	219.34604      	219.3456       	219.34627      	219.32565      	219.34003      	219.30989      	219.31941      	219.32927      	219.3183       	219.30576      	219.31659      	219.31494      	219.30084      	219.25784      	219.23158      	219.30469      	219.28989      	219.3068       	219.31023      	219.29314      	219.28989      	219.27443      	219.266        	219.27652      	219.26134      	219.24557      	219.23883      	219.20831      	219.19594      	219.17052      	219.2129       	219.19144      	219.17743      	219.19664      	219.17332      	219.18718      	219.15024      	219.12689      	219.14359      	219.11816      	219.09982      	219.03233      	219.03375      	219.11118      	219.06462      	219.0943       	219.07379      	219.0848       	219.0931       	219.04381      	219.07104      	219.04613      	219.02376      	219.01468      	219.0038       	219.0255       	219.0274       	218.97966      	218.93813      	218.93143      	218.90265      	218.90163      	218.95717      	218.9348       	
219.77205      	219.74973      	219.77126      	219.7329       	219.77872      	219.78677      	219.77013      	219.77963      	219.77219      	219.77623      	219.77888      	219.78622      	219.77145      	219.79684      	219.76627      	219.78964      	219.79549      	219.79875      	219.78062      	219.82332      	219.83887      	219.8312       	219.84886      	219.81429      	219.8028       	219.80501      	219.80817      	219.81406      	219.81061      	219.83186      	219.7925       	219.79356      	219.80128      	219.80173      	219.79906      	219.78775      	219.78282      	219.77687      	219.76459      	219.79376      	219.79938      	219.82477      	219.79199      	219.80963      	219.78662      	219.787        	219.81635      	219.80284      	219.8085       	219.80257      	219.82349      	219.81773      	219.79884      	219.8162       	219.80829      	219.80568      	219.83641      	219.78784      	219.8115       	219.81068      	219.77058      	219.79767      	219.80875      	219.79166      	219.78561      	219.81285      	219.80185      	219.84422      	219.81113      	219.79485      	219.82053      	219.84662      	219.80711      	219.80754      	219.81119      	219.7805       	219.83919      	219.82927      	219.8356       	219.83968      	219.81088      	219.86174      	219.85588      	219.86781      	219.87622      	219.83908      	219.8528       	219.85052      	219.90062      	219.87088      	219.89143      	219.8711       	219.87401      	219.88007      	219.91066      	219.87949      	219.88388      	219.87842      	219.89352      	219.91417      	
219.40286      	219.40414      	219.36745      	219.43138      	219.4485       	219.41656      	219.4218       	219.43042      	219.43626      	219.41269      	219.46071      	219.4381       	219.45358      	219.43405      	219.43951      	219.44203      	219.46638      	219.43942      	219.4453       	219.46042      	219.47491      	219.47882      	219.51515      	219.46996      	219.53052      	219.47731      	219.45116      	219.50195      	219.46718      	219.48679      	219.49306      	219.5009       	219.4879       	219.50966      	219.53871      	219.50052      	219.55377      	219.52927      	219.51895      	219.52806      	219.54451      	219.52255      	219.53557      	219.53336      	219.52997      	219.52516      	219.55022      	219.51564      	219.52298      	219.54738      	219.59195      	219.58278      	219.58463      	219.55475      	219.53299      	219.55936      	219.55225      	219.58803      	219.59572      	219.56903      	219.58282      	219.58426      	219.57457      	219.59369      	219.55363      	219.5641       	219.5508       	219.57083      	219.58301      	219.57144      	219.58551      	219.56706      	219.56119      	219.54633      	219.52005      	219.58699      	219.53897      	219.58041      	219.57722      	219.56017      	219.59897      	219.60707      	219.59178      	219.60281      	219.61255      	219.58316      	219.57332      	219.59593      	219.57716      	219.57356      	219.55583      	219.57094      	219.58295      	219.5904       	219.56532      	219.57826      	219.56595      	219.58229      	219.58542      	219.56676      	
218.77823      	218.76967      	218.79932      	218.83098      	218.8308       	218.79541      	218.74472      	218.75935      	218.74303      	218.76112      	218.7588       	218.74821      	218.77794      	218.74484      	218.73297      	218.77574      	218.78317      	218.75401      	218.7833       	218.7689       	218.77228      	218.79922      	218.74965      	218.79257      	218.79214      	218.80508      	218.77081      	218.76707      	218.77849      	218.80507      	218.80911      	218.82855      	218.80533      	218.83481      	218.79541      	218.79433      	218.82521      	218.81998      	218.837        	218.82407      	218.8261       	218.82706      	218.84457      	218.84409      	218.82262      	218.83551      	218.81662      	218.88455      	218.85883      	218.83368      	218.8797       	218.88297      	218.86949      	218.92282      	218.93231      	218.90543      	218.93303      	218.89987      	218.93655      	218.91498      	218.91847      	218.95021      	218.9225       	218.92592      	218.93932      	218.92694      	218.96512      	218.91922      	218.9222       	218.8859       	218.87344      	218.91136      	218.90587      	218.90475      	218.94923      	218.94476      	218.95686      	218.94933      	218.94516      	218.98843      	218.99948      	218.99406      	218.97202      	218.93533      	218.95853      	218.9933       	218.95564      	218.96077      	218.97336      	218.99445      	219.01105      	219.03091      	219.00534      	218.99113      	219.0012       	219.01749      	219.01935      	219.0185       	219.04175      	219.03384      	
218.62392      	218.6229       	218.62709      	218.61404      	218.5948       	218.6119       	218.59578      	218.60692      	218.60213      	218.61174      	218.62196      	218.61928      	218.60367      	218.65099      	218.6619       	218.64073      	218.66159      	218.6223       	218.63728      	218.64104      	218.59972      	218.6202       	218.63387      	218.63309      	218.64363      	218.63184      	218.63387      	218.62045      	218.59587      	218.59666      	218.60577      	218.59738      	218.63371      	218.58893      	218.59456      	218.61041      	218.61537      	218.60367      	218.61234      	218.60237      	218.62679      	218.6407       	218.63103      	218.63844      	218.63434      	218.57845      	218.63185      	218.62592      	218.60368      	218.59303      	218.62347      	218.59377      	218.6329       	218.61737      	218.6318       	218.63289      	218.645        	218.646        	218.66022      	218.65736      	218.62622      	218.64223      	218.6403       	218.65096      	218.65257      	218.62685      	218.60442      	218.64166      	218.64249      	218.6279       	218.65396      	218.62646      	218.66225      	218.65257      	218.65381      	218.64088      	218.6431       	218.65796      	218.63094      	218.65308      	218.64032      	218.60887      	218.6467       	218.61095      	218.64143      	218.62785      	218.65543      	218.63858      	218.60199      	218.62254      	218.59227      	218.56654      	218.62277      	218.64696      	218.63263      	218.55772      	218.52219      	218.55173      	218.59563      	218.61542      	
218.9766       	219.00848      	218.98843      	218.98819      	218.98586      	219.03648      	219.00066      	218.94322      	218.99295      	218.97078      	218.96094      	218.9926       	218.98834      	218.98648      	218.95192      	218.96101      	218.99055      	218.96745      	218.94588      	218.9769       	218.98183      	219.01418      	219.0465       	218.97433      	219.01845      	219.02992      	219.01399      	219.00433      	218.9896       	218.9914       	218.98468      	218.97829      	218.99803      	219.01483      	218.99489      	218.99277      	219.01552      	218.9965       	218.98828      	219.0017       	218.97464      	218.9742       	218.97543      	218.96152      	218.99513      	218.98712      	218.97873      	218.94891      	218.96477      	218.94919      	218.98752      	218.95438      	218.99156      	218.98326      	218.97523      	218.9661       	218.97142      	219.00787      	219.0053       	218.97185      	218.96678      	218.9636       	218.97462      	218.98264      	218.95746      	218.95201      	218.97508      	218.98468      	218.98038      	218.98619      	218.9714       	218.93082      	218.94255      	218.95688      	218.97765      	218.96417      	218.93304      	218.94322      	218.91905      	218.92928      	218.93994      	218.952        	218.91302      	218.87119      	218.91159      	218.93497      	218.95515      	218.91449      	218.89613      	218.73758      	218.74403      	218.75046      	218.71475      	218.67784      	218.63306      	218.60861      	218.58139      	218.58868      	218.64255      	218.67963      	
219.28256      	219.25467      	219.21599      	219.22638      	219.22127      	219.22006      	219.19916      	219.21303      	219.23819      	219.20027      	219.19598      	219.1632       	219.19402      	219.21735      	219.20282      	219.18192      	219.2108       	219.20445      	219.2011       	219.19516      	219.19827      	219.22057      	219.23933      	219.18492      	219.17886      	219.21414      	219.21828      	219.19211      	219.07773      	219.28477      	219.23283      	219.22939      	219.23488      	219.09723      	219.07764      	219.21013      	219.21657      	219.18362      	219.04721      	219.06088      	218.9564       	218.95734      	218.9564       	218.9712       	219.02344      	219.07802      	219.10532      	219.02748      	218.99094      	218.98804      	219.01224      	219.00821      	219.025        	219.02606      	219.07895      	219.0491       	219.03717      	219.11508      	219.07942      	219.1006       	219.21234      	219.17596      	219.20387      	219.22365      	219.2184       	219.25243      	219.23439      	219.24167      	219.19025      	219.17805      	219.21791      	219.19705      	219.19371      	219.16628      	219.17642      	219.20929      	219.20184      	219.15599      	219.17174      	219.13809      	219.15805      	219.16797      	219.16068      	219.14926      	219.1684       	219.15659      	219.10889      	219.13232      	219.1404       	218.9746       	219.02686      	219.13406      	219.12112      	219.12823      	219.09161      	219.10435      	219.08504      	219.11404      	219.07959      	219.08727      	
218.79001      	218.75833      	218.7727       	218.76994      	218.7974       	218.78963      	218.81175      	218.81671      	218.8119       	218.8282       	218.81348      	218.82439      	218.80762      	218.81534      	218.80827      	218.8396       	218.89073      	218.86017      	218.85725      	218.82655      	218.8485       	218.92319      	218.87996      	218.85718      	218.84036      	218.84935      	218.81444      	218.60582      	218.63039      	218.73412      	218.694        	218.75604      	218.78001      	218.75458      	218.82649      	218.75113      	218.68849      	218.76321      	218.80084      	218.87306      	218.9007       	218.89752      	218.88583      	218.84254      	218.86684      	218.87685      	218.87177      	218.88976      	218.89969      	218.90381      	218.91316      	218.91037      	218.92686      	218.9113       	218.91837      	218.92319      	218.90907      	218.92877      	218.87167      	218.76219      	218.95828      	218.94968      	219.00568      	218.97824      	219.02563      	218.99277      	218.98723      	219.00255      	219.006        	219.01688      	219.01706      	219.02644      	218.9966       	219.01205      	219.01846      	218.99341      	219.0286       	218.9914       	219.01035      	218.9903       	219.00015      	218.9857       	219.00217      	219.0175       	218.97081      	219.00887      	219.006        	219.0141       	218.93797      	218.77989      	218.92879      	218.94203      	218.96817      	218.96036      	218.98135      	218.96037      	218.96414      	218.95917      	218.9764       	218.9615       	
218.14917      	218.04788      	218.16571      	218.17894      	218.16971      	218.1556       	218.19427      	218.1599       	218.15048      	218.21242      	218.17316      	218.17488      	218.18744      	218.18571      	218.19408      	218.18735      	218.16827      	218.1706       	218.18504      	218.1932       	218.21541      	218.16301      	218.19916      	218.21368      	218.21387      	218.24696      	218.2154       	217.99722      	218.0223       	218.17921      	218.17218      	218.16708      	218.17796      	218.17975      	218.1612       	218.22398      	218.22208      	218.18126      	218.17136      	218.19124      	218.20613      	218.18987      	218.185        	218.199        	218.21771      	218.2031       	218.17871      	218.1865       	218.17155      	218.1936       	218.16196      	218.18195      	218.18283      	218.18156      	218.21062      	218.22635      	218.20549      	218.17058      	218.17815      	218.21239      	218.25296      	218.22218      	218.20953      	218.23386      	218.25642      	218.24408      	218.28844      	218.28502      	218.26471      	218.29474      	218.28189      	218.26857      	218.28546      	218.28386      	218.28358      	218.25952      	218.30232      	218.29005      	218.2831       	218.2853       	218.32791      	218.35863      	218.3119       	218.32472      	218.32886      	218.25098      	218.2875       	218.28662      	218.23851      	218.06314      	218.0739       	218.27881      	218.31358      	218.30109      	218.28526      	218.28856      	218.29764      	218.31711      	218.30331      	218.28711      	
218.03702      	218.02504      	218.06357      	218.02864      	218.05211      	218.05235      	218.0405       	218.0227       	218.00816      	218.03806      	218.03882      	218.03441      	217.99538      	218.03189      	218.02197      	218.01003      	218.00198      	217.97923      	217.98131      	217.9974       	218.00319      	218.01535      	217.97926      	217.98868      	217.96808      	217.95857      	217.99069      	217.78961      	217.81837      	217.98471      	218.01524      	218.0126       	218.03148      	217.98064      	218.00035      	217.98398      	217.98982      	217.97385      	217.9966       	217.9961       	217.98706      	217.97762      	217.98044      	218.01117      	217.99022      	217.98607      	217.98235      	217.98787      	217.95221      	217.98746      	217.98387      	217.98592      	217.99504      	218.00505      	218.00824      	217.98631      	218.00894      	218.01         	217.92715      	217.83963      	217.99815      	218.00131      	218.03844      	218.04689      	218.03589      	218.01491      	218.02135      	218.04901      	218.05324      	218.06616      	218.05484      	218.04584      	218.07558      	218.04387      	218.06252      	218.02382      	218.01602      	218.0407       	218.04831      	218.04564      	218.01776      	218.05664      	218.06657      	218.10669      	218.09349      	218.09499      	218.06114      	218.06184      	218.05005      	217.89513      	217.82443      	218.00285      	218.03432      	218.03358      	218.03864      	218.01332      	218.01988      	218.02834      	218.0252       	218.04132      	
218.39795      	218.36191      	218.3992       	218.40294      	218.3788       	218.37695      	218.3836       	218.37085      	218.39413      	218.35854      	218.36115      	218.37119      	218.34378      	218.3419       	218.35129      	218.35588      	218.36589      	218.35385      	218.38947      	218.34586      	218.34679      	218.31374      	218.31282      	218.32086      	218.28989      	218.31664      	218.27213      	218.07115      	218.09644      	218.27396      	218.26115      	218.25949      	218.26181      	218.2552       	218.25531      	218.26251      	218.25014      	218.24315      	218.25742      	218.26413      	218.27008      	218.28261      	218.26712      	218.25162      	218.25827      	218.2426       	218.24924      	218.2222       	218.2383       	218.25488      	218.2325       	218.22516      	218.22102      	218.211        	218.22733      	218.21533      	218.18651      	218.19786      	218.16675      	218.27309      	218.24063      	218.2207       	218.25345      	218.23831      	218.24025      	218.2412       	218.2453       	218.31882      	218.24431      	218.21222      	218.20262      	218.21777      	218.23306      	218.19304      	218.17435      	218.18248      	218.17984      	218.229        	218.18944      	218.17206      	218.18855      	218.19043      	218.19444      	218.169        	218.21262      	218.22488      	218.2361       	218.2167       	218.21515      	218.04063      	217.99284      	218.20038      	218.16568      	218.17056      	218.20282      	218.1491       	218.15016      	218.18748      	218.18907      	218.1901       	
