# www.neaspec.com
# Scan:	 	AFM
# Project:	 	20251007_PS
# Description:	 	
# Date:	 	10/07/2025 15:58:42
# Scanner Center Position (X, Y):	[µm]	49.66	48.17	 
# Rotation:	[°]	0	 	 
# Scan Area (X, Y, Z):	[µm]	5.000	5.000	0.000
# Pixel Area (X, Y, Z):	[px]	100	100	1
# Averaging:	 	1	 	 
# Integration time:	[ms]	5	 	 
# Laser Source:	 	4.5-15 µm nano-FTIR laser
# Detector:	 	R
# Target Wavelength:	[µm]	7.502	 	 
# Demodulation Mode:	 	Fourier
# Tip Frequency:	[Hz]	238,800.109	 	 
# Tip Amplitude:	[mV]	13.000	 	 
# Tapping Amplitude:	[nm]	74.376	 	 
# Modulation Frequency:	[Hz]	0.000	 	 
# Modulation Amplitude:	[mV]	0.000	 	 
# Modulation Offset:	[mV]	0.000	 	 
# Setpoint:	[%]	79.75	 	 
# Regulator (P, I, D):	 	4.206850	8.625812	1.000000
# Tip Potential:	[mV]	0.000	 	 
# M1A Scaling:	[nm/V]	0.426	 	 
# M1A Cantilever Factor:	 	1,000	 	 
# Q-Factor:	 	452.3	 	 
# Version:	 	2.1.11536.0
216.17047      	216.16977      	216.1642       	216.16138      	216.20058      	216.23463      	216.20265      	216.22179      	216.22043      	216.19777      	216.19327      	216.15831      	216.1848       	216.25562      	216.20485      	216.19801      	216.20384      	216.23685      	216.23509      	216.1764       	216.18231      	216.16542      	216.1714       	216.16774      	216.18427      	216.1486       	216.20547      	216.00447      	216.07942      	216.12221      	216.09814      	216.09476      	216.05272      	216.10464      	216.11269      	216.09886      	216.07616      	216.1202       	216.09335      	216.11542      	216.10571      	216.08612      	216.12003      	216.09383      	216.10117      	216.10902      	216.12102      	216.11363      	216.11281      	216.10913      	216.1164       	216.11133      	216.13467      	216.10962      	216.08148      	216.07047      	216.09727      	216.09511      	215.99268      	216.0852       	216.11636      	216.09079      	216.14877      	216.11493      	216.12424      	216.14209      	216.10571      	216.09018      	216.07916      	216.13818      	216.09563      	216.11554      	216.08902      	216.07704      	216.11029      	216.06242      	216.09598      	216.07463      	216.07007      	216.10149      	216.08205      	216.05484      	216.14027      	216.11789      	216.1013       	216.11147      	216.13255      	216.11691      	216.08147      	215.99812      	216.03336      	216.02249      	216.08026      	216.05496      	215.96188      	215.95917      	215.96257      	216.0381       	215.92845      	215.92062      	
216.24821      	216.2326       	216.22284      	216.16707      	216.15187      	216.18529      	216.20778      	216.15584      	216.19736      	216.19305      	216.19147      	216.14496      	216.0722       	216.06796      	216.07903      	216.06519      	216.10889      	216.12051      	216.12125      	216.12297      	216.26503      	216.29419      	216.25185      	216.20453      	216.19992      	216.22476      	216.23128      	216.12608      	216.15535      	216.17896      	216.15388      	216.17441      	216.17758      	216.195        	216.21182      	216.23802      	216.20705      	216.22614      	216.16376      	216.16058      	216.17422      	216.16803      	216.14696      	216.08868      	216.13116      	216.1786       	216.17453      	216.173        	216.17577      	216.21793      	216.21193      	216.17691      	216.17516      	216.20145      	216.17934      	216.1804       	216.17838      	216.16357      	216.13582      	216.11392      	216.15805      	216.25667      	216.29454      	216.26308      	216.2355       	216.19284      	216.21205      	216.2124       	216.2224       	216.20955      	216.1743       	216.18808      	216.1951       	216.17879      	216.14648      	216.18358      	216.17741      	216.16177      	216.13867      	216.17384      	216.21278      	216.20457      	216.18735      	216.15504      	216.30443      	216.36215      	216.31519      	216.37408      	216.38055      	216.3812       	216.37099      	216.37738      	216.34573      	216.2966       	216.26863      	216.228        	216.0595       	216.22704      	216.33124      	216.32306      	
216.39722      	216.38327      	216.40121      	216.405        	216.41843      	216.38559      	216.3715       	216.3848       	216.43561      	216.49042      	216.44862      	216.45047      	216.36304      	216.41734      	216.37206      	216.42049      	216.42879      	216.42921      	216.43515      	216.43576      	216.46191      	216.51845      	216.5529       	216.52068      	216.47818      	216.46246      	216.43854      	216.47482      	216.47423      	216.50143      	216.49026      	216.45703      	216.43024      	216.48415      	216.44963      	216.39606      	216.42271      	216.44102      	216.48431      	216.4879       	216.49188      	216.51202      	216.48105      	216.44794      	216.4028       	216.39154      	216.42722      	216.44188      	216.44455      	216.46628      	216.48976      	216.48608      	216.42567      	216.41576      	216.4188       	216.36249      	216.37308      	216.36261      	216.3411       	216.40309      	216.34708      	216.37022      	216.30418      	216.29617      	216.25662      	216.16412      	216.30759      	216.39671      	216.38954      	216.3823       	216.3637       	216.3399       	216.4055       	216.3907       	216.4218       	216.41629      	216.39261      	216.44476      	216.57837      	216.60794      	216.61696      	216.61159      	216.45483      	216.41537      	216.40182      	216.40956      	216.43277      	216.44106      	216.43309      	216.47475      	216.49306      	216.57896      	216.61285      	216.70564      	216.76498      	216.77023      	216.77538      	216.66458      	216.57578      	216.535        	
216.51318      	216.5031       	216.51382      	216.5038       	216.50049      	216.48495      	216.5121       	216.50436      	216.54774      	216.52821      	216.52663      	216.53343      	216.56937      	216.62709      	216.64215      	216.68042      	216.64548      	216.6166       	216.5941       	216.61197      	216.61374      	216.6214       	216.59315      	216.55698      	216.56549      	216.61043      	216.5301       	216.40813      	216.5941       	216.54861      	216.5149       	216.56721      	216.61987      	216.56305      	216.59848      	216.57913      	216.558        	216.55664      	216.58308      	216.55762      	216.54112      	216.51964      	216.50926      	216.5469       	216.54597      	216.50316      	216.50398      	216.52414      	216.49094      	216.50754      	216.52888      	216.52773      	216.55632      	216.54669      	216.55128      	216.51523      	216.47746      	216.48212      	216.37303      	216.30772      	216.4614       	216.53822      	216.50488      	216.48703      	216.49542      	216.48967      	216.52028      	216.53874      	216.48334      	216.48538      	216.50629      	216.51837      	216.50937      	216.51962      	216.51556      	216.53506      	216.49767      	216.51486      	216.51538      	216.50262      	216.53264      	216.51764      	216.51346      	216.52724      	216.55446      	216.5685       	216.49802      	216.44557      	216.42952      	216.44353      	216.3435       	216.35236      	216.35979      	216.34442      	216.35605      	216.36691      	216.32399      	216.2755       	216.33263      	216.3448       	
216.43158      	216.4031       	216.43063      	216.42784      	216.41393      	216.45392      	216.437        	216.43808      	216.41212      	216.41968      	216.36887      	216.35606      	216.40688      	216.40657      	216.39969      	216.36879      	216.35072      	216.43039      	216.40479      	216.35101      	216.4215       	216.37572      	216.37622      	216.41579      	216.38666      	216.37445      	216.37476      	216.22258      	216.3237       	216.33308      	216.26532      	216.3351       	216.31         	216.34822      	216.29337      	216.27403      	216.26987      	216.27174      	216.30865      	216.28816      	216.31071      	216.27122      	216.28543      	216.27444      	216.26302      	216.26678      	216.2831       	216.23721      	216.25919      	216.2727       	216.25746      	216.26572      	216.24208      	216.2844       	216.28136      	216.27406      	216.28285      	216.24176      	216.17415      	216.12598      	216.30917      	216.33322      	216.3099       	216.3319       	216.27394      	216.30966      	216.2305       	216.25644      	216.26163      	216.23724      	216.23485      	216.30093      	216.28146      	216.2318       	216.24179      	216.24086      	216.25464      	216.24759      	216.2422       	216.22517      	216.2131       	216.19032      	216.19402      	216.22112      	216.24635      	216.23895      	215.97795      	216.13809      	216.01878      	215.96083      	215.969        	215.95271      	215.96983      	215.99335      	216.00548      	215.97527      	215.90573      	215.83804      	215.92668      	215.87674      	
215.84164      	215.86884      	215.87709      	215.84637      	215.83382      	215.80127      	215.86664      	215.87193      	215.85931      	215.84871      	215.87444      	215.88138      	215.87134      	215.86093      	215.88136      	215.86441      	215.88829      	215.85973      	215.8788       	215.88103      	215.88596      	215.89796      	215.8798       	215.85544      	215.89795      	215.84503      	215.92302      	215.66464      	215.83105      	215.82147      	215.86676      	215.84178      	215.84415      	215.78336      	215.69545      	215.73253      	215.76227      	215.77155      	215.78899      	215.77496      	215.72777      	215.7041       	215.65579      	215.67738      	215.71793      	215.72452      	215.6967       	215.68881      	215.73048      	215.67123      	215.67209      	215.66228      	215.59792      	215.66058      	215.63452      	215.62909      	215.63672      	215.5717       	215.57457      	215.58308      	215.7152       	215.71751      	215.72054      	215.7372       	215.74803      	215.73863      	215.75775      	215.69368      	215.71452      	215.70482      	215.7325       	215.72984      	215.7316       	215.70418      	215.70848      	215.70828      	215.68645      	215.70468      	215.70592      	215.71518      	215.70564      	215.70383      	215.79018      	215.82816      	215.79126      	215.70816      	215.52655      	215.5427       	215.52171      	215.48267      	215.53012      	215.49425      	215.51253      	215.47269      	215.42133      	215.4776       	215.47047      	215.421        	215.4013       	215.5468       	
215.52898      	215.53831      	215.52457      	215.50505      	215.51472      	215.53104      	215.50348      	215.51498      	215.52441      	215.53583      	215.51964      	215.53139      	215.5382       	215.53864      	215.54134      	215.5469       	215.51666      	215.5196       	215.53275      	215.52669      	215.52515      	215.50902      	215.51053      	215.53998      	215.52562      	215.5494       	215.46867      	215.28334      	215.28497      	215.31967      	215.38548      	215.41217      	215.37402      	215.35251      	215.29214      	215.3288       	215.27322      	215.26157      	215.29492      	215.28214      	215.25139      	215.24525      	215.21942      	215.23964      	215.2361       	215.24724      	215.23543      	215.25592      	215.27463      	215.24942      	215.26694      	215.27092      	215.29092      	215.25572      	215.23145      	215.21571      	215.23595      	215.26874      	215.48508      	215.47423      	215.50179      	215.50394      	215.51393      	215.48927      	215.46898      	215.48383      	215.47673      	215.49171      	215.49365      	215.49399      	215.53424      	215.55908      	215.4865       	215.5242       	215.57236      	215.55067      	215.54272      	215.52246      	215.52696      	215.53542      	215.52414      	215.59036      	215.64256      	215.67369      	215.60138      	215.44193      	215.57315      	215.42406      	215.41623      	215.41756      	215.44301      	215.45323      	215.37679      	215.33646      	215.25255      	215.30609      	215.32362      	215.2311       	215.25192      	215.45547      	
215.70622      	215.69179      	215.7124       	215.71652      	215.78366      	215.96426      	215.89664      	215.74037      	215.68175      	215.69865      	215.66635      	215.66786      	215.69246      	215.69833      	215.7033       	215.67693      	215.68475      	215.68785      	215.71474      	215.6793       	215.67676      	215.69217      	215.7003       	215.70828      	215.69785      	215.67815      	215.68944      	215.72781      	215.7035       	215.7063       	215.5488       	215.53156      	215.62076      	215.57869      	215.68596      	215.73514      	215.694        	215.70786      	215.707        	215.67174      	215.68227      	215.65315      	215.66261      	215.67868      	215.67236      	215.67854      	215.67128      	215.65004      	215.67471      	215.68378      	215.64941      	215.64944      	215.66006      	215.66574      	215.65918      	215.62808      	215.62454      	215.66838      	215.6612       	215.62694      	215.64651      	215.59312      	215.63913      	215.61964      	215.63365      	215.64958      	215.63474      	215.64014      	215.6234       	215.61841      	215.64159      	215.63309      	215.6315       	215.65074      	215.66246      	215.66602      	215.62564      	215.60905      	215.57762      	215.6023       	215.6413       	215.5798       	215.68683      	215.5806       	215.6424       	215.58926      	215.55754      	215.37445      	215.44557      	215.43417      	215.45172      	215.48154      	215.46077      	215.37468      	215.35414      	215.39642      	215.34239      	215.28876      	215.32314      	215.56366      	
215.63194      	215.63187      	215.65138      	215.63368      	215.64255      	215.63498      	215.65137      	215.64415      	215.62218      	215.65211      	215.63861      	215.64174      	215.64413      	215.66234      	215.66994      	215.68332      	215.65402      	215.63916      	215.63112      	215.64607      	215.63132      	215.63205      	215.63907      	215.65004      	215.66936      	215.63206      	215.67844      	215.62888      	215.65143      	215.6429       	215.6046       	215.60892      	215.60228      	215.59683      	215.57805      	215.59196      	215.59227      	215.61873      	215.58089      	215.58597      	215.582        	215.58778      	215.56967      	215.55606      	215.56102      	215.56567      	215.57181      	215.579        	215.59674      	215.5925       	215.58319      	215.57771      	215.58195      	215.60368      	215.6349       	215.56422      	215.5769       	215.5773       	215.56764      	215.56071      	215.54747      	215.55338      	215.5628       	215.57219      	215.55745      	215.55382      	215.53427      	215.55153      	215.57599      	215.56705      	215.47418      	215.5939       	215.59822      	215.59027      	215.58243      	215.5563       	215.58113      	215.55785      	215.56013      	215.58298      	215.46849      	215.50502      	215.52452      	215.39877      	215.49884      	215.38393      	215.32516      	215.24945      	215.25467      	215.32375      	215.44148      	215.35646      	215.40234      	215.31487      	215.31068      	215.2734       	215.23354      	215.20609      	215.37389      	215.53273      	
215.6428       	215.65193      	215.60175      	215.59383      	215.61172      	215.60646      	215.58984      	215.60878      	215.62817      	215.62328      	215.63333      	215.59549      	215.58536      	215.5882       	215.59636      	215.61147      	215.58731      	215.60165      	215.57018      	215.5722       	215.58374      	215.60262      	215.5831       	215.5729       	215.55348      	215.57228      	215.59116      	215.55382      	215.57552      	215.58115      	215.56805      	215.59001      	215.5895       	215.57463      	215.61838      	215.5989       	215.56885      	215.56837      	215.58896      	215.56325      	215.61798      	215.55664      	215.58542      	215.58139      	215.5869       	215.61166      	215.59105      	215.62978      	215.63683      	215.62877      	215.6525       	215.6188       	215.63214      	215.63182      	215.62686      	215.63126      	215.62616      	215.62361      	215.65028      	215.63582      	215.62042      	215.64764      	215.63857      	215.63141      	215.64203      	215.64902      	215.65582      	215.64516      	215.66592      	215.64694      	215.68398      	215.66177      	215.65886      	215.68321      	215.6552       	215.67946      	215.63626      	215.66217      	215.646        	215.65506      	215.62204      	215.55504      	215.71332      	215.32523      	215.53134      	215.30612      	215.31332      	215.33081      	215.42857      	215.49884      	215.59174      	215.53128      	215.517        	215.46156      	215.44041      	215.42245      	215.35898      	215.35358      	215.5358       	215.66563      	
215.7717       	215.77652      	215.80956      	215.80011      	215.79193      	215.77922      	215.83144      	215.85701      	215.83952      	215.82135      	215.84334      	215.8558       	215.82692      	215.82414      	215.83868      	215.83092      	215.84084      	215.82082      	215.84904      	215.85406      	215.84676      	215.88097      	215.85228      	215.86491      	215.85182      	215.89917      	215.85745      	215.87344      	215.88382      	215.85638      	215.89108      	215.86638      	215.86453      	215.91106      	215.88644      	215.8806       	215.90012      	215.91617      	215.91678      	215.88655      	215.87401      	215.88394      	215.89438      	215.92024      	215.92668      	215.91898      	215.92381      	215.8916       	215.91107      	215.9248       	215.912        	215.902        	215.87971      	215.9358       	215.90587      	215.9412       	215.94814      	215.91806      	215.90048      	215.9094       	215.9192       	215.9344       	215.91895      	215.95761      	215.89297      	215.90031      	215.93134      	215.92564      	215.95204      	215.93903      	215.94315      	215.94655      	215.95229      	215.95615      	215.96956      	215.95148      	215.94395      	215.9654       	215.94293      	215.96419      	215.97806      	216.00163      	216.15294      	216.08263      	215.86589      	215.73268      	215.81577      	215.80574      	215.78677      	215.81207      	215.84781      	215.84547      	215.8386       	215.76308      	215.75697      	215.73378      	215.69305      	215.63263      	215.91144      	216.0049       	
216.04465      	216.00124      	216.02786      	216.04015      	216.03494      	216.0678       	216.0624       	216.02768      	216.0363       	216.06773      	216.05095      	216.01999      	216.03519      	215.98477      	215.98608      	216.00398      	216.01694      	216.02231      	216.02026      	216.02853      	216.0332       	216.04803      	216.05197      	216.02806      	216.0449       	216.07095      	216.0526       	216.06891      	216.0555       	216.06152      	216.07779      	216.0913       	216.09361      	216.10516      	216.11655      	216.09886      	216.13797      	216.1327       	216.11873      	216.0966       	216.08035      	216.11687      	216.12311      	216.12224      	216.12071      	216.12395      	216.12265      	216.17099      	216.16693      	216.16312      	216.11342      	216.11931      	216.12582      	216.12729      	216.09093      	216.06145      	216.07373      	216.0533       	216.04816      	216.07819      	216.07924      	216.0521       	216.06723      	216.06378      	216.07054      	216.06671      	216.05838      	216.01717      	216.06557      	216.08966      	216.07591      	216.0963       	216.09505      	216.0874       	216.08578      	216.05934      	216.09749      	216.08055      	216.05858      	216.08832      	216.06969      	216.15543      	216.1423       	216.22453      	216.19029      	216.08241      	216.03229      	215.96141      	215.95692      	215.92992      	215.96207      	215.95508      	215.92636      	215.89525      	215.87361      	215.82596      	215.76399      	215.80931      	216.10765      	216.1225       	
215.86092      	215.87695      	215.87639      	215.86781      	215.85164      	215.84161      	215.89977      	215.90958      	215.87253      	215.88365      	215.8697       	215.86029      	215.87808      	215.8714       	215.83653      	215.83624      	215.8357       	215.84549      	215.85031      	215.81541      	215.8251       	215.84833      	215.83212      	215.81044      	215.83958      	215.80634      	215.83455      	215.82437      	215.80363      	215.81244      	215.81265      	215.87245      	215.81316      	215.80467      	215.81644      	215.82574      	215.83005      	215.8137       	215.85597      	215.84894      	215.82108      	215.82794      	215.80858      	215.85408      	215.83304      	215.81877      	215.8275       	215.86166      	215.81625      	215.79922      	215.80795      	215.79178      	215.79454      	215.77396      	215.77602      	215.76292      	215.76733      	215.78404      	215.76239      	215.81383      	215.81857      	215.81793      	215.8119       	215.79865      	215.80243      	215.77626      	215.7778       	215.74745      	215.73079      	215.75137      	215.78313      	215.78456      	215.75018      	215.76752      	215.74991      	215.75804      	215.7382       	215.73993      	215.73837      	215.72746      	215.7488       	215.74356      	215.80884      	215.87552      	215.86496      	215.60257      	215.6402       	215.61667      	215.60735      	215.621        	215.62584      	215.58986      	215.56967      	215.54222      	215.50685      	215.4349       	215.38567      	215.61307      	215.75323      	215.76187      	
215.68353      	215.64572      	215.71135      	215.72333      	215.69989      	215.68112      	215.69455      	215.69215      	215.70483      	215.68704      	215.67429      	215.68042      	215.68158      	215.68436      	215.67741      	215.69838      	215.6858       	215.68646      	215.71077      	215.68994      	215.71945      	215.69753      	215.71289      	215.75092      	215.7225       	215.74323      	215.68044      	215.68678      	215.72914      	215.7626       	215.6885       	215.714        	215.71956      	215.69263      	215.72333      	215.70573      	215.74652      	215.75815      	215.71623      	215.71915      	215.726        	215.73708      	215.77635      	215.7494       	215.74962      	215.7534       	215.71802      	215.74927      	215.76059      	215.7047       	215.78842      	215.72665      	215.7184       	215.7461       	215.72702      	215.73933      	215.75302      	215.71307      	215.70517      	215.70901      	215.70387      	215.72206      	215.72502      	215.76364      	215.74277      	215.72316      	215.75185      	215.7388       	215.70665      	215.72006      	215.73314      	215.74106      	215.76985      	215.7486       	215.77362      	215.7517       	215.78299      	215.76913      	215.7565       	215.75781      	215.74341      	215.77011      	215.77428      	215.86131      	215.95451      	215.85574      	215.69745      	215.67303      	215.64745      	215.67142      	215.67128      	215.63191      	215.65172      	215.6184       	215.56516      	215.48642      	215.55309      	215.83493      	215.80257      	215.77664      	
215.8443       	215.84525      	215.89345      	215.89525      	215.9011       	215.8983       	215.88876      	215.8605       	215.88226      	215.85715      	215.85945      	215.84589      	215.87344      	215.85905      	215.90036      	215.89174      	215.85806      	215.84071      	215.86174      	215.87811      	215.88191      	215.8745       	215.86899      	215.88089      	215.86143      	215.86847      	215.867        	215.84914      	215.87448      	215.87291      	215.86832      	215.85896      	215.87932      	215.90445      	215.87453      	215.87842      	215.88867      	215.88007      	215.91954      	215.95264      	215.9413       	215.92165      	215.90039      	215.89484      	215.90285      	215.88689      	215.88086      	215.87196      	215.88571      	215.88876      	215.9052       	215.90779      	215.93845      	215.93771      	215.9256       	215.90952      	215.91354      	215.89914      	215.87677      	215.86346      	215.90178      	215.93448      	215.91037      	215.8968       	215.92107      	215.89046      	215.892        	215.91144      	215.90036      	215.88037      	215.91486      	215.91324      	215.90479      	215.91878      	215.94423      	215.94524      	215.94345      	215.93642      	215.92961      	215.8978       	215.88316      	215.91837      	215.89615      	215.9376       	215.9842       	216.02118      	215.98346      	215.95316      	215.95532      	215.90372      	215.8715       	215.87306      	215.82323      	215.80179      	215.70407      	215.77122      	215.96954      	215.92853      	215.96037      	215.98524      	
216.0195       	216.01596      	216.00227      	216.02008      	216.04391      	216.04234      	216.02513      	216.02394      	216.025        	216.04071      	216.03168      	216.06949      	216.05475      	216.0549       	216.06622      	216.04755      	216.05515      	216.06348      	216.05394      	216.06947      	216.03285      	216.02444      	216.09341      	216.06943      	216.0809       	216.07713      	216.06657      	216.07162      	216.0424       	216.08064      	216.0725       	216.08357      	216.07785      	216.06989      	216.09015      	216.10304      	216.10074      	216.09521      	216.09634      	216.08371      	216.12607      	216.09445      	216.07326      	216.0784       	216.0957       	216.1287       	216.08798      	216.08026      	216.12953      	216.12166      	216.12816      	216.12926      	216.1411       	216.15016      	216.11351      	216.11339      	216.12177      	216.13492      	216.10973      	216.09503      	216.11298      	216.10617      	216.11974      	216.07462      	216.05933      	216.11642      	216.11398      	216.1037       	216.14488      	216.13211      	216.0864       	216.10913      	216.08556      	216.10825      	216.11868      	216.10191      	216.12444      	216.1288       	216.13797      	216.13756      	216.09796      	216.10223      	216.10458      	216.09702      	216.10661      	216.0974       	216.11896      	216.14958      	216.19482      	216.12177      	216.058        	215.97154      	215.90942      	215.9091       	215.921        	216.08498      	216.10617      	216.13287      	216.10324      	216.1197       	
215.93297      	215.91992      	215.92516      	215.9208       	215.90805      	215.9017       	215.89192      	215.87566      	215.87892      	215.88881      	215.89223      	215.88826      	215.84988      	215.88377      	215.9017       	215.91243      	215.87274      	215.88193      	215.9087       	215.89395      	215.87408      	215.88966      	215.87988      	215.91417      	215.9282       	215.93726      	215.95164      	215.94215      	215.89163      	215.90317      	215.90903      	215.90443      	215.9086       	215.90642      	215.88812      	215.91278      	215.89235      	215.8707       	215.87323      	215.86392      	215.86649      	215.88518      	215.82286      	215.82767      	215.83043      	215.79604      	215.8183       	215.79947      	215.79758      	215.8393       	215.79964      	215.79639      	215.80511      	215.75766      	215.74536      	215.78766      	215.78517      	215.75624      	215.78598      	215.78543      	215.77327      	215.75952      	215.7636       	215.75775      	215.7645       	215.73643      	215.7545       	215.74791      	215.75558      	215.73363      	215.71649      	215.70564      	215.7517       	215.77951      	215.78296      	215.78903      	215.78558      	215.79396      	215.79999      	215.79637      	215.79271      	215.79953      	215.77205      	215.79819      	215.74348      	215.78831      	215.79793      	215.7866       	215.79665      	215.78598      	215.8496       	215.77841      	215.75401      	215.80893      	215.78664      	215.77303      	215.77611      	215.74959      	215.77821      	215.78484      	
215.89857      	215.90503      	215.88739      	215.89798      	215.8947       	215.9026       	215.93198      	215.9501       	215.94395      	215.93777      	215.89825      	215.9069       	215.88702      	215.90875      	215.88182      	215.95119      	215.9607       	215.92885      	215.9388       	215.9204       	215.89665      	215.89037      	215.95438      	215.93716      	215.93663      	215.93272      	215.93964      	215.94589      	215.96222      	215.97626      	215.97647      	215.95511      	216.00635      	216.00827      	215.97974      	216.0253       	216.00049      	215.99083      	215.98721      	215.97348      	215.98302      	215.97882      	216.0005       	215.97354      	215.98416      	216.01448      	215.98587      	216.00064      	216.01424      	216.01717      	216.01332      	216.01581      	216.01698      	216.0101       	215.97928      	215.99748      	215.99997      	215.9671       	215.96408      	215.99805      	216.0359       	216.02724      	216.03517      	215.99484      	216.0309       	216.01857      	216.02733      	216.04274      	216.01538      	216.02176      	216.07675      	216.03949      	216.03839      	216.05397      	216.03304      	216.04321      	216.0416       	216.07494      	216.03326      	216.03278      	216.08255      	216.09106      	216.11505      	216.10744      	216.14017      	216.10431      	216.06323      	216.09523      	216.07576      	216.08382      	216.08751      	216.08116      	216.1144       	216.10149      	216.10197      	216.10521      	216.07956      	216.12387      	216.10149      	216.1395       	
216.40283      	216.40414      	216.40771      	216.41693      	216.42204      	216.40884      	216.39601      	216.41046      	216.375        	216.36945      	216.41945      	216.37427      	216.36555      	216.40067      	216.426        	216.39157      	216.38843      	216.42015      	216.38428      	216.41275      	216.41481      	216.40915      	216.41469      	216.4218       	216.41132      	216.4261       	216.42416      	216.42871      	216.39664      	216.38431      	216.41876      	216.40382      	216.42262      	216.42465      	216.41074      	216.42986      	216.40501      	216.41635      	216.45514      	216.41986      	216.45966      	216.47345      	216.42307      	216.43993      	216.45299      	216.45467      	216.48038      	216.46971      	216.47011      	216.44473      	216.47906      	216.43645      	216.45624      	216.4614       	216.41798      	216.46365      	216.46286      	216.45575      	216.46786      	216.45033      	216.44206      	216.45302      	216.44952      	216.43864      	216.43134      	216.40855      	216.42357      	216.43842      	216.45909      	216.45804      	216.47682      	216.48984      	216.49484      	216.50192      	216.51242      	216.49738      	216.50806      	216.51685      	216.51123      	216.5022       	216.52531      	216.50882      	216.50204      	216.51927      	216.52644      	216.55624      	216.54405      	216.54189      	216.53775      	216.51894      	216.53453      	216.54402      	216.52922      	216.51228      	216.5012       	216.52896      	216.51376      	216.51028      	216.53621      	216.5385       	
216.32286      	216.30057      	216.29314      	216.30804      	216.28688      	216.25409      	216.29074      	216.27884      	216.249        	216.25642      	216.2794       	216.2672       	216.27834      	216.27682      	216.27509      	216.2964       	216.24487      	216.26945      	216.25536      	216.25279      	216.29947      	216.25641      	216.26123      	216.26495      	216.23535      	216.25307      	216.2463       	216.25961      	216.29645      	216.32666      	216.34506      	216.28294      	216.29247      	216.27675      	216.26587      	216.27345      	216.27538      	216.31096      	216.3161       	216.29825      	216.25766      	216.28534      	216.26683      	216.23528      	216.24062      	216.26266      	216.23988      	216.25206      	216.22362      	216.24347      	216.2237       	216.23122      	216.21034      	216.19969      	216.19595      	216.20763      	216.15692      	216.16452      	216.15308      	216.18173      	216.18082      	216.12552      	216.12733      	216.14503      	216.11717      	216.1265       	216.12532      	216.12352      	216.14787      	216.14047      	216.12137      	216.1166       	216.12071      	216.10265      	216.11574      	216.10878      	216.08176      	216.10463      	216.08841      	216.09668      	216.10669      	216.06209      	216.12132      	216.05623      	216.07896      	216.05882      	216.0443       	216.09897      	216.05803      	216.08742      	216.11012      	216.08365      	216.08841      	216.07887      	216.07684      	216.09286      	216.07745      	216.08372      	216.08252      	216.08347      	
215.7412       	215.74619      	215.71385      	215.71913      	215.72209      	215.76096      	215.77403      	215.78711      	215.75327      	215.73982      	215.71811      	215.69305      	215.7281       	215.72023      	215.72504      	215.70653      	215.71053      	215.73373      	215.69269      	215.6986       	215.72852      	215.72469      	215.7255       	215.72664      	215.68924      	215.70767      	215.72072      	215.70425      	215.7139       	215.68115      	215.69034      	215.67474      	215.71234      	215.70369      	215.69028      	215.69441      	215.655        	215.70511      	215.67563      	215.67458      	215.6703       	215.6985       	215.67079      	215.64452      	215.64648      	215.64984      	215.63483      	215.64168      	215.61887      	215.64226      	215.62776      	215.63786      	215.66139      	215.61034      	215.62074      	215.63268      	215.635        	215.61606      	215.61726      	215.60683      	215.61586      	215.64575      	215.61385      	215.60768      	215.61122      	215.5975       	215.58363      	215.60512      	215.61038      	215.58571      	215.58496      	215.58195      	215.6076       	215.59122      	215.57346      	215.60329      	215.56705      	215.57568      	215.5655       	215.5875       	215.59564      	215.54086      	215.56444      	215.53575      	215.51923      	215.52719      	215.55618      	215.56357      	215.54771      	215.54982      	215.55702      	215.5607       	215.55743      	215.55466      	215.56853      	215.54266      	215.58507      	215.56847      	215.53078      	215.5574       	
215.34845      	215.33237      	215.33586      	215.33458      	215.3304       	215.33601      	215.32127      	215.31598      	215.337        	215.33746      	215.32512      	215.31798      	215.32591      	215.34027      	215.28801      	215.32191      	215.30411      	215.29367      	215.31201      	215.28905      	215.334        	215.33043      	215.29996      	215.34686      	215.35976      	215.36247      	215.33374      	215.32037      	215.34547      	215.34604      	215.34302      	215.3102       	215.3294       	215.30153      	215.30345      	215.31844      	215.32367      	215.2932       	215.31505      	215.33066      	215.35114      	215.32896      	215.30862      	215.2938       	215.3073       	215.29588      	215.31711      	215.32268      	215.32208      	215.2825       	215.28844      	215.30052      	215.28339      	215.29518      	215.2539       	215.29384      	215.30609      	215.29533      	215.31006      	215.28865      	215.33026      	215.30243      	215.29181      	215.27097      	215.29391      	215.29868      	215.29596      	215.2989       	215.27727      	215.25887      	215.30214      	215.27272      	215.2968       	215.29034      	215.29836      	215.28256      	215.30124      	215.30148      	215.31552      	215.33781      	215.3008       	215.316        	215.31494      	215.31488      	215.30632      	215.32178      	215.32228      	215.3526       	215.34071      	215.30719      	215.32762      	215.3392       	215.3358       	215.31355      	215.30336      	215.33224      	215.3488       	215.3239       	215.30338      	215.3253       	
215.6098       	215.5931       	215.60013      	215.61063      	215.60321      	215.58977      	215.57912      	215.61955      	215.60986      	215.61244      	215.59702      	215.61058      	215.65527      	215.61977      	215.64844      	215.61995      	215.64035      	215.66263      	215.62961      	215.65436      	215.62497      	215.57895      	215.58449      	215.54744      	215.58365      	215.57481      	215.57176      	215.59213      	215.54774      	215.59367      	215.58495      	215.57652      	215.57211      	215.59848      	215.61154      	215.65779      	215.6536       	215.62671      	215.65698      	215.65182      	215.65903      	215.67404      	215.671        	215.64896      	215.68694      	215.6681       	215.66022      	215.69403      	215.67067      	215.66364      	215.68301      	215.68521      	215.68968      	215.67871      	215.70204      	215.68408      	215.69933      	215.69862      	215.6827       	215.70532      	215.70135      	215.69382      	215.68906      	215.6986       	215.70233      	215.71693      	215.70218      	215.70924      	215.67271      	215.69458      	215.69644      	215.68834      	215.7139       	215.68216      	215.70387      	215.73709      	215.72836      	215.73888      	215.74835      	215.7156       	215.7326       	215.73055      	215.75113      	215.73802      	215.7268       	215.70883      	215.7236       	215.73495      	215.73721      	215.73375      	215.73868      	215.74771      	215.74771      	215.74539      	215.77782      	215.78152      	215.79657      	215.78537      	215.74016      	215.79076      	
215.96756      	215.98672      	215.98976      	216.00272      	215.98988      	215.97897      	215.99635      	216.00798      	215.97574      	216.00137      	216.01073      	215.9992       	216            	215.98134      	216.01837      	216.02231      	216.00081      	216.00401      	216.01144      	216.03981      	216.04214      	216.03946      	216.0109       	216.01266      	216.02884      	216.03564      	216.01538      	216.01053      	216.00357      	216.02948      	216.03938      	216.02051      	216.03505      	216.0547       	216.0189       	216.02878      	216.02846      	216.01797      	216.021        	216.06305      	216.06714      	216.00734      	216.03568      	216.0347       	216.02988      	216.0551       	216.05356      	216.05304      	216.03311      	216.03934      	216.05992      	216.07555      	216.0309       	216.03831      	216.03304      	216.02338      	216.04034      	216.00987      	215.9942       	216.01793      	216.0445       	216.03598      	215.99583      	216.00717      	216.01707      	216.05838      	216.03903      	216.02672      	216.01341      	216.01932      	215.99002      	216.02528      	216.02817      	216.03777      	216.00587      	215.99496      	215.9969       	216.01758      	215.9834       	215.99438      	215.98148      	216.0102       	216.04385      	216.02603      	216.00815      	215.99539      	216.04102      	216.06403      	216.01547      	216.03452      	216.00511      	216.02637      	216.01247      	216.02003      	216.04063      	216.05438      	216.05478      	216.05602      	216.06691      	216.05289      	
216.08473      	216.08095      	216.06944      	216.06496      	216.05832      	216.06493      	216.08954      	216.0753       	216.08017      	216.06145      	216.04196      	216.07358      	216.0734       	216.06459      	216.05624      	216.07321      	216.09117      	216.10237      	216.0769       	216.07243      	216.10442      	216.05402      	216.08275      	216.07433      	216.09354      	216.08244      	216.08539      	216.08578      	216.09804      	216.066        	216.0982       	216.09706      	216.06438      	216.06934      	216.07265      	216.0729       	216.13063      	216.09895      	216.08423      	216.0572       	216.04688      	216.02994      	216.03207      	216.0347       	216.0302       	216.07428      	216.10928      	216.11163      	216.10097      	216.06396      	216.09474      	216.06686      	216.05539      	216.0804       	216.10654      	216.0431       	216.07617      	216.06924      	216.04036      	216.05472      	216.02663      	216.05867      	216.04909      	216.02815      	216.05524      	216.02904      	216.076        	216.08002      	216.04588      	216.07689      	216.03809      	216.05447      	216.04776      	216.0595       	216.05225      	216.09195      	216.05917      	216.06549      	216.05296      	216.07469      	216.06989      	216.05078      	216.0726       	216.05048      	216.06387      	216.07535      	216.03416      	216.05974      	216.03163      	216.0681       	216.07365      	216.04678      	216.08734      	216.0662       	216.04153      	216.05501      	216.05377      	216.01668      	216.03363      	216.04837      	
215.90096      	215.88673      	215.9048       	215.92001      	215.91135      	215.89969      	215.92406      	215.88808      	215.89415      	215.91838      	215.88197      	215.89127      	215.85602      	215.85922      	215.8959       	215.91238      	215.88109      	215.89143      	215.8596       	215.88058      	215.90105      	215.88748      	215.89177      	215.90096      	215.8938       	215.88919      	215.91489      	215.90858      	215.89073      	215.89224      	215.88428      	215.89464      	215.92303      	215.91023      	215.8907       	215.87573      	215.893        	215.88939      	215.84918      	215.8519       	215.8269       	215.84003      	215.86566      	215.90138      	215.84895      	215.86557      	215.86272      	215.85487      	215.86514      	215.8849       	215.82513      	215.83095      	215.81274      	215.84532      	215.81061      	215.81837      	215.79938      	215.79486      	215.77992      	215.81418      	215.8087       	215.81752      	215.82762      	215.80664      	215.83855      	215.80309      	215.79031      	215.81622      	215.79788      	215.82924      	215.8533       	215.80255      	215.81819      	215.79158      	215.8319       	215.83755      	215.81546      	215.83148      	215.83757      	215.83487      	215.79974      	215.80542      	215.79942      	215.77254      	215.81097      	215.81111      	215.76096      	215.80731      	215.78232      	215.79271      	215.79433      	215.79492      	215.80739      	215.80682      	215.77425      	215.83192      	215.80621      	215.79631      	215.77951      	215.79147      	
215.91397      	215.94743      	215.95628      	215.961        	215.93587      	215.93858      	215.94984      	215.92543      	215.92569      	215.94084      	215.94629      	215.9575       	215.92596      	215.93571      	215.90988      	215.91742      	215.90033      	215.91623      	215.9446       	215.94675      	215.9431       	215.92845      	215.94945      	215.97372      	215.95619      	215.93358      	215.95824      	215.9849       	215.97534      	215.9717       	215.99594      	215.96957      	215.98747      	216.02174      	216.01547      	215.98372      	216.0071       	216.00108      	215.98952      	216.0311       	215.99959      	215.9931       	215.985        	215.96706      	215.95386      	215.97968      	215.96178      	215.95314      	215.99232      	216.00409      	216.03166      	216.05638      	216.00179      	215.99974      	216.04494      	215.98814      	216.00261      	216.00064      	215.98315      	216.01018      	216.0053       	216.01602      	216.01222      	216.01093      	216.02689      	216.02443      	216.02872      	216.01642      	215.99944      	216.05307      	216.01588      	216.03482      	216.01878      	216.01967      	216.04523      	216.05202      	216.0284       	216.03735      	216.02971      	216.01637      	216.0454       	216.05104      	216.04767      	216.0546       	216.04721      	216.06299      	216.05365      	216.05519      	216.03546      	216.02023      	216.02693      	216.02208      	216.02353      	216.084        	216.07716      	216.06396      	216.05914      	216.06094      	216.04611      	216.03421      	
216.27742      	216.30312      	216.29819      	216.28702      	216.29332      	216.30786      	216.2811       	216.28494      	216.32164      	216.33112      	216.33694      	216.3638       	216.33627      	216.34743      	216.33708      	216.3309       	216.30055      	216.26419      	216.29298      	216.30975      	216.3193       	216.3154       	216.31456      	216.30093      	216.32253      	216.3013       	216.33008      	216.33661      	216.29492      	216.33243      	216.31204      	216.3486       	216.34546      	216.34683      	216.32626      	216.3461       	216.33627      	216.34132      	216.36246      	216.3397       	216.3439       	216.31166      	216.35864      	216.35269      	216.3178       	216.34901      	216.30525      	216.3371       	216.32272      	216.32918      	216.35265      	216.34264      	216.33932      	216.35077      	216.32185      	216.33307      	216.3233       	216.31789      	216.36864      	216.31764      	216.31834      	216.34183      	216.34668      	216.38576      	216.35329      	216.29684      	216.35606      	216.37436      	216.3983       	216.32527      	216.36447      	216.38727      	216.38768      	216.35287      	216.33351      	216.34665      	216.3734       	216.3737       	216.34439      	216.37363      	216.35684      	216.37328      	216.36667      	216.3649       	216.39453      	216.35509      	216.38173      	216.37076      	216.39558      	216.39024      	216.4047       	216.38142      	216.39005      	216.38321      	216.38805      	216.41745      	216.38956      	216.3578       	216.36905      	216.3518       	
216.69939      	216.694        	216.68498      	216.69882      	216.69083      	216.67154      	216.69455      	216.7211       	216.69131      	216.71898      	216.68097      	216.67853      	216.7198       	216.69313      	216.69653      	216.70412      	216.71599      	216.71361      	216.72575      	216.71477      	216.71117      	216.75293      	216.729        	216.73944      	216.72816      	216.71954      	216.7539       	216.72697      	216.73773      	216.73888      	216.7576       	216.77858      	216.7781       	216.76573      	216.7382       	216.76073      	216.74127      	216.76604      	216.77382      	216.76349      	216.77037      	216.79233      	216.78653      	216.79173      	216.77298      	216.7728       	216.79233      	216.82745      	216.80688      	216.80226      	216.81102      	216.7906       	216.84149      	216.84926      	216.81874      	216.83075      	216.82469      	216.84604      	216.84982      	216.79579      	216.83133      	216.84682      	216.86066      	216.87898      	216.86256      	216.87566      	216.84048      	216.88043      	216.8821       	216.88284      	216.89037      	216.88371      	216.85873      	216.85045      	216.881        	216.87503      	216.85693      	216.85753      	216.87256      	216.85173      	216.88062      	216.90088      	216.86432      	216.9177       	216.89322      	216.92133      	216.89275      	216.86378      	216.90045      	216.90746      	216.94345      	216.91624      	216.90555      	216.92093      	216.90863      	216.9277       	216.93448      	216.91257      	216.91812      	216.93613      	
217.18092      	217.21492      	217.18117      	217.14423      	217.1438       	217.13622      	217.17503      	217.1691       	217.12778      	217.15846      	217.17163      	217.17015      	217.15457      	217.18744      	217.1713       	217.17503      	217.18335      	217.20973      	217.19449      	217.16449      	217.17482      	217.20229      	217.21341      	217.20042      	217.16959      	217.16971      	217.19322      	217.17668      	217.17429      	217.21039      	217.18001      	217.19084      	217.18423      	217.18416      	217.17668      	217.20482      	217.189        	217.21286      	217.22134      	217.23088      	217.1932       	217.21754      	217.20107      	217.22653      	217.22214      	217.18646      	217.22925      	217.20964      	217.21997      	217.22957      	217.23972      	217.2394       	217.22739      	217.27074      	217.2599       	217.27182      	217.24672      	217.24738      	217.22089      	217.23463      	217.25124      	217.21555      	217.21205      	217.24352      	217.24951      	217.26212      	217.20242      	217.22908      	217.24742      	217.272        	217.28732      	217.27385      	217.26204      	217.23325      	217.2844       	217.25082      	217.25217      	217.26804      	217.26288      	217.29828      	217.25768      	217.26773      	217.2783       	217.27773      	217.24893      	217.27719      	217.24673      	217.25035      	217.258        	217.26503      	217.2691       	217.25607      	217.26471      	217.26707      	217.2505       	217.2521       	217.25179      	217.26343      	217.26297      	217.2805       	
217.30664      	217.29672      	217.30363      	217.29095      	217.2876       	217.2796       	217.30638      	217.30745      	217.28822      	217.26465      	217.28981      	217.3021       	217.27689      	217.27464      	217.25887      	217.25578      	217.26553      	217.22859      	217.24925      	217.26442      	217.24306      	217.24875      	217.24864      	217.23953      	217.2539       	217.21976      	217.25383      	217.22018      	217.23601      	217.2562       	217.25304      	217.23088      	217.24242      	217.22499      	217.22081      	217.22133      	217.21962      	217.23405      	217.23918      	217.24641      	217.26149      	217.24228      	217.24965      	217.26707      	217.23315      	217.2386       	217.2567       	217.25082      	217.25453      	217.21901      	217.21219      	217.24677      	217.2431       	217.24054      	217.26204      	217.2264       	217.23013      	217.22745      	217.2181       	217.21762      	217.22365      	217.20744      	217.1976       	217.2439       	217.22044      	217.2347       	217.21541      	217.22626      	217.19513      	217.20274      	217.21681      	217.18579      	217.19608      	217.16919      	217.19711      	217.21248      	217.18059      	217.19394      	217.17563      	217.15329      	217.16177      	217.14944      	217.10843      	217.13077      	217.08434      	217.10808      	217.15472      	217.11826      	217.16536      	217.13829      	217.1249       	217.12527      	217.12819      	217.10205      	217.08772      	217.12335      	217.12648      	217.1373       	217.14194      	217.12486      	
216.86221      	216.87012      	216.86697      	216.85985      	216.86697      	216.85904      	216.86545      	216.85808      	216.87047      	216.85118      	216.83746      	216.80211      	216.81866      	216.84586      	216.8345       	216.8698       	216.82536      	216.82205      	216.81232      	216.80214      	216.83609      	216.87541      	216.802        	216.78831      	216.78676      	216.82072      	216.81326      	216.79982      	216.80403      	216.80127      	216.78972      	216.77737      	216.81183      	216.79872      	216.81529      	216.80472      	216.77295      	216.81789      	216.83548      	216.82668      	216.80946      	216.78001      	216.78777      	216.81021      	216.82648      	216.82047      	216.79996      	216.79045      	216.81155      	216.81854      	216.82838      	216.81627      	216.82446      	216.80092      	216.7801       	216.7928       	216.78955      	216.79066      	216.76727      	216.78752      	216.77522      	216.78607      	216.79071      	216.78293      	216.77298      	216.79128      	216.77142      	216.78954      	216.80069      	216.80199      	216.78012      	216.7906       	216.79662      	216.79733      	216.76025      	216.74123      	216.78067      	216.76144      	216.73573      	216.77916      	216.74124      	216.72752      	216.79077      	216.76341      	216.7306       	216.76283      	216.75165      	216.74861      	216.77463      	216.77         	216.72101      	216.7491       	216.7469       	216.77975      	216.77873      	216.76112      	216.78146      	216.75775      	216.78561      	216.77989      	
216.78662      	216.78458      	216.8239       	216.81471      	216.81006      	216.82985      	216.78107      	216.76779      	216.80116      	216.83136      	216.8125       	216.81291      	216.83015      	216.82031      	216.82523      	216.82869      	216.82956      	216.84784      	216.80426      	216.81326      	216.83676      	216.82796      	216.83205      	216.84846      	216.82877      	216.83116      	216.82469      	216.8431       	216.85426      	216.82408      	216.7981       	216.81778      	216.8214       	216.8257       	216.84499      	216.8135       	216.78555      	216.86278      	216.85059      	216.86359      	216.87218      	216.82794      	216.83453      	216.86139      	216.85446      	216.87523      	216.88243      	216.87663      	216.85995      	216.87053      	216.9017       	216.8759       	216.86638      	216.85687      	216.86493      	216.89038      	216.85983      	216.87288      	216.88577      	216.8887       	216.90099      	216.90659      	216.85526      	216.88535      	216.8934       	216.88405      	216.89548      	216.88428      	216.88647      	216.88768      	216.9009       	216.90903      	216.92262      	216.90085      	216.89438      	216.91545      	216.93929      	216.89142      	216.9287       	216.93524      	216.90892      	216.93254      	216.94595      	216.93419      	216.95274      	216.93027      	216.95529      	216.92717      	216.92262      	216.93427      	216.95206      	216.8838       	216.9188       	216.94597      	216.93694      	216.97318      	216.95728      	216.96689      	216.96852      	216.9723       	
217.25563      	217.24008      	217.2496       	217.27254      	217.2644       	217.25902      	217.24194      	217.26639      	217.26913      	217.22757      	217.23846      	217.26204      	217.2251       	217.2389       	217.24493      	217.25458      	217.22795      	217.24341      	217.23692      	217.25868      	217.25185      	217.24942      	217.24045      	217.29076      	217.28464      	217.2573       	217.30257      	217.24928      	217.28645      	217.30875      	217.26332      	217.27425      	217.24582      	217.30109      	217.29698      	217.30638      	217.35165      	217.29012      	217.30328      	217.27963      	217.32272      	217.29533      	217.29645      	217.31361      	217.31055      	217.30818      	217.32745      	217.31143      	217.34636      	217.3174       	217.34888      	217.3276       	217.3568       	217.34276      	217.33981      	217.37364      	217.3364       	217.33328      	217.35197      	217.36139      	217.36282      	217.36925      	217.3611       	217.38927      	217.40648      	217.40587      	217.39795      	217.37816      	217.39554      	217.37224      	217.40627      	217.37643      	217.42548      	217.39923      	217.36436      	217.39095      	217.40941      	217.36342      	217.38821      	217.38382      	217.38571      	217.4035       	217.36548      	217.40085      	217.36362      	217.3925       	217.39485      	217.39748      	217.34825      	217.39293      	217.4238       	217.43327      	217.40965      	217.41194      	217.38719      	217.43547      	217.42424      	217.41696      	217.43668      	217.41212      	
217.71584      	217.72911      	217.7094       	217.71428      	217.72618      	217.70958      	217.69896      	217.67616      	217.69891      	217.70573      	217.66422      	217.66252      	217.69531      	217.66577      	217.67755      	217.69322      	217.68243      	217.69003      	217.67421      	217.68855      	217.68147      	217.68182      	217.67857      	217.70665      	217.67242      	217.64047      	217.6968       	217.68182      	217.67302      	217.70071      	217.66586      	217.6547       	217.69142      	217.68735      	217.66748      	217.67075      	217.67325      	217.69052      	217.71031      	217.69678      	217.7037       	217.68369      	217.69518      	217.70636      	217.71983      	217.71681      	217.69653      	217.71278      	217.71771      	217.71507      	217.72916      	217.74086      	217.72412      	217.63983      	217.71599      	217.69426      	217.73494      	217.74826      	217.7193       	217.7009       	217.69441      	217.67393      	217.68677      	217.67874      	217.7034       	217.75897      	217.71948      	217.66228      	217.67494      	217.66562      	217.69612      	217.67776      	217.60904      	217.64615      	217.62111      	217.60329      	217.63548      	217.62946      	217.57211      	217.57487      	217.60074      	217.61188      	217.61261      	217.60284      	217.60268      	217.59312      	217.61496      	217.60411      	217.62155      	217.50072      	217.37985      	217.33633      	217.37695      	217.3139       	217.26825      	217.32227      	217.38403      	217.3694       	217.39882      	217.4659       	
217.39806      	217.40622      	217.42165      	217.39264      	217.38217      	217.4129       	217.41888      	217.39471      	217.42868      	217.4127       	217.4078       	217.41756      	217.4111       	217.40895      	217.43422      	217.42674      	217.40723      	217.40594      	217.43848      	217.41292      	217.41331      	217.39081      	217.36887      	217.40506      	217.40802      	217.41908      	217.40306      	217.40839      	217.42204      	217.34813      	217.37622      	217.43259      	217.38573      	217.38249      	217.43842      	217.42027      	217.40485      	217.3899       	217.26123      	217.20084      	217.25607      	217.13043      	217.07864      	217.12556      	217.15527      	217.19695      	217.31381      	217.24998      	217.23697      	217.22374      	217.34341      	217.33405      	217.29318      	217.30295      	217.31161      	217.24387      	217.2724       	217.2283       	217.24486      	217.27834      	217.39404      	217.41905      	217.41469      	217.42807      	217.41661      	217.43872      	217.43112      	217.40143      	217.42902      	217.4095       	217.40541      	217.46988      	217.38788      	217.3855       	217.39249      	217.39592      	217.43704      	217.38315      	217.37111      	217.36986      	217.38405      	217.38556      	217.35774      	217.38455      	217.34581      	217.35477      	217.32805      	217.3487       	217.35512      	217.27376      	217.15929      	217.31273      	217.28693      	217.27792      	217.2666       	217.30707      	217.30515      	217.2974       	217.28407      	217.26663      	
217.31424      	217.31812      	217.2861       	217.31378      	217.30241      	217.32016      	217.32277      	217.3217       	217.32846      	217.36995      	217.34512      	217.3474       	217.35645      	217.36336      	217.33113      	217.3025       	217.28767      	217.26161      	217.24539      	217.24731      	217.26613      	217.24927      	217.26117      	217.21304      	217.19528      	217.19354      	217.19815      	217.17592      	217.03673      	217.0638       	217.02205      	217.0262       	217.00359      	217.00717      	217.01674      	217.06137      	217.07413      	217.11217      	217.11995      	217.15968      	217.1884       	217.21379      	217.26028      	217.28294      	217.29942      	217.24356      	217.14886      	217.22461      	217.28745      	217.30632      	217.35593      	217.31477      	217.26955      	217.2405       	217.26878      	217.23146      	217.2452       	217.26834      	217.18329      	217.09227      	217.15657      	217.23112      	217.21962      	217.22778      	217.22382      	217.20143      	217.21306      	217.23439      	217.23062      	217.26205      	217.298        	217.2684       	217.26964      	217.29517      	217.28734      	217.31842      	217.21976      	217.22308      	217.23544      	217.24715      	217.25552      	217.21223      	217.23024      	217.21999      	217.19742      	217.2439       	217.21799      	217.23096      	217.21167      	217.20174      	217.06793      	217.16545      	217.17917      	217.20863      	217.2319       	217.21442      	217.185        	217.17166      	217.16351      	217.19344      	
217.1399       	217.14374      	217.16783      	217.1531       	217.16876      	217.13954      	217.14674      	217.12416      	217.1463       	217.14218      	217.14723      	217.13118      	217.17848      	217.2031       	217.17058      	217.13051      	217.15306      	217.13625      	217.11443      	217.13802      	217.10793      	217.11168      	217.12685      	217.13463      	217.09508      	217.11623      	217.12291      	217.03217      	216.9767       	217.06573      	217.04564      	217.0572       	217.08495      	217.03783      	217.03384      	217.03749      	217.04747      	217.04645      	217.0856       	217.11127      	217.05382      	217.02382      	217.03094      	217.04034      	217.04848      	217.02344      	217.05923      	217.04152      	217.00768      	217.021        	217.0213       	216.99796      	217.01837      	217.04997      	217.00705      	217.05078      	217.00616      	217.01855      	216.96045      	216.8664       	217.04605      	217.06982      	217.0471       	217.04427      	217.03908      	217.03818      	217.0386       	217.03198      	217.00873      	217.00674      	217.0327       	217.02963      	216.98264      	216.99718      	216.98161      	217.0169       	217.05878      	217.06435      	217.066        	217.05354      	217.02171      	217.02109      	216.98773      	216.99425      	216.99452      	216.9135       	216.96338      	216.98901      	216.95692      	216.95338      	216.86722      	216.9485       	216.94981      	216.94916      	216.95981      	216.94522      	216.9497       	216.95294      	216.92499      	216.938        	
216.84085      	216.80946      	216.8581       	216.84431      	216.85132      	216.81956      	216.82213      	216.79413      	216.80649      	216.75285      	216.77127      	216.79124      	216.7859       	216.77979      	216.73242      	216.77606      	216.73769      	216.78297      	216.78331      	216.73878      	216.76878      	216.74513      	216.76595      	216.77312      	216.75838      	216.73924      	216.73715      	216.73724      	216.57753      	216.71413      	216.69151      	216.66562      	216.71086      	216.75331      	216.71803      	216.71176      	216.67325      	216.68727      	216.70554      	216.69109      	216.70969      	216.68703      	216.69308      	216.6632       	216.65997      	216.66064      	216.72147      	216.71735      	216.64342      	216.67831      	216.69382      	216.66904      	216.68987      	216.69743      	216.68634      	216.68878      	216.71645      	216.6906       	216.63368      	216.46701      	216.63661      	216.72214      	216.76093      	216.74846      	216.7281       	216.72673      	216.73178      	216.76883      	216.75816      	216.75357      	216.80103      	216.74759      	216.73708      	216.72516      	216.70808      	216.7349       	216.68611      	216.6913       	216.66537      	216.66612      	216.70134      	216.67604      	216.66568      	216.66681      	216.72401      	216.72043      	216.66673      	216.67215      	216.6853       	216.61954      	216.56097      	216.64137      	216.65692      	216.6423       	216.63095      	216.62357      	216.6057       	216.61928      	216.58798      	216.61168      	
216.46776      	216.47403      	216.47577      	216.47838      	216.45337      	216.45522      	216.45378      	216.46837      	216.4729       	216.43391      	216.40363      	216.43318      	216.46893      	216.47768      	216.47617      	216.48543      	216.47049      	216.47401      	216.44276      	216.44518      	216.42108      	216.434        	216.43562      	216.43979      	216.44579      	216.43782      	216.43239      	216.4149       	216.38397      	216.3447       	216.33287      	216.32294      	216.31439      	216.36115      	216.40022      	216.40845      	216.3901       	216.39938      	216.39525      	216.38034      	216.33234      	216.38072      	216.4061       	216.40685      	216.42293      	216.38927      	216.37344      	216.4196       	216.43822      	216.39023      	216.3607       	216.33385      	216.36758      	216.35951      	216.36726      	216.3598       	216.34462      	216.35278      	216.29562      	216.24234      	216.27292      	216.303        	216.31372      	216.31064      	216.32283      	216.34096      	216.3636       	216.35829      	216.36469      	216.38396      	216.36531      	216.34195      	216.36377      	216.34671      	216.37215      	216.36328      	216.36215      	216.39722      	216.35826      	216.31241      	216.37534      	216.37386      	216.32307      	216.37137      	216.36559      	216.39938      	216.36401      	216.33621      	216.39255      	216.32948      	216.18994      	216.222        	216.25055      	216.28786      	216.30435      	216.29774      	216.29666      	216.31017      	216.30936      	216.33798      	
216.55319      	216.54242      	216.59439      	216.58057      	216.55214      	216.54109      	216.59079      	216.59807      	216.56517      	216.56584      	216.55844      	216.57437      	216.56662      	216.58339      	216.5796       	216.59677      	216.55255      	216.57277      	216.56178      	216.57921      	216.61052      	216.58937      	216.61118      	216.60237      	216.60593      	216.5604       	216.55177      	216.52504      	216.46393      	216.50139      	216.53903      	216.5472       	216.55379      	216.5742       	216.54208      	216.57022      	216.5524       	216.54865      	216.55615      	216.55923      	216.55275      	216.57945      	216.5654       	216.57233      	216.5624       	216.56473      	216.59467      	216.58888      	216.5956       	216.60541      	216.62444      	216.63713      	216.60736      	216.6455       	216.56288      	216.62263      	216.62703      	216.63998      	216.60524      	216.49747      	216.60526      	216.63821      	216.63145      	216.68848      	216.69084      	216.66154      	216.6945       	216.67644      	216.69923      	216.735        	216.72943      	216.72643      	216.76758      	216.72931      	216.71834      	216.74374      	216.741        	216.7426       	216.74594      	216.77438      	216.79842      	216.82037      	216.76927      	216.77231      	216.73871      	216.75014      	216.81174      	216.76782      	216.78073      	216.75139      	216.62674      	216.73578      	216.77336      	216.77654      	216.77121      	216.75475      	216.76793      	216.76572      	216.78432      	216.78792      	
217.26749      	217.28421      	217.28017      	217.2497       	217.26112      	217.27199      	217.28165      	217.302        	217.33466      	217.30202      	217.30649      	217.31488      	217.33453      	217.2986       	217.3532       	217.36621      	217.37845      	217.38809      	217.37119      	217.35002      	217.36899      	217.34709      	217.3736       	217.38895      	217.33124      	217.39908      	217.38998      	217.28891      	217.16911      	217.27863      	217.27054      	217.28328      	217.3037       	217.31137      	217.29832      	217.30812      	217.32469      	217.3545       	217.3559       	217.36542      	217.35823      	217.34         	217.3697       	217.33873      	217.36003      	217.39865      	217.37485      	217.3848       	217.38634      	217.36217      	217.3776       	217.38174      	217.37029      	217.3548       	217.38327      	217.35834      	217.35109      	217.35023      	217.29916      	217.19086      	217.26724      	217.36092      	217.38698      	217.4141       	217.40524      	217.39401      	217.39752      	217.43083      	217.3864       	217.41608      	217.43307      	217.41043      	217.39627      	217.38298      	217.41269      	217.39767      	217.3817       	217.38126      	217.3799       	217.37009      	217.36946      	217.33969      	217.33763      	217.34537      	217.40208      	217.40576      	217.38583      	217.36676      	217.37282      	217.32057      	217.23674      	217.31549      	217.333        	217.35213      	217.30862      	217.32614      	217.29413      	217.31339      	217.3178       	217.34709      	
217.26782      	217.24843      	217.26588      	217.26123      	217.27147      	217.28508      	217.29416      	217.27751      	217.2914       	217.26831      	217.29086      	217.27585      	217.26817      	217.27724      	217.27692      	217.2986       	217.34068      	217.37267      	217.25449      	217.24791      	217.25269      	217.2451       	217.25189      	217.23851      	217.23924      	217.24641      	217.25462      	217.24846      	217.07852      	217.14658      	217.17433      	217.145        	217.18936      	217.13731      	217.15202      	217.1354       	217.12288      	217.10497      	217.13445      	217.13849      	217.11452      	217.12158      	217.10365      	217.10631      	217.06757      	217.11424      	217.0547       	217.09036      	217.09242      	217.09366      	217.11589      	217.12654      	217.2012       	217.19081      	217.13881      	217.12947      	217.12248      	217.1394       	217.05005      	216.91946      	216.96469      	217.08122      	217.11789      	217.09447      	217.11313      	217.09142      	217.09839      	217.13623      	217.12598      	217.10355      	217.11546      	217.10025      	217.09889      	217.11337      	217.08551      	217.05388      	217.07228      	217.08513      	217.09682      	217.11017      	217.08969      	217.14491      	217.12714      	217.11385      	217.10031      	217.10603      	217.11012      	217.10143      	217.0779       	217.07294      	216.97711      	217.08513      	217.05786      	217.0322       	217.0745       	217.05345      	217.07802      	217.06331      	217.097        	217.0922       	
217.05276      	217.05157      	217.04013      	217.0405       	217.04034      	217.06015      	217.09035      	217.03598      	217.02245      	217.02443      	217.02277      	217.00139      	217.0088       	217.01224      	217.03831      	216.98715      	216.98656      	217.00133      	217.01936      	216.99779      	216.95078      	216.95416      	216.99518      	216.98152      	216.98549      	216.94618      	216.97014      	216.9714       	216.81168      	216.92636      	216.94458      	216.93056      	216.92555      	216.90099      	216.9284       	216.92943      	216.93063      	216.94489      	216.92961      	216.95738      	216.94167      	216.94972      	216.9637       	216.97984      	216.96736      	216.92125      	216.9885       	216.97208      	216.98643      	216.97728      	216.98918      	216.96878      	216.98593      	216.99713      	216.96706      	217.02156      	217.01537      	216.96266      	216.92099      	216.81227      	216.88988      	216.99886      	216.9881       	217.03346      	217.05487      	217.00604      	217.02238      	217.04973      	217.03323      	217.0348       	216.97714      	217.00424      	217.00787      	216.97858      	217.02791      	217.02162      	217.00584      	216.95953      	216.97112      	216.96983      	216.98079      	216.96677      	216.97298      	216.96242      	216.98546      	216.97464      	216.94017      	216.93423      	216.96191      	216.87885      	216.79185      	216.9349       	216.92725      	216.93541      	216.96878      	216.9372       	216.95337      	216.95595      	216.8921       	216.91331      	
216.99147      	216.98138      	216.99026      	216.97385      	216.9743       	216.99739      	217.00415      	216.9833       	216.97108      	216.98625      	216.98141      	216.99983      	216.96889      	217.00938      	216.98529      	217.0187       	217.01752      	217.01405      	216.97829      	216.96735      	216.9873       	217.02419      	216.98871      	217.0053       	217.03778      	217.01329      	217.01337      	217.03944      	216.91032      	216.97238      	216.9464       	216.93645      	216.96042      	216.92734      	216.94524      	216.91774      	216.94646      	216.94212      	216.89413      	216.94681      	216.91447      	216.89789      	216.93259      	216.9077       	216.91937      	216.91278      	216.89073      	216.90408      	216.90367      	216.92406      	216.93985      	216.94911      	216.9103       	216.92975      	216.93729      	216.92896      	216.95892      	216.91722      	216.89261      	216.80542      	216.89203      	216.99535      	216.98375      	216.97241      	216.97679      	216.96555      	216.93253      	216.94522      	216.94894      	216.9902       	216.95787      	216.97202      	216.9638       	216.92122      	216.94896      	216.9282       	216.92755      	216.93092      	216.90668      	216.92511      	216.94542      	216.94586      	216.94113      	216.90384      	216.90463      	216.93497      	216.9307       	216.91083      	216.8884       	216.86572      	216.7238       	216.84818      	216.84431      	216.84601      	216.83575      	216.86502      	216.82498      	216.85182      	216.86572      	216.827        	
216.93488      	216.9283       	216.93733      	216.94263      	216.9452       	216.95216      	216.92548      	216.95592      	216.91022      	216.91382      	216.91574      	216.907        	216.92645      	216.89847      	216.91496      	216.88528      	216.88803      	216.89609      	216.85211      	216.88254      	216.92113      	216.88991      	216.88167      	216.90884      	216.899        	216.8922       	216.88913      	216.87318      	216.71779      	216.85965      	216.80482      	216.80273      	216.82253      	216.80534      	216.78621      	216.79645      	216.81967      	216.80655      	216.81024      	216.8173       	216.82347      	216.83763      	216.8039       	216.78395      	216.82913      	216.79465      	216.77368      	216.77939      	216.80307      	216.83812      	216.80379      	216.80019      	216.80258      	216.79198      	216.8143       	216.811        	216.80397      	216.79245      	216.7587       	216.63191      	216.74112      	216.84985      	216.83072      	216.8103       	216.82568      	216.8147       	216.79791      	216.81503      	216.82542      	216.80672      	216.81331      	216.79991      	216.79695      	216.7984       	216.72585      	216.79907      	216.77753      	216.76712      	216.77377      	216.77208      	216.78554      	216.75143      	216.78125      	216.78728      	216.77072      	216.72852      	216.72641      	216.78612      	216.73105      	216.64613      	216.57932      	216.71918      	216.70682      	216.70973      	216.6853       	216.6557       	216.66086      	216.67223      	216.65045      	216.64598      	
216.64862      	216.6522       	216.63808      	216.61948      	216.61478      	216.65932      	216.65265      	216.639        	216.61966      	216.62877      	216.64267      	216.60887      	216.64955      	216.62308      	216.61377      	216.61166      	216.61627      	216.61896      	216.60349      	216.60774      	216.58966      	216.61244      	216.5939       	216.5909       	216.60594      	216.58932      	216.56935      	216.61359      	216.40787      	216.49966      	216.53452      	216.54932      	216.53857      	216.57773      	216.53807      	216.52672      	216.52138      	216.564        	216.48825      	216.48528      	216.48192      	216.51057      	216.50185      	216.4726       	216.50565      	216.4909       	216.47876      	216.5112       	216.54085      	216.49742      	216.50389      	216.46509      	216.48576      	216.45999      	216.50177      	216.4805       	216.47662      	216.48009      	216.44835      	216.36598      	216.40204      	216.48378      	216.47345      	216.48158      	216.50691      	216.4835       	216.47733      	216.48282      	216.44078      	216.48927      	216.45207      	216.44203      	216.4627       	216.4492       	216.45149      	216.40224      	216.4301       	216.41902      	216.41222      	216.4487       	216.40356      	216.40164      	216.40918      	216.3912       	216.35205      	216.42548      	216.40558      	216.43407      	216.40152      	216.45029      	216.30043      	216.2984       	216.3308       	216.32652      	216.33705      	216.33008      	216.26593      	216.28842      	216.26398      	216.29514      	
216.2102       	216.18915      	216.21208      	216.19954      	216.16599      	216.17728      	216.17223      	216.12466      	216.12706      	216.16391      	216.17178      	216.16847      	216.15842      	216.15561      	216.15633      	216.12094      	216.11678      	216.17238      	216.16551      	216.1749       	216.1619       	216.13295      	216.1609       	216.1363       	216.15416      	216.11185      	216.12912      	216.1502       	216.00235      	216.10284      	216.16396      	216.10872      	216.15453      	216.12428      	216.10219      	216.10596      	216.09116      	216.1162       	216.17116      	216.12766      	216.13843      	216.16847      	216.10843      	216.15273      	216.15462      	216.1749       	216.1995       	216.12253      	216.16676      	216.16782      	216.11588      	216.17903      	216.14748      	216.17532      	216.15541      	216.16238      	216.12192      	216.13724      	216.08835      	215.91594      	215.99725      	216.18416      	216.16162      	216.18329      	216.19156      	216.1987       	216.18576      	216.17358      	216.16275      	216.13834      	216.1722       	216.11603      	216.17928      	216.16705      	216.18367      	216.23541      	216.1853       	216.20193      	216.15381      	216.13405      	216.15135      	216.13867      	216.11685      	216.13037      	216.16023      	216.1638       	216.1561       	216.16982      	216.1582       	216.034        	215.9436       	216.0998       	216.0936       	216.10419      	216.09595      	216.12857      	216.13069      	216.10257      	216.138        	216.12628      	
216.23346      	216.24542      	216.21698      	216.22778      	216.23714      	216.21832      	216.18593      	216.22084      	216.21361      	216.21597      	216.2079       	216.19122      	216.22282      	216.16147      	216.22089      	216.16243      	216.18987      	216.19412      	216.17358      	216.22765      	216.18658      	216.19409      	216.20581      	216.19217      	216.18799      	216.1867       	216.173        	216.18066      	216.01149      	216.12518      	216.15343      	216.14322      	216.14198      	216.16481      	216.1495       	216.15738      	216.19681      	216.17822      	216.19344      	216.19412      	216.17863      	216.18254      	216.19043      	216.1583       	216.17122      	216.18549      	216.19835      	216.17595      	216.17123      	216.2019       	216.18774      	216.17792      	216.18571      	216.19281      	216.20981      	216.17952      	216.20212      	216.1953       	216.18806      	216.07014      	216.10577      	216.24081      	216.26773      	216.24997      	216.25638      	216.23244      	216.24379      	216.22981      	216.22957      	216.19092      	216.23727      	216.27556      	216.23695      	216.19981      	216.22003      	216.24977      	216.21552      	216.20831      	216.2327       	216.25081      	216.24655      	216.24254      	216.24522      	216.26115      	216.22379      	216.22371      	216.2394       	216.22778      	216.25108      	216.17938      	216.10062      	216.21376      	216.19965      	216.21617      	216.21199      	216.22346      	216.19398      	216.20425      	216.22713      	216.22841      	
216.46576      	216.4691       	216.45802      	216.46649      	216.45529      	216.46687      	216.46124      	216.43588      	216.4948       	216.48549      	216.40553      	216.42348      	216.44547      	216.43558      	216.47276      	216.4704       	216.49055      	216.48643      	216.468        	216.46954      	216.46565      	216.46567      	216.4488       	216.46274      	216.4799       	216.46973      	216.45062      	216.48015      	216.2974       	216.4241       	216.45074      	216.42154      	216.46518      	216.42064      	216.42494      	216.43503      	216.41989      	216.43402      	216.42172      	216.4402       	216.44875      	216.43117      	216.45941      	216.44766      	216.47682      	216.46535      	216.4506       	216.47263      	216.4726       	216.47633      	216.47415      	216.44833      	216.48918      	216.49147      	216.4894       	216.47821      	216.51993      	216.53818      	216.4796       	216.38411      	216.58951      	216.6339       	216.63751      	216.57909      	216.59401      	216.55125      	216.57835      	216.56763      	216.55536      	216.57584      	216.56947      	216.57602      	216.5889       	216.57108      	216.56917      	216.56364      	216.55772      	216.61185      	216.6227       	216.59776      	216.622        	216.64357      	216.64137      	216.62312      	216.61945      	216.65614      	216.6614       	216.63199      	216.66054      	216.59349      	216.51018      	216.64037      	216.62831      	216.64871      	216.67996      	216.6367       	216.64674      	216.62923      	216.62108      	216.64444      	
217.35472      	217.34671      	217.35318      	217.35739      	217.36575      	217.3532       	217.38344      	217.36304      	217.39532      	217.38531      	217.3517       	217.37071      	217.37338      	217.37119      	217.3909       	217.39984      	217.38084      	217.39185      	217.4026       	217.41692      	217.40135      	217.47403      	217.43187      	217.42627      	217.40005      	217.43124      	217.47076      	217.46017      	217.28964      	217.44116      	217.4716       	217.46957      	217.48117      	217.4873       	217.45372      	217.46698      	217.43216      	217.52174      	217.52937      	217.50446      	217.54207      	217.58081      	217.53383      	217.55511      	217.56927      	217.56902      	217.58798      	217.54823      	217.55743      	217.58861      	217.59488      	217.58485      	217.61555      	217.60411      	217.61623      	217.57494      	217.65517      	217.6356       	217.62155      	217.52344      	217.49161      	217.68822      	217.69785      	217.69774      	217.7296       	217.72983      	217.73969      	217.74399      	217.73642      	217.7346       	217.78696      	217.79207      	217.75804      	217.76581      	217.77547      	217.78734      	217.7905       	217.76643      	217.79231      	217.74623      	217.76123      	217.78197      	217.78654      	217.80727      	217.8336       	217.81361      	217.8326       	217.79086      	217.83064      	217.84027      	217.78827      	217.78857      	217.7663       	217.74799      	217.76262      	217.78908      	217.81883      	217.79652      	217.7923       	217.78815      	
217.93997      	217.93532      	217.92368      	217.94742      	217.98135      	217.95534      	217.93471      	217.93335      	217.94205      	217.9213       	217.92711      	217.93709      	217.91838      	217.92003      	217.93422      	217.93861      	217.95619      	217.92017      	217.93236      	217.93295      	217.91965      	217.93303      	217.94504      	217.94293      	217.91898      	217.86862      	217.91798      	217.95035      	217.83823      	217.89166      	217.88086      	217.87889      	217.93446      	217.9213       	217.88463      	217.88965      	217.89342      	217.87428      	217.87436      	217.851        	217.86922      	217.8906       	217.8858       	217.88661      	217.86801      	217.85614      	217.87126      	217.8747       	217.8935       	217.87137      	217.89186      	217.87541      	217.84189      	217.82764      	217.87053      	217.88834      	217.86938      	217.884        	217.83653      	217.78932      	217.76556      	217.92535      	217.9418       	217.92342      	217.92523      	217.87384      	217.87921      	217.90355      	217.86081      	217.89264      	217.86963      	217.86551      	217.85808      	217.8887       	217.8777       	217.87816      	217.87646      	217.88379      	217.88095      	217.83253      	217.85619      	217.83382      	217.82631      	217.80849      	217.84972      	217.78087      	217.80704      	217.82156      	217.8063       	217.87766      	217.65894      	217.78583      	217.74332      	217.76193      	217.7442       	217.7922       	217.76747      	217.76065      	217.77542      	217.76207      	
217.59906      	217.5986       	217.56271      	217.55737      	217.56451      	217.57538      	217.57745      	217.55899      	217.55165      	217.58066      	217.58546      	217.58496      	217.56102      	217.5381       	217.51547      	217.5294       	217.50963      	217.51614      	217.51694      	217.58116      	217.58315      	217.53673      	217.52489      	217.55113      	217.51988      	217.50449      	217.536        	217.54178      	217.37088      	217.50644      	217.53065      	217.51747      	217.50795      	217.47806      	217.50902      	217.45815      	217.47382      	217.47527      	217.48325      	217.48009      	217.46574      	217.48062      	217.4678       	217.4598       	217.47235      	217.47723      	217.4695       	217.46323      	217.48853      	217.48907      	217.49658      	217.49997      	217.50171      	217.51492      	217.50952      	217.49602      	217.49341      	217.47948      	217.4973       	217.38297      	217.41898      	217.52002      	217.49953      	217.52435      	217.53963      	217.5165       	217.55772      	217.49983      	217.51492      	217.54196      	217.47621      	217.4656       	217.52745      	217.47615      	217.50815      	217.49252      	217.50162      	217.50316      	217.49         	217.4805       	217.49992      	217.4914       	217.45255      	217.47504      	217.47186      	217.50163      	217.47119      	217.47108      	217.42357      	217.45404      	217.27693      	217.39494      	217.386        	217.39641      	217.3849       	217.34055      	217.33669      	217.35512      	217.36531      	217.37988      	
217.14728      	217.15733      	217.13373      	217.14647      	217.1463       	217.1569       	217.11705      	217.11993      	217.13693      	217.14635      	217.11246      	217.13428      	217.08841      	217.09375      	217.11314      	217.09303      	217.09572      	217.07048      	217.13815      	217.10504      	217.12015      	217.10652      	217.12991      	217.10143      	217.10753      	217.12782      	217.13475      	217.14574      	217.06969      	217.1132       	217.09505      	217.1412       	217.1032       	217.14023      	217.12027      	217.10724      	217.09259      	217.08946      	217.05298      	217.0949       	217.08853      	217.07486      	217.09207      	217.06337      	217.09198      	217.06215      	217.06697      	217.09055      	217.06096      	217.1122       	217.08221      	217.08905      	217.06825      	217.06999      	217.10043      	217.08908      	217.0762       	217.08846      	217.0965       	216.93057      	216.95384      	217.09506      	217.10277      	217.15353      	217.13739      	217.14569      	217.12645      	217.1311       	217.11165      	217.1298       	217.15012      	217.1167       	217.08885      	217.0778       	217.04973      	217.07921      	217.0889       	217.11423      	217.07147      	217.09671      	217.07297      	217.10626      	217.05223      	217.09009      	217.0724       	217.08827      	217.10641      	217.08669      	217.0985       	217.0469       	216.89412      	217.0194       	217.03831      	217.06815      	217.04698      	217.00597      	217.01566      	217.01326      	217.01242      	217.0089       	
217.11722      	217.12564      	217.12419      	217.135        	217.13516      	217.13875      	217.12752      	217.13068      	217.14664      	217.12343      	217.10057      	217.1412       	217.12204      	217.13138      	217.12509      	217.1407       	217.15001      	217.1356       	217.14998      	217.10617      	217.15585      	217.14453      	217.11858      	217.16478      	217.13785      	217.17448      	217.21013      	217.20282      	216.98634      	217.15408      	217.15804      	217.14012      	217.13567      	217.1419       	217.15721      	217.15648      	217.17645      	217.12674      	217.15909      	217.1483       	217.1837       	217.22723      	217.16164      	217.18771      	217.17111      	217.20071      	217.19276      	217.21165      	217.17195      	217.17328      	217.18765      	217.19312      	217.21036      	217.1878       	217.17638      	217.17648      	217.1527       	217.18027      	217.12013      	217.0517       	217.10484      	217.19798      	217.20413      	217.16121      	217.17772      	217.18504      	217.19637      	217.17155      	217.21335      	217.1902       	217.1796       	217.20473      	217.181        	217.17526      	217.1835       	217.16635      	217.18797      	217.171        	217.20692      	217.21623      	217.21324      	217.18663      	217.2062       	217.205        	217.18141      	217.19182      	217.22948      	217.2497       	217.20753      	217.17677      	217.01187      	217.12857      	217.14902      	217.1407       	217.1054       	217.13219      	217.09103      	217.1213       	217.15152      	217.09662      	
217.35985      	217.33649      	217.34409      	217.34772      	217.33136      	217.32565      	217.32382      	217.32858      	217.33527      	217.3408       	217.31966      	217.30835      	217.3388       	217.33505      	217.34653      	217.33897      	217.32321      	217.35057      	217.35997      	217.37099      	217.33002      	217.32895      	217.3431       	217.3434       	217.33029      	217.3526       	217.35236      	217.37776      	217.17264      	217.31812      	217.34569      	217.34416      	217.32216      	217.31544      	217.34476      	217.34064      	217.33397      	217.35245      	217.35513      	217.36746      	217.3357       	217.36847      	217.36227      	217.34628      	217.35802      	217.34915      	217.34775      	217.34456      	217.34808      	217.36662      	217.37766      	217.37192      	217.38596      	217.38173      	217.33995      	217.36685      	217.39548      	217.39754      	217.41428      	217.27667      	217.26028      	217.39722      	217.41072      	217.44385      	217.43098      	217.41591      	217.4165       	217.4295       	217.424        	217.43652      	217.44508      	217.43515      	217.43236      	217.4466       	217.46149      	217.46725      	217.45334      	217.46439      	217.44075      	217.45589      	217.48859      	217.49342      	217.45563      	217.45184      	217.455        	217.47386      	217.50087      	217.52167      	217.48341      	217.41249      	217.23248      	217.40892      	217.4232       	217.41708      	217.42917      	217.423        	217.41193      	217.40126      	217.41574      	217.45883      	
217.54784      	217.54109      	217.51833      	217.53531      	217.53372      	217.49757      	217.51476      	217.5215       	217.53653      	217.49129      	217.51349      	217.51546      	217.49611      	217.52396      	217.50798      	217.48755      	217.50749      	217.51074      	217.48944      	217.48524      	217.47955      	217.46199      	217.43912      	217.47057      	217.46283      	217.47487      	217.46515      	217.48917      	217.34555      	217.39941      	217.42911      	217.42921      	217.43228      	217.4037       	217.43137      	217.41132      	217.39767      	217.45425      	217.42528      	217.4239       	217.44115      	217.40437      	217.41257      	217.4379       	217.41217      	217.44403      	217.4472       	217.40112      	217.44936      	217.48814      	217.42986      	217.46292      	217.43639      	217.44742      	217.46344      	217.42743      	217.43471      	217.44955      	217.44368      	217.2784       	217.31813      	217.48117      	217.47516      	217.44305      	217.47852      	217.46373      	217.464        	217.46451      	217.45355      	217.46443      	217.51147      	217.5375       	217.46886      	217.47455      	217.4763       	217.46828      	217.47447      	217.4741       	217.42978      	217.45221      	217.45595      	217.45482      	217.44618      	217.48561      	217.46661      	217.45314      	217.45102      	217.47794      	217.46393      	217.50798      	217.3071       	217.41483      	217.42372      	217.45091      	217.47014      	217.4848       	217.43338      	217.44736      	217.43765      	217.44554      	
217.5805       	217.59625      	217.58316      	217.58759      	217.58151      	217.56216      	217.58295      	217.56064      	217.55301      	217.55373      	217.53151      	217.563        	217.56697      	217.5443       	217.50537      	217.54092      	217.54688      	217.51984      	217.53136      	217.53036      	217.51053      	217.5331       	217.49722      	217.49652      	217.53818      	217.51744      	217.48708      	217.5502       	217.48563      	217.45558      	217.44989      	217.47995      	217.4898       	217.47998      	217.49675      	217.49619      	217.47893      	217.51929      	217.4555       	217.4961       	217.48009      	217.4614       	217.50418      	217.48502      	217.52808      	217.50293      	217.48622      	217.55322      	217.51872      	217.45442      	217.54176      	217.47691      	217.522        	217.56693      	217.5536       	217.5082       	217.51291      	217.50311      	217.45996      	217.3926       	217.34177      	217.51842      	217.54417      	217.5246       	217.5393       	217.57428      	217.55032      	217.56383      	217.57643      	217.62286      	217.58278      	217.60617      	217.58485      	217.57907      	217.57877      	217.5679       	217.58423      	217.55444      	217.55801      	217.56464      	217.58528      	217.56229      	217.56851      	217.5814       	217.5484       	217.57925      	217.5718       	217.60532      	217.57802      	217.63249      	217.38435      	217.54227      	217.56781      	217.54564      	217.54996      	217.53816      	217.5528       	217.54576      	217.57098      	217.50177      	
217.52228      	217.55109      	217.56616      	217.55038      	217.56558      	217.57509      	217.56247      	217.57861      	217.56415      	217.56055      	217.58852      	217.56589      	217.59041      	217.52484      	217.55695      	217.58005      	217.60286      	217.57397      	217.59544      	217.6152       	217.60837      	217.61179      	217.56871      	217.57445      	217.51985      	217.48755      	217.57452      	217.59595      	217.42986      	217.52817      	217.56227      	217.51678      	217.53787      	217.55965      	217.52391      	217.54112      	217.5364       	217.5557       	217.56316      	217.5626       	217.57422      	217.53268      	217.56517      	217.56918      	217.58466      	217.5243       	217.49124      	217.58958      	217.60709      	217.53485      	217.53746      	217.5908       	217.55197      	217.53014      	217.48138      	217.58862      	217.60057      	217.54633      	217.53874      	217.3898       	217.44876      	217.56175      	217.59247      	217.56747      	217.59166      	217.61537      	217.6212       	217.59897      	217.62794      	217.6452       	217.64903      	217.65527      	217.65082      	217.6464       	217.63704      	217.61345      	217.58932      	217.59221      	217.62572      	217.6537       	217.6072       	217.58626      	217.62616      	217.64658      	217.63477      	217.57437      	217.59007      	217.63914      	217.66559      	217.61057      	217.44888      	217.60818      	217.60497      	217.57944      	217.57327      	217.58156      	217.57953      	217.54596      	217.57433      	217.59595      	
217.77232      	217.76382      	217.74318      	217.75575      	217.76987      	217.74756      	217.76694      	217.76668      	217.77287      	217.76772      	217.77707      	217.77426      	217.80396      	217.81229      	217.80135      	217.77524      	217.76161      	217.76947      	217.76758      	217.77562      	217.78378      	217.78604      	217.77623      	217.79956      	217.80046      	217.80202      	217.81476      	217.79562      	217.75848      	217.74904      	217.77423      	217.7696       	217.77032      	217.78288      	217.77126      	217.75049      	217.80019      	217.80597      	217.76236      	217.7995       	217.79475      	217.7954       	217.80637      	217.79039      	217.81175      	217.8275       	217.8026       	217.7704       	217.79782      	217.78925      	217.79475      	217.78656      	217.78612      	217.80682      	217.81937      	217.79538      	217.8287       	217.79901      	217.78722      	217.61789      	217.6159       	217.76921      	217.81325      	217.83902      	217.83238      	217.82936      	217.86476      	217.81093      	217.81203      	217.84113      	217.79442      	217.85133      	217.88022      	217.84383      	217.87221      	217.86159      	217.85246      	217.85704      	217.83209      	217.85406      	217.83261      	217.86977      	217.88869      	217.87189      	217.89647      	217.85223      	217.86993      	217.87401      	217.87851      	217.83         	217.65195      	217.79367      	217.84114      	217.80379      	217.85114      	217.82565      	217.82314      	217.84709      	217.8102       	217.80103      	
217.74242      	217.75706      	217.75359      	217.75644      	217.75217      	217.72884      	217.7587       	217.76736      	217.75026      	217.72452      	217.70499      	217.70833      	217.704        	217.71976      	217.71533      	217.73007      	217.72885      	217.70361      	217.71751      	217.6888       	217.71878      	217.71103      	217.70285      	217.63623      	217.68048      	217.70215      	217.67142      	217.6987       	217.49136      	217.64679      	217.6802       	217.64192      	217.66238      	217.63034      	217.64825      	217.68077      	217.65814      	217.63951      	217.60684      	217.61638      	217.63843      	217.66971      	217.64862      	217.6482       	217.66203      	217.6487       	217.63078      	217.60556      	217.61864      	217.6008       	217.59557      	217.60802      	217.62323      	217.60652      	217.61807      	217.59926      	217.57602      	217.62836      	217.61423      	217.45824      	217.39503      	217.62616      	217.62915      	217.61374      	217.63882      	217.66006      	217.61539      	217.54712      	217.56534      	217.59323      	217.56859      	217.56813      	217.57623      	217.55307      	217.58865      	217.5498       	217.55011      	217.55496      	217.5399       	217.56102      	217.56065      	217.55061      	217.55035      	217.56241      	217.5235       	217.52573      	217.56651      	217.5743       	217.55154      	217.5434       	217.56842      	217.4716       	217.49818      	217.47299      	217.51971      	217.4909       	217.48096      	217.50006      	217.51236      	217.5301       	
217.43088      	217.41476      	217.38232      	217.40811      	217.39687      	217.36534      	217.33351      	217.3098       	217.29832      	217.32509      	217.38663      	217.3996       	217.3885       	217.40779      	217.37851      	217.40697      	217.4013       	217.39076      	217.41246      	217.3921       	217.3645       	217.38336      	217.38803      	217.40552      	217.35182      	217.34833      	217.36903      	217.41922      	217.22256      	217.34294      	217.38487      	217.37126      	217.38306      	217.38477      	217.41219      	217.33998      	217.40134      	217.39967      	217.39154      	217.38551      	217.35878      	217.3392       	217.34653      	217.35065      	217.34918      	217.31512      	217.33966      	217.31224      	217.33359      	217.31715      	217.34818      	217.34375      	217.34845      	217.32977      	217.31564      	217.3406       	217.35333      	217.3345       	217.33987      	217.22719      	217.19606      	217.33734      	217.36171      	217.34456      	217.36562      	217.36359      	217.31216      	217.35866      	217.34923      	217.34044      	217.36502      	217.3555       	217.3435       	217.33963      	217.35013      	217.35397      	217.34389      	217.33595      	217.34723      	217.3513       	217.33975      	217.34921      	217.34283      	217.38654      	217.37833      	217.34784      	217.33485      	217.37238      	217.35756      	217.31184      	217.24869      	217.27533      	217.3312       	217.36061      	217.3985       	217.3868       	217.39406      	217.36769      	217.3685       	217.35455      	
217.49542      	217.48776      	217.47311      	217.47272      	217.47488      	217.46208      	217.44188      	217.49649      	217.47949      	217.45895      	217.4982       	217.49275      	217.48314      	217.5025       	217.48856      	217.49545      	217.50969      	217.48618      	217.51923      	217.517        	217.51424      	217.51561      	217.50404      	217.50206      	217.55428      	217.50584      	217.49303      	217.50862      	217.38254      	217.4378       	217.45816      	217.4698       	217.47997      	217.48387      	217.48903      	217.48488      	217.52194      	217.53468      	217.5389       	217.53847      	217.51286      	217.51231      	217.49965      	217.50887      	217.50002      	217.47733      	217.56017      	217.55054      	217.53352      	217.5582       	217.56554      	217.5633       	217.56789      	217.57008      	217.56337      	217.55577      	217.53638      	217.55296      	217.56912      	217.42686      	217.38565      	217.53394      	217.56888      	217.5447       	217.56847      	217.57706      	217.58229      	217.6026       	217.60333      	217.61034      	217.60277      	217.6472       	217.6332       	217.652        	217.61464      	217.60231      	217.59879      	217.58466      	217.58731      	217.62115      	217.61646      	217.60422      	217.60573      	217.60594      	217.61719      	217.58925      	217.60477      	217.60002      	217.61232      	217.60083      	217.46053      	217.58977      	217.61472      	217.60782      	217.5807       	217.60146      	217.58241      	217.57007      	217.56378      	217.55026      	
217.9881       	218.0071       	218.01488      	218.00677      	218.04552      	218.05818      	218.02692      	218.0349       	218.03519      	218.06041      	218.03908      	218.03464      	218.03883      	218.06668      	218.08084      	218.06766      	218.06334      	218.06032      	218.04515      	218.03165      	218.02336      	218.04318      	218.00328      	218.01129      	218.06393      	218.03722      	218.0224       	218.09367      	217.92424      	218.04564      	218.04855      	218.03981      	218.05933      	218.0672       	218.06657      	218.07144      	218.0514       	218.06393      	218.06714      	218.06256      	218.11987      	218.12215      	218.10219      	218.10107      	218.10083      	218.11777      	218.13861      	218.11246      	218.11736      	218.11046      	218.15302      	218.13832      	218.13187      	218.10263      	218.1416       	218.1639       	218.1456       	218.16609      	218.1902       	218.109        	218.02158      	218.13728      	218.22281      	218.21272      	218.21802      	218.19772      	218.17822      	218.18915      	218.18579      	218.2333       	218.23297      	218.25555      	218.2435       	218.25478      	218.29027      	218.298        	218.312        	218.27644      	218.28494      	218.28639      	218.28148      	218.26337      	218.28177      	218.27615      	218.23387      	218.28622      	218.28117      	218.28922      	218.32346      	218.27406      	218.14934      	218.2177       	218.28241      	218.26395      	218.23422      	218.25763      	218.22621      	218.25278      	218.26468      	218.22122      	
218.29166      	218.2827       	218.25429      	218.2658       	218.30031      	218.3042       	218.2811       	218.284        	218.29913      	218.34511      	218.33746      	218.30876      	218.31522      	218.2984       	218.27948      	218.30598      	218.31305      	218.30325      	218.33218      	218.34256      	218.36554      	218.36075      	218.32913      	218.33423      	218.31519      	218.32806      	218.26326      	218.30011      	218.19466      	218.26202      	218.2765       	218.27939      	218.32236      	218.29701      	218.2991       	218.30103      	218.29892      	218.27402      	218.26303      	218.28906      	218.30022      	218.28566      	218.29153      	218.25975      	218.28009      	218.29677      	218.30266      	218.25473      	218.27751      	218.29356      	218.30598      	218.29831      	218.23372      	218.25293      	218.25882      	218.2505       	218.28082      	218.29466      	218.292        	218.17392      	218.17432      	218.2928       	218.265        	218.22855      	218.25784      	218.26373      	218.23161      	218.23001      	218.22057      	218.247        	218.24806      	218.25795      	218.21703      	218.17978      	218.21693      	218.23236      	218.24283      	218.2176       	218.27579      	218.23405      	218.24968      	218.2553       	218.2197       	218.22736      	218.21844      	218.1979       	218.19188      	218.22792      	218.16832      	218.19954      	218.0301       	218.15163      	218.18472      	218.20264      	218.22581      	218.23326      	218.2425       	218.16551      	218.16351      	218.17429      	
218.15921      	218.09473      	218.1386       	218.12929      	218.12177      	218.09766      	218.08743      	218.09291      	218.1013       	218.09279      	218.09882      	218.12296      	218.10579      	218.09927      	218.1205       	218.10094      	218.13036      	218.13585      	218.15009      	218.14728      	218.12575      	218.15009      	218.12712      	218.11093      	218.09422      	218.09052      	218.13734      	218.12083      	218.12102      	218.04558      	218.10236      	218.08487      	218.08331      	218.0806       	218.10945      	218.09122      	218.11328      	218.1026       	218.10675      	218.08234      	218.09068      	218.1219       	218.12201      	218.11928      	218.10936      	218.06485      	218.09988      	218.09232      	218.0875       	218.10446      	218.05472      	218.04738      	218.03969      	218.04565      	218.0622       	218.0578       	218.01758      	218.0756       	218.10468      	217.99376      	217.87825      	218.0617       	218.0867       	218.10883      	218.11224      	218.11491      	218.11688      	218.11111      	218.07845      	218.09372      	218.09962      	218.0595       	218.0784       	218.08868      	218.08487      	218.0878       	218.08603      	218.07487      	218.0721       	218.1097       	218.08934      	218.12148      	218.08391      	218.08109      	218.10126      	218.08836      	218.07883      	218.08266      	218.08524      	218.09293      	217.87758      	217.82437      	217.823        	217.79622      	217.85509      	217.90308      	217.93556      	217.88689      	217.9051       	217.9467       	
218.03546      	218.04251      	218.05315      	218.05368      	218.04427      	218.04843      	218.05263      	218.0403       	218.05333      	218.06592      	218.04207      	218.02533      	218.0421       	218.05626      	218.014        	218.04085      	218.034        	218.03441      	217.9999       	217.98953      	218.03712      	217.98708      	217.97972      	217.95525      	217.95395      	217.93556      	217.92366      	217.88466      	217.8549       	217.73868      	217.83652      	217.81525      	217.78777      	217.7432       	217.77905      	217.78917      	217.82718      	217.7225       	217.7864       	217.80338      	217.73492      	217.71315      	217.70337      	217.75464      	217.73679      	217.6817       	217.71356      	217.71158      	217.6974       	217.70644      	217.69574      	217.67578      	217.67299      	217.70583      	217.67926      	217.69064      	217.66902      	217.74962      	217.74457      	217.67937      	217.71645      	217.84164      	217.83781      	217.86356      	217.87791      	217.94417      	217.92613      	217.94164      	217.95888      	217.9155       	217.94954      	217.95094      	217.9192       	217.95628      	217.94662      	217.89624      	217.92764      	217.92953      	217.9006       	217.94101      	217.91861      	217.93085      	217.91583      	217.95253      	217.9376       	217.95432      	217.94003      	217.94875      	217.97678      	217.94069      	217.92433      	217.9764       	217.94821      	217.98068      	218.06375      	217.96864      	217.8471       	217.86761      	217.82732      	217.76144      	
218.03127      	218.01212      	218.04947      	218.04143      	218.0296       	218.03725      	218.04933      	218.06834      	218.0781       	218.09183      	218.09071      	218.07101      	218.0905       	218.111        	218.05632      	218.12228      	218.11664      	218.115        	218.11273      	218.08098      	218.13274      	218.12538      	218.1272       	218.12477      	218.12943      	218.12253      	218.12778      	218.17393      	218.12462      	218.14784      	218.11028      	218.09422      	218.18398      	218.20139      	218.23349      	218.27219      	218.0489       	218.21622      	218.09204      	218.10594      	218.19257      	218.22981      	218.27019      	218.2244       	218.23738      	218.22078      	218.25114      	218.29462      	218.2072       	218.26566      	218.23836      	218.25536      	218.25798      	218.26646      	218.26547      	218.22806      	218.24442      	218.2675       	218.24413      	218.27243      	218.2954       	218.26321      	218.25865      	218.24878      	218.17653      	218.26488      	218.26805      	218.30545      	218.29868      	218.29115      	218.28793      	218.30217      	218.31706      	218.33395      	218.27882      	218.3045       	218.30185      	218.28188      	218.31342      	218.31285      	218.31561      	218.31561      	218.34828      	218.3705       	218.3369       	218.35861      	218.31454      	218.32077      	218.32137      	218.30249      	218.30397      	218.31839      	218.33282      	218.32953      	218.33975      	218.35294      	218.40096      	218.21466      	218.13898      	218.17613      	
217.91356      	217.89714      	217.9275       	217.9372       	217.93604      	217.93112      	217.93187      	217.92923      	217.90875      	217.88478      	217.90356      	217.91136      	217.90292      	217.92284      	217.94766      	217.9239       	217.97577      	217.95554      	217.93523      	217.92213      	217.93153      	217.9015       	217.91469      	217.90482      	217.91373      	217.89095      	217.90671      	217.87039      	217.88292      	217.88705      	217.89523      	217.87631      	217.8329       	217.90529      	217.86305      	217.85875      	217.84093      	217.83406      	217.88544      	217.89548      	217.86859      	217.87039      	217.90227      	217.85881      	217.8561       	217.84122      	217.82928      	217.85216      	217.82942      	217.86688      	217.84938      	217.83792      	217.79913      	217.84561      	217.8439       	217.7903       	217.82005      	217.80453      	217.83424      	217.83719      	217.81479      	217.78336      	217.8185       	217.78082      	217.77078      	217.80307      	217.75179      	217.77393      	217.81306      	217.7814       	217.78084      	217.78157      	217.77525      	217.78683      	217.76683      	217.75856      	217.75406      	217.77205      	217.7216       	217.74602      	217.72517      	217.72621      	217.71185      	217.73851      	217.73883      	217.7216       	217.77077      	217.74634      	217.72845      	217.72902      	217.71742      	217.75034      	217.7285       	217.72609      	217.74977      	217.70978      	217.73228      	217.76414      	217.7525       	217.7296       	
217.96979      	217.9658       	217.97025      	217.98827      	218.00555      	217.99512      	217.97386      	218.00676      	218.01707      	218.01297      	218.01337      	218.03737      	218.06424      	218.04506      	218.03525      	218.05434      	218.04799      	218.02293      	217.9927       	217.99512      	218.00882      	218.00244      	217.99959      	218.00766      	218.00449      	218.03452      	217.98627      	218.00632      	218.02426      	218.05344      	218.03497      	218.02774      	218.03093      	218.03781      	218.05934      	218.03613      	218.03058      	218.03392      	218.04501      	218.07712      	218.02962      	218.0651       	218.0307       	218.04779      	218.02097      	218.0524       	218.03464      	218.05159      	218.04865      	218.03296      	218.08588      	218.08058      	218.08047      	218.06985      	218.0573       	218.08649      	218.07663      	218.07283      	218.07506      	218.0766       	218.05048      	218.11086      	218.11436      	218.1489       	218.14062      	218.10156      	218.09084      	218.07425      	218.08578      	218.09381      	218.11049      	218.10191      	218.10107      	218.11215      	218.1306       	218.12776      	218.08269      	218.11684      	218.10782      	218.0602       	218.07626      	218.09464      	218.08334      	218.07611      	218.05624      	218.05109      	218.06119      	218.11562      	218.12958      	218.06654      	218.11067      	218.09692      	218.12128      	218.12064      	218.10439      	218.12541      	218.15268      	218.16258      	218.16504      	218.18134      	
218.24854      	218.25366      	218.23866      	218.24055      	218.24303      	218.24599      	218.25975      	218.25214      	218.24278      	218.25594      	218.2665       	218.24554      	218.22496      	218.27924      	218.27661      	218.28125      	218.23969      	218.22618      	218.23639      	218.24942      	218.2414       	218.23909      	218.23038      	218.21198      	218.23178      	218.19357      	218.19237      	218.15944      	218.20505      	218.18845      	218.21573      	218.21738      	218.19118      	218.20132      	218.23184      	218.20908      	218.22025      	218.22137      	218.18468      	218.18018      	218.20612      	218.16989      	218.16449      	218.1591       	218.16483      	218.14366      	218.15298      	218.14728      	218.12094      	218.1329       	218.10286      	218.11911      	218.1395       	218.14575      	218.1485       	218.14171      	218.1614       	218.12971      	218.09921      	218.12975      	218.08434      	218.10468      	218.10907      	218.08781      	218.07477      	218.04884      	218.08578      	218.09596      	218.07362      	218.0834       	218.09337      	218.07838      	218.06747      	218.08156      	218.06082      	218.03424      	218.03296      	218.01775      	218.02179      	218.0267       	218.01001      	218.03983      	218.01784      	218.05118      	218.04721      	218.04051      	218.01584      	218.02704      	218.02188      	218.02287      	218.02907      	217.99924      	218.0307       	218.01236      	218.02464      	218.00496      	217.99469      	218.02528      	217.98329      	218.00473      	
217.8107       	217.8015       	217.79517      	217.7869       	217.79213      	217.80989      	217.80992      	217.81592      	217.78603      	217.78102      	217.77858      	217.78879      	217.8235       	217.75294      	217.75323      	217.77734      	217.75436      	217.7659       	217.75218      	217.7347       	217.73788      	217.74413      	217.71967      	217.74382      	217.71811      	217.72768      	217.73032      	217.72702      	217.74373      	217.76393      	217.72112      	217.72223      	217.73819      	217.70955      	217.7242       	217.72504      	217.71255      	217.72401      	217.69818      	217.67537      	217.68468      	217.71104      	217.73288      	217.70895      	217.75267      	217.68707      	217.7359       	217.73077      	217.75075      	217.75003      	217.70477      	217.70204      	217.70433      	217.70856      	217.71022      	217.72684      	217.69925      	217.67766      	217.71536      	217.72972      	217.7154       	217.72379      	217.67467      	217.68251      	217.65306      	217.65704      	217.65749      	217.65427      	217.62274      	217.62859      	217.61029      	217.62486      	217.6307       	217.62401      	217.61742      	217.61649      	217.63263      	217.5943       	217.61848      	217.60472      	217.58572      	217.61354      	217.61208      	217.609        	217.62367      	217.63776      	217.6401       	217.63727      	217.59212      	217.59929      	217.56529      	217.60338      	217.56786      	217.5698       	217.54149      	217.57167      	217.55093      	217.57338      	217.56541      	217.57224      	
217.19786      	217.19994      	217.2146       	217.2119       	217.20279      	217.19598      	217.18683      	217.15248      	217.15794      	217.12206      	217.13026      	217.19574      	217.22827      	217.167        	217.16156      	217.16151      	217.16283      	217.19078      	217.17992      	217.2176       	217.1817       	217.15237      	217.12943      	217.16193      	217.13095      	217.11469      	217.14977      	217.12672      	217.1203       	217.14052      	217.12901      	217.13597      	217.15137      	217.1492       	217.1348       	217.13368      	217.1211       	217.12558      	217.10316      	217.13118      	217.12668      	217.1472       	217.11632      	217.11061      	217.1256       	217.11769      	217.11191      	217.1199       	217.10562      	217.10132      	217.06271      	217.07878      	217.10587      	217.08463      	217.0853       	217.08124      	217.06754      	217.09561      	217.07489      	217.05681      	217.05788      	217.03174      	217.06808      	217.02773      	217.03458      	217.0589       	217.01297      	217.03493      	217.03049      	217.02231      	217.01144      	216.98915      	216.99023      	217.00673      	216.96848      	216.99527      	216.97052      	216.97694      	216.99545      	216.978        	216.97102      	216.96414      	216.98064      	217.01602      	216.98396      	216.99318      	216.99777      	216.98563      	216.97731      	216.98141      	216.98274      	216.99341      	217.00526      	216.98196      	216.96767      	216.93613      	216.95012      	216.97171      	216.93024      	216.9723       	
216.91623      	216.9348       	216.92555      	216.93156      	216.97357      	216.96973      	216.96552      	216.95607      	216.93137      	216.92766      	216.90991      	216.92319      	216.93915      	216.92584      	216.97125      	216.94855      	216.96857      	216.95651      	216.93774      	216.96542      	216.93436      	216.94193      	216.93118      	216.9642       	216.97939      	216.96745      	217.01437      	216.97916      	216.96143      	216.9589       	216.94778      	216.95029      	216.97916      	217.0233       	217.00551      	217.02798      	216.97008      	216.9889       	217.00635      	217.004        	217.00592      	216.96286      	216.97752      	216.99481      	216.96165      	216.96616      	216.98114      	216.99658      	216.99997      	216.95288      	216.96947      	216.96292      	216.95377      	216.97446      	216.9601       	216.97336      	216.9681       	216.9618       	216.99748      	216.98659      	217.02213      	217.01587      	216.98659      	216.98006      	216.96634      	216.99193      	217.01541      	216.96982      	217.01389      	216.98561      	216.97925      	217.00797      	217.03201      	216.99094      	216.96535      	216.9817       	216.9874       	216.95998      	216.99823      	216.99268      	217.04019      	217.00816      	216.98549      	217.0231       	217.0303       	216.99391      	217.04964      	217.00055      	216.99887      	217.01796      	216.97763      	217.00505      	217.00293      	216.99951      	216.99347      	217.00514      	216.98126      	217.00763      	216.98505      	216.99275      	
217.17195      	217.1902       	217.19563      	217.17543      	217.18129      	217.17082      	217.17242      	217.17662      	217.18904      	217.2005       	217.22452      	217.21127      	217.24342      	217.22467      	217.23502      	217.24728      	217.23447      	217.24918      	217.22621      	217.23236      	217.23883      	217.25137      	217.27911      	217.26198      	217.24323      	217.26085      	217.29866      	217.27664      	217.27736      	217.2844       	217.27853      	217.30637      	217.28888      	217.25583      	217.23811      	217.26122      	217.26451      	217.26678      	217.2709       	217.25076      	217.27536      	217.25632      	217.28001      	217.2739       	217.2737       	217.24757      	217.28174      	217.30754      	217.26807      	217.294        	217.32568      	217.27228      	217.28798      	217.27156      	217.27667      	217.24626      	217.25887      	217.25272      	217.25171      	217.31404      	217.23375      	217.2745       	217.26749      	217.2692       	217.26138      	217.27203      	217.27843      	217.25         	217.30467      	217.2886       	217.27489      	217.28123      	217.26698      	217.24829      	217.29883      	217.2545       	217.26138      	217.26807      	217.287        	217.2949       	217.2777       	217.262        	217.2922       	217.30565      	217.31184      	217.26027      	217.27092      	217.28505      	217.26872      	217.2994       	217.33911      	217.31558      	217.29901      	217.28522      	217.31363      	217.30128      	217.28929      	217.27954      	217.31027      	217.3277       	
217.4479       	217.46559      	217.45328      	217.44179      	217.44247      	217.44696      	217.4487       	217.4542       	217.47401      	217.47328      	217.46574      	217.46625      	217.45555      	217.42953      	217.45636      	217.43642      	217.48097      	217.42677      	217.40782      	217.41139      	217.4223       	217.44815      	217.43962      	217.45416      	217.43524      	217.42952      	217.45126      	217.44124      	217.45872      	217.40831      	217.40381      	217.47813      	217.45323      	217.44312      	217.41405      	217.4241       	217.43507      	217.45082      	217.46278      	217.46443      	217.4733       	217.45639      	217.44254      	217.452        	217.4555       	217.44601      	217.42848      	217.40706      	217.41574      	217.4492       	217.43523      	217.44566      	217.48064      	217.47092      	217.4619       	217.48306      	217.47641      	217.46223      	217.45445      	217.46376      	217.45932      	217.45815      	217.44675      	217.44594      	217.46638      	217.46495      	217.48318      	217.46727      	217.44264      	217.45107      	217.4549       	217.44823      	217.49065      	217.50047      	217.5121       	217.54428      	217.50317      	217.49777      	217.50165      	217.51288      	217.51138      	217.53163      	217.54079      	217.50487      	217.54558      	217.544        	217.56134      	217.53416      	217.5248       	217.5382       	217.54224      	217.55515      	217.55089      	217.53546      	217.52367      	217.56908      	217.54564      	217.5231       	217.53522      	217.56462      	
217.64243      	217.65414      	217.65948      	217.65805      	217.69632      	217.68686      	217.6304       	217.65013      	217.6635       	217.65208      	217.65787      	217.68011      	217.6442       	217.65427      	217.66283      	217.63997      	217.6433       	217.68016      	217.64801      	217.6714       	217.67         	217.6496       	217.65993      	217.69719      	217.66335      	217.67308      	217.6849       	217.67038      	217.65869      	217.66176      	217.64857      	217.68806      	217.65453      	217.69447      	217.68434      	217.67746      	217.70424      	217.65495      	217.6901       	217.64207      	217.67203      	217.65625      	217.68106      	217.70746      	217.72957      	217.77069      	217.7023       	217.73639      	217.7556       	217.74202      	217.72908      	217.7269       	217.6605       	217.70044      	217.70522      	217.68338      	217.70737      	217.68724      	217.68039      	217.71039      	217.71205      	217.72876      	217.68753      	217.70445      	217.69493      	217.73631      	217.71503      	217.72778      	217.75648      	217.74872      	217.73898      	217.73485      	217.73454      	217.77853      	217.75227      	217.77621      	217.75237      	217.74184      	217.6968       	217.68097      	217.71086      	217.70143      	217.71487      	217.70085      	217.7159       	217.71384      	217.70096      	217.74031      	217.7452       	217.72305      	217.70613      	217.6901       	217.75407      	217.75888      	217.72394      	217.71085      	217.76486      	217.74733      	217.74286      	217.7571       	
217.95193      	217.95892      	217.98941      	217.98294      	217.96523      	218.00006      	217.98389      	218.02393      	217.95746      	217.95264      	217.99484      	217.98576      	218.0311       	218.01076      	217.96739      	218.01085      	217.98123      	218.04303      	218.01915      	218.00554      	217.97804      	218.00938      	217.99454      	217.99435      	218.05426      	218.01895      	217.99161      	218.04454      	218.0253       	218.04126      	218.0362       	218.07904      	218.07918      	218.05159      	218.08432      	218.04744      	218.0507       	218.04305      	218.08592      	218.07576      	218.05582      	218.0747       	218.0683       	218.06226      	218.0408       	218.08292      	218.09367      	218.0795       	218.0655       	218.05174      	218.06836      	218.1091       	218.0944       	218.09511      	218.083        	218.11957      	218.08624      	218.11711      	218.10612      	218.1211       	218.09189      	218.0989       	218.12866      	218.12346      	218.10416      	218.11758      	218.10753      	218.12436      	218.12474      	218.13646      	218.16222      	218.13159      	218.15422      	218.15663      	218.19235      	218.16342      	218.15817      	218.20319      	218.18118      	218.18776      	218.21452      	218.20557      	218.23277      	218.24022      	218.23972      	218.24088      	218.26389      	218.24007      	218.26544      	218.26367      	218.27156      	218.27591      	218.2924       	218.3134       	218.3205       	218.33         	218.28937      	218.2672       	218.3326       	218.31683      	
218.67113      	218.65796      	218.68817      	218.69298      	218.71022      	218.69908      	218.64903      	218.68527      	218.69798      	218.70929      	218.69078      	218.705        	218.70462      	218.71939      	218.73703      	218.75162      	218.74527      	218.73811      	218.7257       	218.73055      	218.7242       	218.73601      	218.74588      	218.75204      	218.73932      	218.73828      	218.75197      	218.76723      	218.74892      	218.75711      	218.76173      	218.76039      	218.76886      	218.75487      	218.79045      	218.8015       	218.79723      	218.78896      	218.82799      	218.80724      	218.80472      	218.81467      	218.81442      	218.83607      	218.84772      	218.81674      	218.84189      	218.88333      	218.8815       	218.86443      	218.89821      	218.87883      	218.90028      	218.88756      	218.9147       	218.93126      	218.89955      	218.93724      	218.89769      	218.98283      	218.9496       	218.97899      	218.95956      	218.96365      	218.9992       	218.9758       	218.95882      	219.00279      	218.99716      	218.9782       	219.00705      	219.01833      	219.00307      	219.03719      	219.00873      	219.03603      	219.00949      	219.03134      	219.01332      	219.01294      	219.03754      	219.00684      	219.00853      	218.99786      	219.01617      	219.00604      	219.03351      	219.04489      	219.0935       	219.07863      	219.05124      	219.04361      	219.04672      	219.06885      	219.04916      	219.05084      	219.05238      	219.06569      	219.09291      	219.11024      	
219.1216       	219.14157      	219.14882      	219.14735      	219.13861      	219.14902      	219.14561      	219.14255      	219.1515       	219.15475      	219.16699      	219.18614      	219.19907      	219.15424      	219.15349      	219.17796      	219.17456      	219.1959       	219.1509       	219.14752      	219.13687      	219.12668      	219.1421       	219.11957      	219.13771      	219.13222      	219.15512      	219.14941      	219.16716      	219.1355       	219.17096      	219.1773       	219.16422      	219.13173      	219.14052      	219.16057      	219.15652      	219.16074      	219.18246      	219.1779       	219.15018      	219.1238       	219.14925      	219.15317      	219.1931       	219.19264      	219.19661      	219.1876       	219.12044      	219.16559      	219.15773      	219.11717      	219.16525      	219.14284      	219.10382      	219.14035      	219.14603      	219.13557      	219.10757      	219.12955      	219.11522      	219.12628      	219.12361      	219.13705      	219.11385      	219.1285       	219.14833      	219.11862      	219.14755      	219.12852      	219.13144      	219.11354      	219.13864      	219.166        	219.15611      	219.14632      	219.1085       	219.14874      	219.12825      	219.1543       	219.14093      	219.10556      	219.11505      	219.11827      	219.16013      	219.15543      	219.11786      	219.13257      	219.14845      	219.19334      	219.14223      	219.15814      	219.14615      	219.11081      	219.11986      	219.11987      	219.14366      	219.14583      	219.12727      	219.1591       	
218.8718       	218.83078      	218.8147       	218.82674      	218.85062      	218.88121      	218.90488      	218.8806       	218.88048      	218.89194      	218.9119       	218.95804      	218.94681      	218.97151      	218.9498       	218.93073      	218.93741      	218.90926      	218.91995      	218.91356      	218.95212      	218.96552      	218.89957      	218.93018      	218.92407      	218.95645      	218.97179      	218.97495      	218.9607       	218.94939      	218.98001      	218.93361      	218.88947      	218.91277      	218.91458      	218.96764      	218.89589      	218.89917      	218.8946       	218.89502      	218.8797       	218.90364      	218.88565      	218.88792      	218.89746      	218.88449      	218.85426      	218.83615      	218.86597      	218.84103      	218.83824      	218.8334       	218.8148       	218.80333      	218.79391      	218.82297      	218.81674      	218.82213      	218.79135      	218.78973      	218.7129       	218.74362      	218.7776       	218.79489      	218.75839      	218.74023      	218.74         	218.76187      	218.72914      	218.72714      	218.73483      	218.69238      	218.7195       	218.74445      	218.714        	218.72816      	218.71892      	218.72795      	218.75146      	218.71077      	218.74487      	218.67068      	218.69588      	218.66301      	218.65823      	218.67487      	218.70052      	218.72858      	218.73431      	218.71631      	218.70139      	218.69171      	218.69287      	218.6754       	218.65196      	218.70401      	218.67673      	218.68271      	218.6447       	218.6469       	
218.31398      	218.31493      	218.32326      	218.34543      	218.35716      	218.32658      	218.35013      	218.37367      	218.3306       	218.34503      	218.34698      	218.32503      	218.3179       	218.28082      	218.30423      	218.28769      	218.31699      	218.31201      	218.27173      	218.29443      	218.31802      	218.2933       	218.32072      	218.30118      	218.30411      	218.294        	218.32587      	218.32127      	218.28848      	218.29636      	218.31137      	218.29013      	218.27171      	218.2963       	218.28035      	218.28348      	218.2741       	218.2714       	218.29192      	218.27737      	218.26723      	218.28197      	218.30484      	218.33775      	218.3021       	218.24544      	218.2767       	218.26088      	218.28752      	218.28816      	218.28342      	218.28427      	218.327        	218.28452      	218.2956       	218.2783       	218.29437      	218.25723      	218.27121      	218.2975       	218.28033      	218.29573      	218.29482      	218.29468      	218.30907      	218.32726      	218.32864      	218.35735      	218.34378      	218.3465       	218.32127      	218.34357      	218.33487      	218.33693      	218.34918      	218.32755      	218.33551      	218.33318      	218.30678      	218.32764      	218.33554      	218.37265      	218.3718       	218.40591      	218.35684      	218.40862      	218.39859      	218.3768       	218.36407      	218.40346      	218.46255      	218.41219      	218.44678      	218.39674      	218.45323      	218.50774      	218.4752       	218.44518      	218.40926      	218.39975      	
217.52927      	217.49338      	217.48114      	217.46535      	217.4527       	217.46574      	217.48434      	217.5436       	217.53339      	217.54697      	217.55484      	217.56187      	217.5842       	217.56053      	217.50803      	217.48769      	217.56949      	217.54411      	217.53564      	217.5568       	217.52904      	217.56139      	217.56361      	217.55754      	217.60458      	217.5923       	217.58461      	217.59348      	217.60956      	217.58803      	217.58879      	217.56096      	217.59871      	217.63148      	217.58432      	217.60422      	217.57503      	217.58597      	217.63377      	217.64069      	217.6378       	217.61353      	217.6565       	217.61702      	217.64803      	217.67438      	217.64722      	217.625        	217.61491      	217.64845      	217.67502      	217.6736       	217.65504      	217.6515       	217.68448      	217.70891      	217.70445      	217.68788      	217.71703      	217.66585      	217.71828      	217.72621      	217.73776      	217.70529      	217.69978      	217.74078      	217.75829      	217.71921      	217.73099      	217.71623      	217.7388       	217.74733      	217.75645      	217.67601      	217.70743      	217.74602      	217.78093      	217.77365      	217.7463       	217.7214       	217.7313       	217.78166      	217.7861       	217.78342      	217.76305      	217.79533      	217.78888      	217.77669      	217.78319      	217.7914       	217.79918      	217.77637      	217.7793       	217.80763      	217.81366      	217.79332      	217.84567      	217.82611      	217.84122      	217.8494       	
217.70581      	217.68776      	217.68646      	217.67528      	217.6821       	217.69388      	217.69182      	217.65186      	217.65013      	217.60254      	217.60197      	217.62286      	217.64584      	217.60155      	217.56956      	217.56949      	217.5475       	217.52724      	217.54395      	217.53836      	217.53847      	217.50423      	217.48904      	217.50272      	217.47404      	217.49013      	217.4874       	217.52675      	217.4724       	217.49927      	217.51471      	217.48453      	217.48322      	217.47963      	217.48607      	217.5232       	217.48308      	217.48242      	217.4751       	217.48424      	217.48508      	217.49608      	217.47705      	217.45763      	217.4632       	217.47958      	217.47583      	217.49268      	217.51163      	217.4807       	217.49884      	217.51822      	217.5255       	217.54147      	217.54294      	217.52971      	217.55736      	217.544        	217.544        	217.54774      	217.54729      	217.55878      	217.59845      	217.58667      	217.55011      	217.57693      	217.58636      	217.59818      	217.6049       	217.58295      	217.60558      	217.6285       	217.61313      	217.63272      	217.61758      	217.6373       	217.68483      	217.6649       	217.66373      	217.66911      	217.67072      	217.66232      	217.65323      	217.71317      	217.7182       	217.78246      	217.74974      	217.75446      	217.75168      	217.77884      	217.801        	217.78217      	217.78052      	217.81062      	217.80069      	217.808        	217.79987      	217.81241      	217.81935      	217.80241      	
218.03937      	218.06128      	218.03378      	218.05377      	218.08235      	218.08351      	218.0748       	218.09976      	218.1129       	218.08914      	218.15395      	218.16074      	218.13014      	218.1616       	218.15482      	218.16898      	218.18985      	218.18367      	218.1967       	218.1931       	218.20784      	218.27481      	218.26764      	218.2294       	218.24313      	218.28937      	218.3008       	218.31575      	218.32903      	218.31715      	218.34904      	218.3804       	218.37468      	218.39427      	218.42226      	218.43094      	218.45103      	218.40413      	218.4546       	218.48285      	218.47658      	218.47232      	218.47185      	218.53891      	218.50488      	218.51741      	218.52194      	218.52255      	218.60587      	218.53848      	218.55492      	218.50687      	218.55348      	218.56215      	218.54398      	218.55942      	218.5669       	218.61847      	218.58112      	218.61102      	218.60399      	218.58977      	218.59348      	218.6167       	218.63785      	218.60802      	218.59975      	218.6041       	218.58542      	218.62173      	218.61862      	218.61302      	218.62796      	218.59554      	218.66243      	218.6343       	218.60428      	218.6122       	218.58865      	218.59616      	218.58109      	218.59897      	218.58157      	218.58131      	218.5879       	218.57506      	218.5674       	218.62027      	218.55954      	218.56764      	218.57394      	218.56369      	218.51395      	218.56662      	218.56691      	218.55667      	218.528        	218.55273      	218.56058      	218.52664      	
218.59839      	218.60118      	218.564        	218.57419      	218.60329      	218.567        	218.56467      	218.58774      	218.5881       	218.55545      	218.55956      	218.57042      	218.6193       	218.57799      	218.57365      	218.54118      	218.55885      	218.56223      	218.57835      	218.56476      	218.55028      	218.57307      	218.5787       	218.62305      	218.60101      	218.58774      	218.59409      	218.60622      	218.62051      	218.62207      	218.61655      	218.58234      	218.60237      	218.6767       	218.61824      	218.62346      	218.6141       	218.59863      	218.61429      	218.62866      	218.65573      	218.63094      	218.66864      	218.65321      	218.6433       	218.65398      	218.61374      	218.66693      	218.67897      	218.6673       	218.66452      	218.6904       	218.70038      	218.66122      	218.64561      	218.62991      	218.6437       	218.64851      	218.6435       	218.64325      	218.63258      	218.62808      	218.60599      	218.59071      	218.5987       	218.6329       	218.63182      	218.62769      	218.61855      	218.59625      	218.60207      	218.61024      	218.6276       	218.60208      	218.62483      	218.63943      	218.60866      	218.61266      	218.62401      	218.60863      	218.63818      	218.62477      	218.61728      	218.60492      	218.61075      	218.59064      	218.6382       	218.6148       	218.62038      	218.60262      	218.62747      	218.62665      	218.62303      	218.61775      	218.63051      	218.65398      	218.6452       	218.62396      	218.58658      	218.62755      	
218.70303      	218.68777      	218.7098       	218.7181       	218.71579      	218.69434      	218.68222      	218.68134      	218.68204      	218.6756       	218.67331      	218.68066      	218.70682      	218.7093       	218.65764      	218.67453      	218.66489      	218.65315      	218.66803      	218.63493      	218.67146      	218.65308      	218.65909      	218.63763      	218.61852      	218.6703       	218.64798      	218.63199      	218.64551      	218.61044      	218.6586       	218.65274      	218.66098      	218.62657      	218.64699      	218.6084       	218.64615      	218.66576      	218.6424       	218.64731      	218.59044      	218.60547      	218.63135      	218.59772      	218.64334      	218.61554      	218.59677      	218.65118      	218.64014      	218.63475      	218.63625      	218.59991      	218.61775      	218.6381       	218.63783      	218.63437      	218.67366      	218.66647      	218.64996      	218.63382      	218.66591      	218.63411      	218.62743      	218.61972      	218.64662      	218.64264      	218.63231      	218.63864      	218.67226      	218.64265      	218.63828      	218.60979      	218.60455      	218.62819      	218.60692      	218.57143      	218.59274      	218.59634      	218.58055      	218.60843      	218.56361      	218.58755      	218.60643      	218.6028       	218.57587      	218.5817       	218.58014      	218.60963      	218.60338      	218.57716      	218.6045       	218.57484      	218.56828      	218.54608      	218.56473      	218.57645      	218.53662      	218.55353      	218.53087      	218.54759      	
218.46086      	218.45082      	218.46396      	218.44734      	218.43997      	218.44214      	218.47723      	218.4735       	218.47548      	218.49908      	218.49188      	218.50839      	218.50775      	218.4889       	218.48488      	218.50058      	218.49382      	218.51031      	218.47052      	218.48448      	218.53636      	218.51437      	218.5355       	218.47249      	218.47487      	218.47862      	218.47887      	218.48584      	218.4948       	218.49103      	218.45486      	218.45969      	218.48772      	218.52669      	218.54254      	218.42694      	218.42719      	218.42355      	218.44499      	218.42499      	218.43272      	218.40984      	218.40643      	218.43158      	218.41547      	218.40388      	218.43001      	218.46544      	218.46658      	218.46387      	218.45876      	218.44757      	218.43636      	218.44247      	218.43338      	218.45256      	218.4474       	218.4721       	218.43214      	218.43674      	218.42749      	218.42644      	218.44879      	218.42511      	218.45506      	218.44888      	218.47401      	218.4126       	218.44301      	218.4372       	218.41974      	218.45218      	218.37904      	218.35349      	218.37442      	218.33727      	218.36188      	218.32997      	218.36412      	218.35753      	218.36848      	218.35577      	218.33594      	218.35678      	218.33192      	218.34743      	218.31573      	218.32652      	218.31696      	218.28662      	218.34026      	218.30478      	218.31787      	218.2855       	218.28394      	218.28786      	218.27846      	218.27693      	218.30829      	218.25578      	
218.01031      	218.00748      	218.00662      	218.00217      	218.00098      	217.98293      	218.01491      	218.02296      	217.9994       	217.98204      	218.00237      	217.95963      	217.96117      	217.9519       	217.97112      	217.97878      	217.95584      	217.95375      	217.93205      	217.91798      	217.92654      	217.97234      	217.98932      	217.94676      	217.9444       	217.94821      	217.93192      	217.90904      	217.91016      	217.89413      	217.91678      	217.88794      	217.92697      	217.91626      	217.9112       	217.91594      	217.91846      	217.90503      	217.92247      	217.89255      	217.86203      	217.87929      	217.89748      	217.86139      	217.86977      	217.87657      	217.89578      	217.87784      	217.90074      	217.90782      	217.88853      	217.88016      	217.88344      	217.88698      	217.89268      	217.87685      	217.86082      	217.86937      	217.86754      	217.87479      	217.85312      	217.8989       	217.89412      	217.83876      	217.84074      	217.83945      	217.81804      	217.84706      	217.8247       	217.83649      	217.81717      	217.86115      	217.85194      	217.81741      	217.80789      	217.83994      	217.79213      	217.80702      	217.80374      	217.83258      	217.88275      	217.85956      	217.9286       	217.84857      	217.79085      	217.79248      	217.76205      	217.79477      	217.77567      	217.76622      	217.76634      	217.76012      	217.75877      	217.77411      	217.73695      	217.80617      	217.81883      	217.7609       	217.74489      	217.73497      	
218.16019      	218.17633      	218.17986      	218.17221      	218.17448      	218.18866      	218.20375      	218.21783      	218.2057       	218.23503      	218.27643      	218.2556       	218.2093       	218.22177      	218.25243      	218.25668      	218.28714      	218.25755      	218.21657      	218.26874      	218.23415      	218.24551      	218.26408      	218.25821      	218.27664      	218.27718      	218.30722      	218.31396      	218.31546      	218.33894      	218.32103      	218.36862      	218.35907      	218.36542      	218.40892      	218.38768      	218.38817      	218.39803      	218.42532      	218.43163      	218.45847      	218.4277       	218.4437       	218.44916      	218.47778      	218.50185      	218.50502      	218.51205      	218.5197       	218.52557      	218.54774      	218.40184      	218.51538      	218.53844      	218.58627      	218.70264      	218.81212      	218.74208      	218.62357      	218.63922      	218.64836      	218.63435      	218.6657       	218.65424      	218.66553      	218.66002      	218.67421      	218.66797      	218.69528      	218.70726      	218.70778      	218.7256       	218.768        	218.74854      	218.75201      	218.78433      	218.78873      	218.793        	218.79405      	218.78519      	218.81934      	218.81015      	218.82837      	218.80971      	218.81421      	218.8207       	218.84564      	218.84138      	218.8142       	218.8301       	218.80574      	218.8584       	218.88094      	218.85362      	218.8819       	218.85345      	218.86583      	218.86449      	218.87112      	218.88588      	
219.5734       	219.56749      	219.58815      	219.58409      	219.61948      	219.59668      	219.59723      	219.60432      	219.61452      	219.63962      	219.66608      	219.66064      	219.64923      	219.69196      	219.68045      	219.70486      	219.69066      	219.66408      	219.71698      	219.69843      	219.68521      	219.67906      	219.68222      	219.66074      	219.67795      	219.71967      	219.71669      	219.73749      	219.73538      	219.71007      	219.73428      	219.75438      	219.73993      	219.74408      	219.75868      	219.74161      	219.75522      	219.7455       	219.76471      	219.76457      	219.75436      	219.80638      	219.78174      	219.77357      	219.78867      	219.76808      	219.78822      	219.78665      	219.78133      	219.78355      	219.80551      	219.79893      	219.7588       	219.82358      	219.80186      	219.83669      	219.8279       	219.8256       	219.83751      	219.81668      	219.8493       	219.82642      	219.82956      	219.8648       	219.84633      	219.84903      	219.83968      	219.88309      	219.84782      	219.8638       	219.84642      	219.9          	219.87221      	219.8589       	219.88168      	219.85661      	219.89609      	219.8915       	219.88998      	219.90213      	219.88658      	219.8991       	219.88815      	219.8932       	219.88602      	219.89485      	219.90013      	219.90584      	219.90627      	219.89543      	219.91612      	219.91794      	219.86937      	219.86864      	219.89078      	219.8745       	219.8668       	219.87839      	219.83554      	219.8667       	
219.74634      	219.73854      	219.75513      	219.77037      	219.77376      	219.73967      	219.79092      	219.80069      	219.76862      	219.77338      	219.79831      	219.77368      	219.76262      	219.80914      	219.78226      	219.77814      	219.77318      	219.75229      	219.77773      	219.78705      	219.78146      	219.76259      	219.77327      	219.76688      	219.77856      	219.7618       	219.75941      	219.77243      	219.77113      	219.76321      	219.78026      	219.76942      	219.77298      	219.7746       	219.78175      	219.77962      	219.78726      	219.75905      	219.70428      	219.77232      	219.78313      	219.77724      	219.72609      	219.75023      	219.7689       	219.74518      	219.72664      	219.74797      	219.74097      	219.76457      	219.75269      	219.74652      	219.74788      	219.74619      	219.72841      	219.73468      	219.73856      	219.78354      	219.76173      	219.76865      	219.74756      	219.74146      	219.76491      	219.77995      	219.77481      	219.7801       	219.7427       	219.76935      	219.73956      	219.74876      	219.69345      	219.68068      	219.72844      	219.74208      	219.68576      	219.66864      	219.69188      	219.68018      	219.6415       	219.6725       	219.67532      	219.71124      	219.64203      	219.68268      	219.66237      	219.62889      	219.63466      	219.62071      	219.61928      	219.59218      	219.65448      	219.63103      	219.61084      	219.6041       	219.62125      	219.58922      	219.59059      	219.59294      	219.59616      	219.61667      	
219.3836       	219.35643      	219.3842       	219.40494      	219.38914      	219.38449      	219.35483      	219.37401      	219.36057      	219.34239      	219.35995      	219.3064       	219.32642      	219.33527      	219.2862       	219.30574      	219.32951      	219.35873      	219.33063      	219.32057      	219.3195       	219.31915      	219.34863      	219.29755      	219.32425      	219.31117      	219.29193      	219.32843      	219.31761      	219.28394      	219.29103      	219.30197      	219.30525      	219.30724      	219.31516      	219.29778      	219.31746      	219.30705      	219.28732      	219.31174      	219.2802       	219.26248      	219.26024      	219.28636      	219.27658      	219.27449      	219.23111      	219.21242      	219.23398      	219.25192      	219.25304      	219.21184      	219.2479       	219.23685      	219.2599       	219.27214      	219.24611      	219.23267      	219.26198      	219.24406      	219.21361      	219.23822      	219.22202      	219.2487       	219.22939      	219.21278      	219.22897      	219.19873      	219.16957      	219.19154      	219.16502      	219.1664       	219.12155      	219.15146      	219.18033      	219.15071      	219.16106      	219.1362       	219.118        	219.16449      	219.17035      	219.14247      	219.13898      	219.10838      	219.1242       	219.1454       	219.11806      	219.10524      	219.08607      	219.1057       	219.09373      	219.08534      	219.09253      	219.05507      	219.07552      	219.06944      	219.08893      	219.10504      	219.03616      	219.06288      	
218.78491      	218.75839      	218.7999       	218.79002      	218.75325      	218.76521      	218.76608      	218.75514      	218.77567      	218.75812      	218.73364      	218.76353      	218.79413      	218.76877      	218.72797      	218.7003       	218.73334      	218.69725      	218.72195      	218.73561      	218.73717      	218.72829      	218.71754      	218.72998      	218.69193      	218.70459      	218.71956      	218.67813      	218.67836      	218.71779      	218.71329      	218.69482      	218.71886      	218.71979      	218.74626      	218.7484       	218.70898      	218.7709       	218.78844      	218.76318      	218.75055      	218.71729      	218.67792      	218.71059      	218.68369      	218.68214      	218.69449      	218.67195      	218.69174      	218.69977      	218.67819      	218.70302      	218.68663      	218.68275      	218.67743      	218.68823      	218.69522      	218.73146      	218.68756      	218.70549      	218.68105      	218.70729      	218.70181      	218.68384      	218.7077       	218.71095      	218.71872      	218.70135      	218.73439      	218.7182       	218.71631      	218.67433      	218.68123      	218.68333      	218.68181      	218.6426       	218.66165      	218.65999      	218.65457      	218.67345      	218.67953      	218.66267      	218.67195      	218.65555      	218.65486      	218.6543       	218.6723       	218.65912      	218.65479      	218.65453      	218.66498      	218.65494      	218.68251      	218.69814      	218.68326      	218.62929      	218.57355      	218.61256      	218.59251      	218.79616      	
218.6977       	218.69464      	218.67114      	218.66647      	218.68938      	218.6932       	218.6989       	218.6841       	218.67424      	218.6622       	218.65631      	218.70964      	218.66887      	218.72536      	218.70442      	218.70456      	218.69481      	218.69469      	218.6788       	218.69385      	218.70393      	218.73357      	218.76717      	218.73477      	218.72575      	218.70222      	218.70218      	218.70734      	218.73708      	218.72972      	218.74132      	218.73827      	218.69513      	218.7303       	218.74942      	218.73918      	218.75641      	218.78351      	218.77676      	218.80493      	218.78027      	218.79135      	218.83698      	218.83034      	218.75659      	218.8392       	218.8473       	218.82625      	218.8041       	218.82303      	218.78754      	218.80028      	218.78033      	218.77895      	218.83653      	218.82486      	218.80235      	218.8227       	218.84247      	218.91106      	218.88084      	218.82585      	218.8238       	218.82278      	218.82489      	218.82668      	218.79807      	218.82106      	218.79752      	218.83287      	218.80873      	218.83978      	218.81647      	218.75925      	218.80313      	218.80037      	218.7861       	218.7833       	218.79022      	218.75882      	218.80412      	218.80257      	218.81519      	218.83263      	218.78844      	218.8046       	218.80705      	218.80345      	218.8383       	218.82321      	218.80634      	218.64627      	218.59886      	218.59724      	218.63625      	218.65102      	218.59738      	218.61888      	218.58298      	218.646        	
218.97893      	218.97922      	219.00687      	218.9956       	219.00206      	218.99484      	218.97414      	219.01596      	218.99438      	219.02081      	218.99968      	219.03395      	219.00438      	218.98871      	219.00888      	219.0007       	219.00497      	219.00114      	218.99072      	219.03732      	218.9991       	219.03323      	219.04782      	219.032        	219.04095      	219.0258       	219.01682      	219.0412       	219.04356      	218.972        	219.0516       	218.94676      	219.11392      	219.0595       	218.96938      	218.92215      	219.04231      	219.05043      	219.06097      	219.05426      	219.05421      	218.87686      	218.76105      	218.77713      	218.81902      	218.87482      	218.91513      	218.88321      	218.87257      	218.85011      	218.86977      	218.81787      	218.78131      	218.80455      	218.80371      	218.83408      	218.83975      	218.82298      	218.8776       	218.84323      	218.77257      	218.88113      	218.97908      	218.99945      	219.04112      	219.03896      	219.06863      	219.07187      	219.05885      	219.0699       	219.07469      	219.10135      	219.10855      	219.06874      	219.06822      	219.04257      	219.04736      	219.07468      	219.0297       	219.06665      	219.0611       	219.03607      	219.08263      	219.10988      	219.08676      	219.0971       	219.04547      	219.07481      	219.11296      	219.08334      	219.09717      	218.96234      	219.05373      	219.07913      	219.06393      	219.05658      	219.03262      	219.06003      	219.07251      	219.07701      	
219.2352       	219.22108      	219.21335      	219.22552      	219.21864      	219.2112       	219.21916      	219.20119      	219.20891      	219.22655      	219.24341      	219.20004      	219.22264      	219.20023      	219.19098      	219.1817       	219.23456      	219.20444      	219.20892      	219.16286      	219.20236      	219.22243      	219.19377      	219.18661      	219.19954      	219.15794      	219.1706       	219.20598      	219.18466      	218.94768      	218.99525      	218.97353      	218.96925      	218.96725      	218.9963       	219.03885      	218.97598      	218.94344      	218.97154      	218.9835       	218.97704      	219.02707      	219.0608       	219.07951      	219.06567      	219.07228      	219.07706      	219.08911      	219.07253      	219.07658      	219.05833      	219.02066      	219.04034      	219.04109      	219.06712      	219.08057      	219.0452       	219.05045      	219.05551      	219.03542      	218.97247      	218.95895      	219.04593      	219.07956      	219.0998       	219.0835       	219.11569      	219.08032      	219.08514      	219.09059      	219.11708      	219.08304      	219.0919       	219.06316      	219.06964      	219.10516      	219.10439      	219.09853      	219.07883      	219.10495      	219.07774      	219.07013      	219.0455       	219.05801      	219.0539       	219.04306      	219.07492      	219.07347      	219.0713       	219.03094      	218.97438      	218.95337      	219.00446      	218.99869      	219.00667      	219.02148      	218.98488      	218.99611      	219.00293      	219.02675      	
218.65639      	218.58287      	218.55106      	218.62167      	218.61174      	218.62076      	218.62943      	218.6485       	218.60945      	218.64972      	218.61182      	218.65494      	218.60948      	218.60814      	218.59608      	218.58034      	218.63785      	218.56512      	218.60483      	218.58449      	218.5859       	218.58383      	218.52109      	218.53317      	218.54124      	218.58038      	218.53006      	218.53207      	218.55281      	218.37108      	218.47623      	218.48602      	218.4694       	218.45934      	218.51334      	218.50046      	218.50974      	218.51277      	218.52338      	218.49025      	218.46974      	218.42497      	218.43343      	218.43538      	218.44061      	218.47443      	218.46336      	218.4675       	218.44525      	218.40587      	218.40749      	218.42442      	218.46411      	218.44325      	218.42873      	218.44281      	218.45486      	218.42303      	218.44289      	218.39992      	218.28769      	218.30783      	218.4485       	218.41913      	218.43544      	218.43924      	218.4282       	218.44223      	218.39917      	218.4301       	218.42343      	218.44205      	218.43915      	218.44278      	218.45839      	218.41782      	218.43652      	218.44083      	218.4414       	218.42131      	218.41367      	218.44296      	218.4542       	218.38913      	218.38792      	218.37672      	218.37437      	218.38402      	218.39171      	218.38142      	218.32948      	218.21066      	218.33597      	218.3047       	218.30371      	218.30475      	218.31332      	218.33957      	218.31598      	218.2864       	
218.16505      	218.15561      	218.14145      	218.13077      	218.1564       	218.15535      	218.1463       	218.15646      	218.16339      	218.15594      	218.15231      	218.15085      	218.1401       	218.17572      	218.14743      	218.13055      	218.13943      	218.12608      	218.15929      	218.15326      	218.12036      	218.1514       	218.13998      	218.14053      	218.12274      	218.14337      	218.14122      	218.11394      	218.15509      	217.93303      	218.0581       	218.08592      	218.09895      	218.11722      	218.12877      	218.08292      	218.08649      	218.09454      	218.08276      	218.05716      	218.09657      	218.08096      	218.08269      	218.05594      	218.06601      	218.10645      	218.09291      	218.08015      	218.10292      	218.07672      	218.079        	218.09116      	218.09369      	218.04701      	218.07362      	218.07822      	218.08151      	218.08652      	218.07503      	218.08879      	217.90852      	217.87033      	218.09245      	218.04828      	218.07048      	218.09604      	218.08556      	218.08356      	218.09425      	218.10744      	218.06985      	218.06137      	218.07283      	218.06589      	218.10226      	218.06985      	218.09074      	218.0742       	218.0914       	218.0865       	218.09782      	218.13719      	218.08783      	218.1238       	218.13142      	218.10085      	218.12566      	218.0893       	218.09894      	218.07953      	218.06421      	217.88835      	218.00583      	218.01813      	218.05467      	218.00804      	218.00182      	218.0032       	218.03221      	218.05602      	
218.07054      	218.07845      	218.05055      	218.0391       	218.05907      	218.07114      	218.05673      	218.08066      	218.07382      	218.06798      	218.06041      	218.09218      	218.06927      	218.0604       	218.0875       	218.09262      	218.1071       	218.1004       	218.07018      	218.0889       	218.09027      	218.06589      	218.09288      	218.03458      	218.0859       	218.0713       	218.01239      	218.0591       	218.0617       	217.86842      	217.99496      	218.05673      	218.03397      	218.06894      	218.03946      	218.06462      	218.06772      	218.0578       	218.04796      	218.07976      	218.08008      	218.06203      	218.08298      	218.11844      	218.09796      	218.1089       	218.1149       	218.10089      	218.12938      	218.10057      	218.10985      	218.11478      	218.11507      	218.13019      	218.11761      	218.1106       	218.11029      	218.10506      	218.08719      	218.08195      	217.96852      	218.07552      	218.14566      	218.13358      	218.14267      	218.1634       	218.15115      	218.15494      	218.16702      	218.16302      	218.16617      	218.15283      	218.17374      	218.1962       	218.17674      	218.1867       	218.19948      	218.17035      	218.18558      	218.16599      	218.17377      	218.2124       	218.18468      	218.17569      	218.15866      	218.15677      	218.17917      	218.2311       	218.20401      	218.16656      	218.15956      	217.9831       	218.10823      	218.1131       	218.16727      	218.1398       	218.19562      	218.14186      	218.16466      	218.16563      	
