# www.neaspec.com
# Scan:	 	Whitelight Imaging
# Project:	 	20251007_PS
# Description:	 	
# Date:	 	10/07/2025 16:01:01
# Scanner Center Position (X, Y):	[µm]	49.66	48.17	 
# Rotation:	[°]	0	 	 
# Scan Area (X, Y, Z):	[µm]	5.000	5.000	0.000
# Pixel Area (X, Y, Z):	[px]	100	100	1
# Interferometer Center/Distance:	[µm]	546.322	0.000	 
# Averaging:	 	1	 	 
# Integration time:	[ms]	5	 	 
# Wavenumber Scaling:	 	1.000000	 	 
# Laser Source:	 	4.5-15 µm nano-FTIR laser
# Detector:	 	R
# Target Wavelength:	[µm]	7.502	 	 
# Demodulation Mode:	 	Fourier
# Tip Frequency:	[Hz]	238,800.109	 	 
# Tip Amplitude:	[mV]	13.000	 	 
# Tapping Amplitude:	[nm]	74.298	 	 
# Modulation Frequency:	[Hz]	0.000	 	 
# Modulation Amplitude:	[mV]	0.000	 	 
# Modulation Offset:	[mV]	0.000	 	 
# Setpoint:	[%]	79.75	 	 
# Regulator (P, I, D):	 	4.206850	8.625812	1.000000
# Tip Potential:	[mV]	0.000	 	 
# M1A Scaling:	[nm/V]	0.426	 	 
# M1A Cantilever Factor:	 	1,000	 	 
# Q-Factor:	 	452.3	 	 
# Version:	 	2.1.11536.0
74.30993       	74.02165       	74.07453       	74.49794       	74.25882       	74.126915      	74.11564       	74.2293        	74.37842       	74.353386      	74.13114       	74.10495       	74.350746      	74.30674       	74.08944       	74.1725        	74.42371       	74.198326      	74.09185       	74.267876      	74.27271       	74.1525        	74.13503       	73.887695      	73.99941       	81.14464       	75.12356       	74.19674       	74.25814       	74.270355      	74.395905      	74.081055      	74.180176      	74.31181       	74.125435      	74.336075      	74.37936       	74.14768       	74.13683       	74.23735       	74.30974       	74.28746       	74.355225      	74.228485      	74.265045      	74.32055       	74.17972       	74.355064      	74.154854      	74.320274      	74.34398       	74.359726      	74.38482       	74.33629       	74.32506       	74.02236       	69.67212       	70.262314      	74.055725      	74.43793       	74.33181       	74.08791       	74.3498        	74.262375      	74.125244      	74.37185       	74.2715        	74.2102        	74.16215       	74.36584       	74.138695      	74.23038       	74.342415      	74.24973       	74.06343       	74.33987       	74.2789        	74.12414       	74.32321       	74.17873       	74.26635       	74.29476       	74.15028       	74.25115       	74.26445       	73.83366       	74.10917       	80.80083       	74.81111       	74.34457       	74.268654      	74.19393       	74.32583       	73.94262       	74.35146       	74.3119        	74.39903       	74.513115      	74.45251       	74.57676       	
74.31331       	74.119385      	74.11251       	74.45944       	74.343185      	74.14353       	74.08621       	74.34278       	74.36201       	74.2063        	74.116104      	74.267784      	74.31765       	74.22131       	74.19576       	74.11885       	74.23526       	74.338745      	74.27272       	74.185265      	74.05266       	74.17654       	74.21877       	73.90664       	74.44011       	81.07428       	74.796135      	74.081436      	74.21945       	74.415825      	74.2198        	74.11822       	74.12832       	74.1632        	74.43599       	74.37217       	74.26569       	73.98882       	74.263626      	74.27661       	74.26069       	74.16754       	74.304726      	74.24099       	74.21515       	74.203285      	74.22793       	74.3153        	74.65779       	74.57903       	73.98924       	74.56819       	74.06952       	73.99823       	74.57383       	73.75344       	68.18579       	71.048836      	73.97543       	74.33743       	74.39534       	74.11673       	74.23823       	74.26102       	74.316315      	74.22499       	74.239815      	74.295876      	74.161446      	74.37903       	74.079956      	74.34143       	74.20987       	74.395775      	74.14202       	74.040695      	74.404205      	74.42905       	74.03331       	74.06661       	74.47702       	74.11186       	74.159485      	74.31741       	74.060486      	73.3559        	77.76264       	80.27717       	78.16334       	74.83253       	72.15112       	71.186874      	73.91946       	74.22211       	74.129616      	74.370895      	74.399734      	74.38639       	74.61949       	74.63332       	
74.07081       	74.31867       	74.23735       	74.302895      	74.29036       	74.118904      	74.21577       	74.180626      	74.39444       	74.25252       	74.23119       	74.23426       	74.18646       	74.22523       	74.29224       	74.194145      	74.31842       	74.12253       	74.24098       	74.217064      	74.19356       	74.2189        	74.08674       	73.86766       	74.98527       	80.779594      	75.11218       	74.00474       	74.16353       	74.17901       	74.49845       	74.231415      	74.32174       	74.13114       	74.124405      	74.40756       	74.29341       	74.151886      	74.13254       	74.05427       	74.33029       	74.36226       	74.233444      	74.42223       	74.171295      	74.04066       	74.467         	74.32935       	74.71681       	74.51099       	74.03063       	74.037315      	74.28919       	74.38509       	74.43227       	74.12765       	68.60431       	71.075615      	74.28922       	74.30299       	74.2615        	74.1347        	74.205414      	74.29227       	74.17859       	74.12038       	74.33271       	74.38293       	74.214485      	74.22467       	74.163445      	74.315445      	74.108665      	74.31535       	74.20164       	74.14567       	74.43379       	74.14047       	74.01266       	74.26864       	74.48556       	72.72435       	73.77609       	73.60682       	76.92348       	79.95678       	79.03093       	78.76561       	77.63519       	75.29945       	73.16825       	71.279175      	70.55078       	69.72824       	72.556206      	74.32166       	74.438896      	74.35741       	74.40682       	74.46538       	
74.328804      	74.17526       	74.19411       	74.33434       	74.15414       	74.29227       	74.16499       	74.28083       	74.33732       	74.13056       	74.25605       	74.3346        	74.02762       	74.13082       	74.515976      	74.257706      	74.17712       	74.07712       	74.27073       	74.198746      	74.21297       	74.16455       	74.09927       	73.492744      	76.48109       	79.70845       	74.64887       	74.20276       	74.20132       	74.31443       	74.11406       	74.33668       	74.219475      	74.19052       	74.34724       	74.3704        	74.17408       	74.314026      	74.181656      	74.09841       	74.41784       	74.24148       	74.28589       	74.23295       	74.29273       	73.95736       	74.345345      	74.2179        	74.34966       	74.42997       	74.063675      	74.229126      	74.41542       	74.25263       	74.500175      	74.33359       	69.29492       	69.132256      	74.15499       	74.21374       	74.36509       	74.171425      	74.39144       	74.3525        	74.25948       	74.03611       	74.31316       	74.25323       	74.106125      	74.26804       	74.17627       	74.38555       	74.17525       	74.10298       	74.297646      	74.104774      	74.29198       	74.22035       	74.309875      	74.06147       	74.05997       	73.7844        	75.325836      	79.605934      	81.48621       	78.90874       	77.52981       	76.71773       	76.4341        	75.38383       	73.676094      	72.21426       	71.31707       	70.452446      	67.20104       	70.031235      	74.31791       	74.42072       	74.44042       	74.44164       	
74.110146      	74.16532       	74.169655      	74.27685       	74.17446       	74.34041       	74.268715      	74.22463       	74.13177       	74.220955      	74.355385      	74.36598       	74.136894      	74.0834        	74.19027       	74.39514       	74.15552       	74.24982       	74.15797       	74.33644       	74.164505      	74.227516      	74.34665       	73.77945       	75.64672       	80.392006      	75.02592       	74.29526       	74.34358       	74.05621       	74.31097       	73.99487       	74.44738       	74.204956      	74.255714      	74.35678       	74.146614      	74.381355      	74.09143       	74.432014      	74.04501       	74.18477       	74.4915        	74.15437       	74.28437       	74.195946      	74.37499       	74.16791       	74.19954       	74.37072       	74.22652       	74.3518        	74.25899       	74.31934       	74.48115       	74.13501       	69.793015      	67.85407       	74.244514      	74.17322       	74.17343       	74.22676       	74.24786       	74.36083       	74.234726      	74.04502       	74.343216      	74.151634      	74.218666      	74.35475       	74.216896      	74.289116      	74.22915       	74.14512       	74.080894      	73.99814       	74.24123       	74.29853       	74.031364      	74.033875      	73.503334      	76.78048       	79.31939       	80.82778       	81.698906      	77.10878       	76.33378       	76.485275      	75.82364       	74.7745        	73.76874       	72.38309       	70.91569       	69.61009       	69.37418       	70.77129       	70.15453       	73.96528       	74.40958       	74.724754      	
74.10404       	74.20132       	74.15243       	74.19697       	74.43812       	74.16412       	74.19693       	74.22222       	74.19414       	74.242386      	74.19008       	74.28333       	74.11638       	74.396935      	74.189354      	74.25077       	74.14197       	74.31024       	74.20977       	74.211525      	74.35412       	74.039764      	74.100494      	74.124         	73.85363       	80.89765       	74.990005      	74.2099        	74.26231       	74.147255      	74.29671       	74.055664      	74.29882       	74.20311       	74.141136      	74.26454       	74.30575       	74.38117       	74.04738       	74.23546       	73.774956      	74.64619       	74.48738       	73.733826      	74.127304      	73.89563       	74.57062       	73.9852        	74.28965       	73.6685        	73.98614       	74.09853       	74.23907       	74.03122       	74.281204      	74.117065      	68.63331       	69.43812       	74.15635       	74.39787       	74.41029       	74.28597       	74.09521       	74.08274       	74.34428       	74.21583       	74.26735       	74.21203       	74.16422       	74.23758       	74.243164      	74.21978       	74.27426       	74.15839       	74.07071       	74.13015       	74.223755      	74.40262       	73.89027       	73.75822       	75.47269       	79.80051       	80.3708        	81.38632       	79.44418       	78.06636       	76.12223       	75.385414      	75.223625      	74.95692       	73.813576      	72.334694      	70.65095       	67.91428       	72.042145      	71.906715      	71.391075      	72.522804      	74.798676      	74.78174       	
74.29627       	74.31089       	74.34679       	74.09915       	74.1726        	74.40937       	74.16909       	74.35679       	74.19976       	74.122284      	74.27287       	74.345566      	74.22393       	74.11162       	74.27349       	74.23208       	74.21479       	74.22837       	74.26407       	74.142715      	74.28302       	74.15554       	73.97998       	73.863075      	73.85585       	80.321976      	74.903496      	74.1239        	74.60191       	74.16798       	73.84742       	73.12988       	74.53894       	74.55141       	71.67369       	73.58239       	75.632164      	74.15474       	72.167336      	73.43857       	71.90861       	74.71401       	74.77862       	71.86317       	73.106606      	73.76402       	74.53175       	72.89832       	73.685196      	74.332184      	69.69031       	73.64924       	74.35795       	75.04199       	73.59771       	72.46196       	74.01476       	74.249886      	74.17889       	74.25461       	74.347206      	74.137886      	74.234505      	74.30319       	74.188095      	74.26609       	74.043495      	74.318756      	74.26258       	74.036545      	74.32346       	74.156105      	74.145195      	74.362206      	74.11004       	74.03447       	74.11705       	74.146675      	73.80942       	74.9969        	78.99856       	80.82564       	81.17397       	80.52479       	78.74965       	77.91526       	75.178925      	74.305305      	74.784225      	75.47294       	74.8129        	72.44058       	69.652145      	66.5117        	71.91137       	71.54706       	72.41859       	74.36149       	74.36496       	74.23893       	
74.287476      	74.14054       	74.22966       	74.160645      	74.32066       	74.178474      	74.37514       	74.251396      	74.25528       	74.26326       	74.10532       	74.31281       	74.26168       	74.21789       	74.206406      	74.22612       	74.21886       	74.34338       	74.35971       	74.17308       	74.154854      	74.28834       	74.22193       	74.19418       	74.096725      	74.41947       	74.479866      	74.3077        	74.30386       	74.14816       	74.64602       	74.04162       	73.93853       	74.17028       	74.15546       	74.40079       	74.33181       	74.04705       	74.16118       	74.299034      	74.194084      	74.21569       	74.168396      	74.40998       	74.105515      	74.13616       	74.386536      	74.21545       	74.32173       	74.41796       	74.1812        	74.28672       	74.16238       	74.22544       	74.27343       	74.21302       	74.15481       	74.10141       	74.182655      	74.31736       	74.37974       	74.198715      	74.11274       	74.26034       	74.14427       	74.22752       	74.33511       	74.01232       	74.56185       	74.01928       	74.178696      	74.23424       	74.16069       	74.17306       	74.218475      	73.985596      	74.15595       	74.08098       	74.60605       	77.42814       	78.230545      	83.61995       	81.46898       	80.57138       	78.71447       	77.806885      	72.777176      	70.85492       	73.89177       	76.32186       	75.24187       	72.37848       	70.31355       	65.560036      	71.8683        	72.757835      	72.79159       	74.46214       	74.54834       	74.27055       	
74.44258       	74.22304       	74.129486      	74.35734       	74.28736       	74.252655      	74.04166       	74.34092       	74.35557       	74.18704       	74.15279       	74.17474       	74.157906      	74.46087       	74.20661       	74.31478       	74.087265      	74.2215        	74.3199        	74.20033       	74.23758       	74.147675      	74.29856       	74.300804      	74.092026      	74.469444      	74.24474       	74.23813       	74.251335      	74.243515      	74.30505       	74.01115       	74.2628        	74.32757       	74.1583        	74.361984      	74.329956      	74.15942       	74.12293       	74.19665       	74.273636      	74.38877       	73.98452       	74.10306       	74.30627       	74.2208        	74.30667       	74.301674      	74.26109       	74.436775      	74.38008       	74.19376       	74.090256      	74.10527       	74.54221       	74.206924      	74.11574       	74.12363       	74.07509       	74.29294       	74.30924       	74.29055       	74.14436       	74.12723       	74.24111       	74.09774       	74.39973       	74.21297       	74.57825       	73.72785       	74.23038       	74.251076      	74.212166      	74.00575       	74.13609       	74.13308       	74.17671       	73.8264        	75.85346       	77.24093       	80.9659        	83.531166      	82.90254       	80.9888        	78.15314       	75.469696      	71.68463       	69.57738       	73.063324      	76.35083       	74.98793       	71.982475      	69.368286      	66.837296      	72.30223       	71.92027       	71.81644       	74.57596       	74.43471       	74.28671       	
74.29687       	74.34335       	74.24173       	74.24613       	74.28357       	74.23046       	74.29433       	74.218605      	74.269264      	74.21416       	74.24822       	74.031876      	74.3771        	74.33223       	74.17774       	74.26486       	74.28337       	74.18273       	74.3457        	74.13886       	74.33423       	74.348366      	74.00438       	74.19695       	74.22042       	74.622406      	74.24737       	74.35832       	74.12128       	74.176636      	74.20995       	74.24601       	74.14488       	74.14583       	74.27165       	74.224434      	74.29865       	74.34815       	74.2323        	74.119484      	74.29143       	74.30271       	74.06605       	74.41105       	74.199005      	74.29808       	74.30504       	74.19805       	74.041725      	74.29508       	74.31023       	74.17224       	74.22995       	74.31984       	74.360374      	74.31553       	73.9365        	74.2973        	74.18022       	74.28812       	74.17773       	74.26245       	74.126         	74.19562       	74.33965       	74.15157       	74.15192       	74.161766      	74.1994        	74.19424       	74.2061        	74.12558       	74.33992       	74.16184       	74.12283       	74.180954      	74.03226       	74.004135      	74.24871       	77.852516      	80.96213       	84.07039       	83.24546       	81.03746       	77.24262       	75.24691       	68.460945      	71.21704       	73.413605      	76.10996       	74.48884       	71.793945      	69.66206       	67.63312       	71.88779       	71.95294       	71.950584      	74.56302       	74.65979       	74.49749       	
74.05564       	74.299324      	74.259254      	74.3038        	74.155556      	74.20803       	74.20333       	74.285446      	74.2818        	74.300674      	74.17973       	74.18615       	74.208626      	74.27988       	74.11304       	74.31179       	74.23386       	74.14213       	74.297264      	74.278694      	74.31752       	74.25076       	74.19094       	74.24221       	74.07393       	74.5817        	74.35688       	74.38354       	74.14388       	73.96138       	74.16607       	74.126015      	74.372574      	74.259125      	74.08302       	74.25291       	74.332886      	74.32707       	74.230385      	74.2879        	74.14029       	74.27759       	74.25341       	74.29704       	74.25039       	74.19954       	74.251595      	74.342636      	74.12845       	74.17024       	74.32811       	74.18055       	74.183556      	74.33541       	74.32052       	74.441795      	74.00135       	74.180565      	74.1862        	74.28262       	74.178185      	74.155         	74.268265      	74.244644      	74.14343       	74.315674      	74.11849       	74.34398       	74.33345       	74.04294       	74.27718       	74.22323       	74.21207       	74.13052       	74.250145      	74.134926      	74.2824        	74.00202       	73.58352       	76.65033       	78.3993        	81.861824      	83.607834      	81.515945      	76.4631        	74.91638       	74.043045      	72.74132       	73.85616       	75.6219        	74.1708        	71.79015       	70.055466      	69.43659       	70.51349       	72.67636       	71.806786      	74.5219        	74.72934       	74.67748       	
74.29633       	74.32191       	74.2506        	74.37517       	74.13775       	74.31874       	74.13078       	74.24696       	74.34921       	74.27659       	74.113365      	74.13336       	74.32476       	74.38482       	74.25077       	74.20696       	74.206184      	74.301445      	74.099         	74.268875      	74.45648       	74.19198       	73.9956        	74.29582       	74.25057       	74.42734       	74.60022       	74.07717       	74.11832       	74.257904      	74.15342       	74.32139       	74.2161        	74.266014      	74.191795      	74.20972       	74.24771       	74.182106      	74.24782       	74.34169       	74.25477       	74.0177        	74.24369       	74.49383       	74.18856       	74.17698       	74.19422       	74.36064       	74.40039       	74.27207       	73.90401       	74.39506       	74.151924      	74.49431       	74.36314       	74.11626       	74.11052       	74.26518       	74.25732       	74.195274      	73.99037       	74.132385      	74.308044      	74.37176       	74.340775      	73.88928       	74.08017       	74.392235      	74.42367       	74.03394       	73.80276       	74.0128        	74.40516       	74.550735      	74.24399       	73.90972       	73.94725       	74.4268        	73.86419       	74.015564      	77.713165      	79.21242       	81.241646      	81.330154      	78.67071       	76.72288       	74.852516      	73.43877       	73.86229       	75.24595       	73.85755       	72.01165       	71.23587       	68.07412       	67.90136       	70.71115       	73.99097       	74.7281        	74.6306        	74.436554      	
74.123436      	74.06002       	74.29083       	74.043625      	74.4271        	74.2514        	74.22717       	74.34103       	74.1778        	74.208275      	74.23801       	74.30449       	74.22528       	74.16584       	74.24988       	74.28187       	74.113         	74.18932       	74.2674        	74.32777       	74.21188       	74.346176      	74.13008       	74.31081       	74.22896       	74.3268        	74.5117        	74.23224       	74.06081       	74.20036       	74.45136       	74.20032       	74.17683       	74.20088       	74.24863       	74.29561       	74.46773       	74.29796       	74.19616       	74.25576       	74.14843       	74.14987       	74.16075       	74.24568       	74.23618       	74.40458       	74.23577       	74.38911       	74.00977       	74.21968       	74.180954      	74.193695      	74.22706       	74.21874       	74.3229        	74.21887       	74.277596      	74.12222       	74.26689       	74.21051       	74.12725       	74.35745       	74.275566      	74.29328       	74.2694        	74.09644       	74.145584      	74.32363       	74.41101       	74.08639       	74.22054       	74.19196       	74.33166       	74.25516       	73.938995      	73.96091       	74.24583       	74.08835       	74.13833       	74.06047       	74.359406      	78.199326      	80.55435       	82.46006       	78.552444      	76.23071       	75.35508       	74.24162       	74.384514      	74.53697       	73.16375       	72.15968       	70.30541       	67.36216       	71.29895       	70.44715       	74.13796       	74.74942       	74.79898       	74.502014      	
74.10891       	74.39033       	74.208145      	74.40073       	74.05549       	74.2162        	74.29992       	74.341         	74.11494       	74.3518        	74.0664        	74.32656       	74.2387        	74.222466      	74.38522       	74.19989       	74.08231       	74.427765      	74.186066      	74.273735      	74.28784       	74.15222       	74.278755      	74.27228       	74.1496        	74.29133       	74.47696       	74.33442       	74.19491       	74.15382       	74.2172        	74.34662       	74.04835       	74.257996      	74.37282       	74.32946       	74.2959        	74.253876      	74.29713       	74.48694       	73.86296       	74.119514      	74.327805      	74.30787       	74.222984      	74.26516       	74.21952       	74.23076       	74.385414      	74.195564      	74.175285      	74.345726      	74.0663        	74.31522       	74.2468        	74.51376       	74.208206      	74.07903       	74.225464      	74.19346       	74.22964       	74.24686       	74.19901       	74.17556       	74.349815      	74.16838       	74.29003       	74.127144      	74.345276      	74.337204      	74.161804      	74.20706       	74.226776      	74.16522       	74.35875       	74.04823       	74.14156       	74.299484      	74.396965      	74.119         	74.093025      	74.066925      	78.21333       	82.434845      	79.17002       	76.64243       	75.93708       	75.055504      	74.90014       	74.27638       	73.11565       	72.01003       	70.485596      	66.88767       	66.51825       	73.7247        	74.56509       	74.62994       	74.48647       	74.36211       	
74.33958       	74.171524      	74.13479       	74.422         	74.12888       	74.30304       	74.11267       	74.39348       	74.2768        	74.35306       	74.076385      	74.264366      	74.14531       	74.28785       	74.54051       	74.003746      	74.17528       	74.27673       	74.25957       	74.271805      	74.181496      	74.335304      	74.26013       	74.20544       	74.26631       	74.439766      	74.24883       	74.41796       	74.235725      	73.987274      	74.293         	74.19162       	74.30128       	74.210785      	74.30313       	74.388214      	74.1135        	74.338295      	74.3744        	74.36649       	74.12735       	74.23845       	74.29773       	74.07222       	74.13242       	74.30714       	74.23097       	74.217094      	74.26903       	74.35083       	74.16236       	74.287224      	74.260666      	74.08266       	74.29929       	74.38072       	74.306206      	73.93749       	74.25361       	74.26542       	74.24823       	74.349174      	74.12851       	74.23084       	74.2736        	74.26725       	74.273605      	74.188255      	74.31736       	74.16092       	74.20316       	74.324234      	74.310295      	74.22364       	74.23212       	74.129585      	74.23803       	74.309784      	74.340355      	74.160446      	74.46916       	73.97776       	74.09745       	76.36634       	78.46711       	77.49219       	77.61664       	76.54006       	75.76754       	74.897484      	73.728874      	71.060394      	68.769875      	67.39421       	73.35482       	74.156296      	74.78437       	74.619545      	74.367455      	74.094795      	
74.245735      	74.17243       	74.50021       	74.28772       	74.18507       	74.10667       	74.27036       	74.33863       	74.32372       	74.15319       	74.30623       	74.01557       	74.23155       	74.41272       	74.20301       	74.38664       	74.34233       	74.25783       	74.10068       	74.275696      	74.49308       	74.18913       	74.25074       	74.18379       	74.21414       	74.34876       	74.400566      	74.33571       	74.26547       	74.21829       	73.980484      	74.32699       	74.27415       	74.30195       	74.21322       	74.13987       	74.263336      	74.284874      	74.19949       	74.27464       	74.179054      	74.37534       	74.217896      	74.20675       	74.24212       	74.35335       	74.140366      	74.195145      	74.31867       	74.20622       	74.390274      	74.426315      	74.21364       	74.12508       	74.234604      	74.36579       	74.26497       	73.95845       	74.27128       	74.3647        	74.12635       	74.48071       	74.19018       	74.28024       	74.11439       	74.42725       	73.988174      	74.46199       	74.08178       	74.20918       	74.39066       	74.40395       	74.2329        	74.174286      	74.18648       	74.08782       	74.423515      	74.0662        	74.54675       	74.32381       	74.29384       	74.2025        	74.187454      	74.59368       	73.91175       	74.13064       	77.02247       	78.283554      	76.934425      	75.444534      	72.70248       	70.185486      	67.99463       	73.63147       	74.05416       	74.12206       	74.3574        	74.78338       	74.386154      	74.21389       	
74.28809       	74.32168       	74.10953       	74.253746      	74.18503       	74.42051       	74.13462       	74.22385       	74.330475      	74.195145      	74.19272       	74.07388       	74.4069        	74.17696       	74.19874       	74.334015      	74.14175       	74.37019       	74.31268       	74.10745       	74.25908       	74.30673       	74.19936       	74.27421       	74.28453       	74.39282       	74.59548       	74.30503       	74.17787       	74.00534       	74.39676       	74.14731       	74.11559       	74.4106        	74.172874      	74.0642        	74.3073        	74.33947       	74.316185      	74.17631       	74.195404      	74.22595       	74.428566      	74.34593       	74.094734      	74.273094      	74.16409       	74.310196      	74.322174      	74.20995       	74.308846      	74.143005      	74.358604      	74.204254      	74.145424      	74.510086      	74.19135       	73.9125        	74.47935       	74.16595       	74.22491       	74.37917       	74.124405      	74.22757       	74.305885      	74.47799       	74.07047       	74.200226      	74.29574       	74.22168       	74.25763       	74.23777       	74.24783       	74.29486       	74.21308       	74.35094       	74.1206        	74.38383       	74.33801       	74.33799       	74.29838       	74.14722       	74.5648        	74.10029       	74.12883       	74.281425      	74.408516      	74.40985       	74.70632       	74.664566      	73.75335       	73.95785       	74.18037       	74.12571       	74.30235       	74.22262       	74.5028        	74.69922       	74.489265      	74.35869       	
74.273056      	74.241394      	74.317795      	74.10388       	74.25313       	74.385475      	74.29244       	74.162025      	74.291985      	74.15121       	74.25117       	74.42167       	74.01989       	74.33113       	74.18585       	74.32296       	74.308235      	74.144905      	74.28588       	74.23868       	74.2837        	74.27054       	74.22108       	74.24079       	74.28917       	74.36499       	74.34811       	74.38199       	74.33736       	74.06733       	74.168365      	74.19428       	74.13617       	74.03159       	74.25732       	74.308266      	74.281075      	74.25732       	74.2098        	74.28391       	74.32591       	74.1736        	74.25396       	74.18331       	74.26461       	74.28799       	74.313416      	74.220215      	74.31127       	74.26964       	74.242256      	74.248764      	74.2267        	74.152374      	74.283646      	74.252655      	74.23126       	74.102066      	74.285034      	74.15852       	74.232185      	74.35149       	74.204735      	74.141914      	74.28067       	74.24037       	74.37009       	74.207275      	74.23272       	74.297264      	74.146614      	74.26785       	74.29902       	74.19626       	74.361176      	74.4722        	74.03283       	74.301834      	74.269424      	74.4588        	74.21876       	74.09652       	74.38705       	74.21271       	74.27387       	74.58899       	74.09362       	74.30399       	74.38635       	74.32354       	74.08695       	74.22747       	74.33833       	74.18094       	74.28541       	74.246         	74.72929       	74.992424      	74.43346       	74.38794       	
74.12467       	74.32333       	74.112434      	74.23185       	74.34209       	74.096756      	74.35842       	74.28426       	74.215706      	74.23974       	74.35145       	74.25748       	74.151505      	74.32315       	74.285965      	74.16705       	74.3548        	74.11065       	74.34261       	74.172554      	74.276474      	74.38051       	74.28875       	74.18808       	74.28151       	74.17847       	74.607155      	74.21256       	74.354614      	74.22022       	74.03504       	74.28385       	74.193184      	74.12744       	74.435356      	74.16059       	74.37014       	74.1372        	74.36454       	74.15986       	74.20784       	74.29126       	74.15728       	74.14052       	74.40155       	74.3339        	74.203125      	74.32398       	74.17501       	74.27604       	74.295166      	74.19763       	74.41696       	74.22307       	74.13277       	74.283745      	74.23569       	74.20266       	73.9858        	74.30195       	74.324005      	74.16444       	74.33355       	74.28066       	74.109985      	74.37494       	74.21198       	74.19215       	74.23408       	74.16151       	74.306786      	74.309875      	74.17584       	74.33857       	74.32315       	74.26263       	74.192085      	74.36844       	74.39833       	74.03815       	74.12095       	74.38686       	74.416916      	74.337456      	74.20536       	74.24357       	74.27423       	74.57308       	73.95283       	74.39951       	73.83205       	74.48324       	74.26604       	74.38939       	74.14309       	74.349525      	74.44596       	74.5747        	74.78028       	74.44153       	
74.08768       	74.36134       	74.18013       	74.280334      	74.34821       	73.99876       	74.399666      	74.18696       	74.21345       	74.32705       	74.15958       	74.346085      	74.20562       	74.098236      	74.23982       	74.13351       	74.31006       	74.310524      	74.37637       	74.28718       	74.12803       	74.232544      	74.17138       	74.30884       	74.14353       	74.361465      	74.59604       	74.22686       	74.24264       	74.12526       	74.351585      	74.14288       	74.107735      	74.260765      	74.28116       	74.25065       	74.2877        	74.23402       	74.19836       	74.32995       	74.121895      	74.28403       	74.36058       	74.1897        	74.48511       	74.15578       	74.18005       	74.22879       	74.20277       	74.27963       	74.261086      	74.14335       	74.41848       	74.29305       	74.27202       	74.25427       	74.20681       	74.18465       	74.23597       	74.158005      	74.2094        	74.35223       	74.23878       	74.18022       	74.18136       	74.399994      	74.26297       	74.08805       	74.33172       	74.13535       	74.5013        	74.180084      	74.1824        	74.29378       	74.227234      	74.39145       	74.18483       	74.23318       	74.30133       	74.27859       	74.118         	74.469955      	74.285225      	74.10044       	74.40804       	74.37322       	74.2795        	74.32251       	74.172516      	74.49988       	74.139595      	74.28272       	74.185135      	74.254265      	74.2506        	74.26287       	74.42841       	74.59462       	74.67818       	74.5521        	
74.11905       	74.21596       	74.19584       	74.29409       	74.17009       	74.28715       	74.201805      	74.44784       	73.94587       	74.38296       	74.33821       	74.16067       	74.254974      	74.0899        	74.42249       	74.11337       	74.37834       	74.16887       	74.28954       	74.35969       	74.07299       	74.27872       	74.357216      	74.16258       	74.2633        	74.42529       	74.32985       	74.22787       	74.148865      	74.1705        	74.29227       	74.396286      	74.069244      	74.336395      	74.23293       	74.1271        	74.39166       	74.30388       	74.100784      	74.41393       	74.18117       	74.11031       	74.37271       	74.1578        	74.277794      	74.12514       	74.26035       	74.27478       	74.25734       	74.29591       	74.27333       	74.15616       	74.44838       	74.2266        	74.2517        	74.389206      	74.18231       	74.13816       	74.14812       	74.31689       	74.152275      	74.24323       	74.27852       	74.40861       	74.202095      	74.24596       	74.31694       	74.284744      	74.191635      	74.25539       	74.13013       	74.419334      	74.030235      	74.32546       	74.265114      	74.26884       	74.281715      	74.34896       	74.12253       	74.34254       	74.408646      	73.99127       	74.27704       	74.362816      	74.21746       	74.36557       	74.224686      	74.412704      	74.33015       	74.08221       	74.21801       	74.416954      	74.27158       	74.25363       	74.31577       	74.26249       	74.157524      	74.89378       	74.97367       	74.63075       	
74.30937       	74.32576       	74.27547       	74.08315       	74.19806       	74.44885       	74.20519       	74.234436      	74.203         	74.332954      	74.37058       	74.06149       	74.23732       	74.29077       	74.24239       	74.25281       	74.472145      	74.14117       	74.325676      	74.12786       	74.24465       	74.12576       	74.37136       	74.21217       	74.22952       	74.26765       	74.30264       	74.25152       	74.336555      	74.16197       	74.27124       	74.27373       	74.30206       	74.12912       	74.34982       	74.166046      	74.31337       	74.25288       	74.24744       	74.44979       	74.18859       	74.422905      	73.806114      	74.28012       	74.185974      	74.38023       	74.25808       	74.09006       	74.439514      	74.15571       	74.12087       	74.41316       	74.20709       	74.233864      	74.18224       	74.38004       	74.3951        	74.18486       	74.07283       	74.29431       	74.36503       	74.049095      	74.258545      	74.2482        	74.208496      	74.17177       	74.16084       	74.325455      	74.22954       	74.245026      	74.42131       	74.199196      	74.22883       	74.34626       	74.20103       	74.2563        	74.19149       	74.14819       	74.36188       	74.37809       	74.248535      	74.30474       	74.16281       	74.4505        	74.228584      	74.107155      	74.37652       	74.27598       	74.36777       	74.22961       	74.17629       	74.28897       	74.18512       	74.2709        	74.46903       	74.1602        	74.05164       	74.67103       	75.023285      	74.42347       	
74.31826       	74.19661       	74.244965      	74.26136       	74.222015      	74.15199       	74.27903       	74.20313       	74.371956      	74.21513       	74.1903        	74.158775      	74.377716      	74.163826      	74.27529       	74.221375      	74.24234       	74.31907       	74.324615      	74.170944      	74.26072       	74.04192       	74.36789       	74.281456      	74.21578       	74.32618       	74.32357       	74.1811        	74.21482       	74.356445      	74.33964       	74.34807       	74.18289       	74.24155       	74.329414      	74.278915      	74.205864      	74.3096        	74.315994      	74.33245       	74.29078       	74.34529       	73.85729       	74.15439       	74.29795       	74.36122       	74.25755       	74.20436       	74.230774      	74.31237       	74.10277       	74.31863       	74.244156      	74.30061       	74.30274       	74.421074      	74.27684       	73.97891       	74.00321       	74.48557       	74.34666       	74.12867       	74.07738       	74.370636      	74.30343       	74.17352       	74.14632       	74.39456       	74.25657       	74.1455        	74.42774       	74.285835      	74.081184      	74.27044       	74.26153       	74.40837       	74.16277       	74.17346       	74.21539       	74.205         	74.330894      	74.307274      	74.233696      	74.590546      	74.18153       	74.289246      	74.158966      	74.37732       	74.61032       	73.98436       	74.18912       	74.28067       	74.215706      	74.31679       	74.39698       	74.29557       	74.11507       	74.43174       	74.71439       	74.61885       	
74.27281       	74.3721        	74.2788        	74.12559       	74.12166       	74.22651       	74.431885      	74.20177       	74.14384       	74.05294       	74.45288       	74.305214      	74.29957       	74.36344       	74.11662       	74.10895       	74.364334      	74.32636       	74.25877       	74.154106      	74.3485        	74.19495       	74.24866       	74.367615      	74.035065      	74.39956       	74.31627       	74.16626       	74.1254        	74.48003       	74.20616       	74.27893       	74.13583       	74.18516       	74.36968       	74.31758       	74.08012       	74.4295        	74.246185      	74.19079       	74.41408       	74.43928       	73.822525      	74.2593        	74.38769       	74.146996      	74.081314      	74.3316        	74.27894       	74.13334       	74.297386      	74.23281       	74.501854      	74.12101       	74.42145       	74.430786      	74.01047       	74.19323       	74.11517       	74.03267       	74.366264      	74.34109       	74.25615       	74.33067       	74.256165      	74.36732       	74.14126       	74.298355      	74.14243       	74.16784       	74.29669       	74.2906        	74.167496      	74.22914       	74.48122       	74.0658        	74.19173       	74.545494      	74.09683       	74.22403       	73.99773       	74.409294      	74.26638       	74.32682       	74.23726       	74.36403       	74.47314       	74.24782       	74.517395      	74.06147       	74.24566       	74.1005        	74.30801       	74.246506      	74.32612       	74.196434      	74.29332       	74.34981       	74.550545      	74.542915      	
74.07758       	74.35699       	74.29928       	74.11412       	74.18734       	74.28071       	74.33699       	74.14482       	74.25877       	74.12297       	74.42168       	74.32203       	74.29103       	74.26341       	74.19376       	74.24785       	74.16808       	74.39391       	74.28626       	74.10278       	74.303246      	74.08809       	74.31063       	74.32322       	74.16784       	74.42786       	74.3603        	74.16369       	74.30521       	74.289154      	74.27537       	74.187294      	74.19763       	74.237274      	74.44997       	74.415306      	73.99693       	74.54726       	74.2775        	74.23169       	74.13025       	74.24366       	74.24985       	73.96718       	74.315414      	74.412285      	74.20734       	74.13412       	74.257256      	74.33443       	74.25419       	74.26101       	74.1524        	74.312935      	74.62548       	74.17928       	74.14357       	73.96852       	74.23442       	74.26498       	74.29517       	74.37313       	74.04626       	74.02207       	74.52567       	74.27497       	74.39895       	74.18782       	74.14704       	74.1692        	74.22015       	74.190285      	74.532234      	74.08467       	74.277824      	74.22449       	74.18939       	74.65812       	73.9412        	74.35229       	74.08368       	74.42955       	74.25848       	74.24135       	74.16591       	74.37859       	74.404976      	74.20439       	74.55497       	74.34464       	74.07602       	74.170006      	74.269455      	74.30546       	74.21837       	74.27637       	74.35059       	74.44452       	74.61566       	74.46073       	
74.13055       	74.30609       	74.280426      	74.20747       	74.16821       	74.32663       	74.36523       	74.21705       	74.20672       	74.21864       	74.27466       	74.25707       	74.271225      	74.24494       	74.20553       	74.25352       	74.01632       	74.47797       	74.276405      	74.26482       	74.194145      	74.23539       	74.26972       	74.20558       	74.34869       	74.428154      	74.440544      	74.175735      	74.08032       	74.220955      	74.19738       	74.24375       	74.36858       	74.21278       	74.603584      	73.88477       	74.20639       	74.55714       	74.18697       	74.253525      	74.22613       	74.304375      	74.33783       	73.97867       	74.28879       	74.21829       	74.29782       	74.169975      	74.174614      	74.271835      	74.165         	74.317245      	74.26634       	74.42452       	74.38748       	74.07599       	74.1103        	74.11612       	74.29444       	74.14529       	74.29826       	74.22336       	74.269165      	74.32917       	74.16341       	74.24289       	74.2759        	74.41907       	74.098785      	74.2495        	74.42753       	74.200264      	74.25838       	74.216606      	74.28044       	74.13732       	74.30176       	74.26232       	74.13066       	74.54412       	74.12296       	74.20924       	74.23108       	74.14126       	74.22407       	74.32402       	74.37609       	74.436455      	74.36572       	74.26733       	74.25642       	74.095726      	74.50324       	74.24589       	74.23636       	74.252655      	74.330536      	74.4804        	74.4793        	74.55473       	
74.24748       	74.04399       	74.333664      	74.34798       	74.165565      	74.29202       	74.26389       	74.18184       	74.29698       	74.24506       	74.393295      	74.00223       	74.38496       	74.30341       	74.01457       	74.48543       	74.16347       	74.37573       	74.05038       	74.26739       	74.37643       	74.233345      	74.19193       	74.22203       	74.25977       	74.22092       	74.492386      	74.475395      	73.903076      	74.168365      	74.296524      	74.2377        	74.09277       	74.42583       	74.340324      	74.10559       	74.316444      	74.33776       	74.49893       	74.34206       	74.189865      	74.21308       	74.17354       	74.099396      	74.05721       	74.351944      	74.32239       	74.196495      	74.150444      	74.30499       	74.33685       	74.30013       	74.17769       	74.58138       	74.27388       	73.88912       	74.26173       	74.26895       	74.15005       	74.32304       	74.11727       	74.25205       	74.16416       	74.32526       	74.21504       	74.260956      	74.163155      	74.460075      	74.08119       	74.35613       	74.27737       	74.25637       	74.30075       	74.28255       	74.35618       	74.12271       	74.33584       	74.27776       	74.12529       	74.395164      	74.247116      	74.188675      	74.31193       	74.35147       	74.06822       	74.24872       	74.42799       	74.41899       	74.21165       	74.198326      	74.348724      	74.23221       	74.54412       	74.12845       	74.09527       	74.390564      	74.44188       	74.58253       	74.585175      	74.55025       	
74.35868       	74.36073       	74.05474       	74.29438       	74.24326       	74.10105       	74.4999        	74.11681       	74.267944      	74.38203       	74.20607       	74.19821       	74.2168        	74.19254       	74.14397       	74.269424      	74.25649       	74.31014       	74.228485      	74.20848       	74.205         	74.28598       	74.26468       	74.203606      	74.31286       	74.288         	74.645615      	74.25801       	74.08056       	74.18843       	74.25298       	74.13571       	74.21934       	74.31629       	74.20734       	74.27777       	74.003494      	74.38976       	74.595314      	74.430435      	74.06945       	74.13824       	74.24541       	74.26709       	74.2375        	74.11314       	74.371574      	74.20936       	74.109856      	74.378365      	74.3003        	74.236176      	74.268776      	74.15458       	74.49408       	74.26402       	74.17773       	74.18345       	74.11559       	74.26625       	74.24322       	74.00848       	74.164345      	74.147255      	74.2318        	74.39646       	74.268196      	74.25423       	74.14403       	74.15354       	74.30157       	74.2989        	74.42802       	74.02689       	74.31677       	74.27956       	74.283         	74.33146       	74.29861       	74.16593       	74.25252       	74.4373        	74.35101       	74.18581       	74.128365      	74.20321       	74.273285      	74.451645      	74.08809       	74.35245       	74.37513       	74.202415      	74.456085      	74.12705       	74.388214      	74.3305        	74.493454      	74.552055      	74.616745      	74.77653       	
74.35918       	74.21968       	74.14709       	74.37029       	74.07701       	74.384026      	74.25305       	74.280815      	74.200516      	74.18724       	74.36252       	74.5054        	73.993286      	74.31769       	74.38905       	74.18773       	74.19918       	74.18073       	74.24945       	74.33602       	74.3465        	74.32297       	73.909706      	74.190094      	74.24626       	74.40773       	74.53821       	74.32749       	74.22935       	74.24199       	74.37217       	74.04361       	74.19647       	74.02217       	74.263         	74.278366      	74.30273       	74.24662       	74.264626      	74.31228       	74.20227       	74.18479       	74.1942        	74.44959       	74.22742       	74.09408       	74.18967       	74.36167       	74.23076       	74.230446      	74.3166        	74.06206       	74.38377       	74.37382       	74.28518       	74.44862       	73.96682       	74.1786        	74.20942       	74.0616        	74.11292       	74.18857       	74.23307       	74.363525      	74.32032       	73.97948       	74.53328       	74.37012       	74.08876       	74.20406       	74.171364      	74.33764       	74.16574       	74.305046      	74.223495      	74.152534      	74.38744       	74.28115       	74.28515       	74.23917       	74.28609       	74.32423       	74.14088       	74.34839       	74.26481       	74.24287       	74.21013       	74.34578       	74.46488       	74.119896      	74.430504      	74.22882       	74.297295      	74.26931       	74.199356      	74.31264       	74.38768       	74.44269       	74.67063       	74.82423       	
74.06649       	74.158226      	74.25703       	74.4864        	74.11545       	74.320946      	74.27114       	74.27605       	74.28361       	74.201546      	74.13597       	74.36821       	74.04892       	74.425804      	74.16562       	74.28082       	74.26263       	74.22586       	74.150246      	74.305626      	74.37078       	74.24173       	74.19111       	74.2845        	74.03916       	74.398926      	74.44766       	74.134476      	74.302956      	74.36602       	74.21094       	74.31056       	74.2146        	74.02012       	74.25444       	74.2649        	74.32094       	74.186646      	74.212585      	74.2461        	74.24654       	74.07345       	74.503265      	74.24301       	74.36534       	74.04512       	74.38391       	74.2034        	74.21044       	74.29449       	74.1371        	74.14449       	74.34356       	74.24775       	74.398544      	74.274185      	74.10641       	73.99526       	74.1145        	74.01332       	74.28332       	74.29658       	74.2302        	74.045364      	74.28312       	74.149345      	74.61612       	74.104385      	74.11457       	74.376015      	74.09042       	74.33242       	74.219734      	74.42934       	74.30541       	74.08573       	74.267685      	74.321396      	74.302765      	74.15512       	74.39427       	74.19404       	74.31515       	74.1384        	74.265335      	74.36122       	74.45336       	74.296074      	74.450935      	74.22815       	74.2458        	74.22411       	74.27202       	74.25196       	74.29825       	74.366135      	74.299286      	74.503426      	74.68566       	74.64647       	
74.19134       	74.29407       	74.293175      	74.15869       	74.21264       	74.20355       	74.46553       	74.20774       	74.18261       	74.34351       	74.17443       	74.257576      	74.136444      	74.25292       	74.292015      	74.15026       	74.264786      	74.332344      	74.15242       	74.3094        	74.163704      	74.34539       	74.22952       	74.27413       	74.09998       	74.37621       	74.31366       	74.30788       	74.29225       	74.355156      	74.195625      	74.47831       	74.09501       	74.14188       	74.09761       	74.3798        	74.18008       	74.23608       	74.13802       	74.36651       	74.281006      	74.213875      	74.329605      	74.27937       	74.33344       	74.02567       	74.46829       	74.32327       	74.31662       	74.21195       	74.24269       	74.2035        	74.27001       	74.256294      	74.2448        	74.01394       	74.23833       	74.12204       	74.24196       	74.1799        	74.28119       	74.38489       	74.12746       	74.28525       	74.38737       	74.13841       	74.35845       	74.23525       	74.24837       	74.23634       	74.31514       	74.1612        	74.387184      	74.028206      	74.370514      	74.07693       	74.34803       	74.23745       	74.40814       	74.35916       	74.0996        	74.26437       	74.226875      	74.409225      	74.240395      	74.12998       	74.319984      	74.45303       	74.41339       	74.519165      	74.18259       	74.21392       	74.309975      	74.16179       	74.32566       	74.26841       	74.28841       	74.59076       	74.71084       	74.82222       	
74.37938       	74.19538       	74.27807       	74.26455       	74.23353       	74.10099       	74.28785       	74.382355      	74.06439       	74.3542        	74.198135      	74.4335        	74.32536       	74.247826      	74.285614      	74.16917       	74.1883        	74.18015       	74.07379       	74.52149       	74.079254      	74.31957       	74.19901       	74.32029       	74.29425       	74.30088       	74.30461       	74.108955      	74.32423       	74.231026      	74.245834      	74.38836       	74.506996      	74.096306      	74.10627       	74.33983       	74.13383       	74.486984      	73.913         	74.21427       	74.355896      	74.1709        	74.29755       	74.32165       	74.22071       	74.219734      	74.43554       	74.30585       	74.28295       	74.05919       	74.42697       	74.13101       	74.37376       	74.52377       	74.0076        	73.87606       	74.199486      	74.20316       	74.406944      	74.098816      	74.15218       	74.25642       	74.28714       	74.38858       	74.233154      	74.097466      	74.24673       	74.184845      	74.49369       	74.21583       	74.26524       	74.169685      	74.27742       	74.34168       	74.14872       	74.493805      	74.11183       	74.168045      	74.243866      	74.375046      	74.28578       	74.3077        	74.11841       	73.98726       	74.263916      	74.34258       	74.15078       	74.32843       	74.39663       	74.26777       	74.4035        	74.46975       	74.20968       	74.1533        	74.030876      	74.28704       	74.319756      	74.3697        	74.538414      	74.8098        	
74.148735      	74.39288       	74.30285       	74.31077       	74.14544       	74.199165      	74.24689       	74.3922        	74.31552       	74.16266       	74.21611       	74.220215      	74.238365      	74.36507       	74.188995      	74.290184      	74.13178       	74.33773       	74.065125      	74.31119       	74.260086      	74.09424       	74.33182       	74.35294       	74.202095      	74.37951       	74.31513       	74.29265       	74.17473       	74.24199       	74.169876      	74.32479       	74.61709       	74.04973       	73.988625      	74.19075       	74.41591       	74.25379       	74.05717       	74.35083       	74.30455       	74.23126       	74.19993       	74.3966        	74.15303       	74.41892       	74.190834      	74.398224      	74.08216       	74.30136       	74.33827       	74.27565       	74.19551       	74.25056       	74.07686       	74.23569       	74.116455      	74.16069       	74.25469       	74.20023       	74.24386       	74.16089       	74.36914       	74.27384       	74.17478       	74.30396       	74.2481        	74.31769       	74.2896        	74.30542       	74.396164      	74.22117       	74.14204       	74.13151       	74.38961       	74.359024      	74.143394      	74.17512       	74.21397       	74.29998       	74.29164       	74.40258       	74.1984        	74.32985       	74.160225      	74.001045      	74.45084       	74.42303       	74.317184      	74.30281       	74.22938       	74.59091       	74.29025       	74.080986      	73.94521       	74.28666       	74.336464      	74.41967       	74.59802       	74.74225       	
74.312675      	74.302376      	74.181564      	74.14533       	74.27447       	74.23698       	74.20124       	74.19367       	74.39674       	74.34503       	74.27054       	74.058         	74.29062       	74.1253        	74.31673       	74.19046       	74.15175       	74.32262       	74.10246       	74.16122       	74.43067       	74.24999       	74.33481       	74.22119       	74.24958       	74.41958       	74.35483       	74.287865      	73.99976       	74.08783       	74.489746      	74.1931        	74.44039       	74.182335      	74.22508       	74.01638       	74.26748       	74.22572       	74.42577       	74.24937       	74.19749       	74.336685      	74.26983       	74.20928       	74.255196      	74.298775      	74.16161       	74.239555      	74.08905       	74.46794       	74.184364      	74.18788       	74.389984      	74.19599       	74.38654       	74.28016       	74.09221       	74.17608       	74.1534        	74.23453       	74.39984       	74.225426      	74.03571       	74.40477       	74.43269       	74.14364       	74.08397       	74.342255      	74.37371       	74.26512       	74.2162        	74.34624       	74.160225      	74.29606       	74.27653       	74.30979       	74.30429       	74.13755       	74.31883       	74.17881       	74.28191       	74.11865       	74.446304      	74.18941       	74.330864      	74.20938       	74.236206      	74.28389       	74.33008       	74.882774      	74.0612        	73.464485      	73.96124       	75.128395      	73.70129       	71.403915      	73.47268       	68.92555       	73.77386       	74.27838       	
74.22481       	74.23983       	74.1853        	74.39157       	74.14956       	74.1771        	74.404274      	74.22031       	74.23411       	74.3034        	74.13393       	74.40322       	74.37447       	74.10918       	74.20459       	74.30368       	74.239204      	74.36755       	74.180336      	74.119354      	74.32234       	74.26096       	74.25103       	74.22919       	74.3934        	74.22285       	74.3991        	74.27331       	74.218346      	74.05311       	74.32523       	74.0973        	74.30442       	74.39491       	74.16107       	74.16643       	74.16707       	74.217804      	74.30527       	74.457596      	74.26739       	74.216736      	74.227394      	74.23208       	74.18748       	74.18417       	74.3251        	74.39288       	73.72682       	74.93754       	74.94205       	74.00681       	73.5961        	74.93164       	74.746635      	74.31782       	72.39579       	74.22068       	74.375114      	74.16408       	74.2323        	74.28869       	74.24977       	74.22524       	74.44779       	74.0853        	74.157745      	74.35562       	74.32261       	74.252205      	74.15302       	74.24634       	74.332535      	74.291664      	74.214485      	74.19679       	74.304985      	74.214325      	74.263725      	74.119835      	74.25794       	74.204956      	74.53716       	73.986046      	74.26443       	74.16721       	73.90294       	74.237434      	80.58431       	74.13163       	74.54541       	73.39356       	73.02807       	75.14001       	74.7248        	73.91096       	74.26601       	73.777336      	74.35471       	74.38841       	
74.30221       	74.18707       	74.254944      	74.363014      	74.2216        	74.13841       	74.26585       	74.23895       	74.26344       	74.19935       	73.91716       	74.49875       	74.27584       	74.177536      	74.365616      	74.21792       	74.16097       	74.17995       	74.325645      	74.18642       	74.274445      	74.18402       	74.205         	74.25329       	73.91694       	73.74199       	76.11778       	76.10829       	68.94212       	73.76289       	74.52283       	72.073135      	73.65185       	74.419754      	75.8953        	73.26553       	74.01306       	72.66333       	74.07999       	75.632935      	73.233986      	74.24864       	74.21165       	72.49151       	72.54089       	76.97009       	74.32965       	72.41246       	75.70856       	74.02203       	75.35784       	73.8779        	72.91648       	75.18085       	74.51017       	74.02615       	71.77852       	68.75092       	72.69612       	74.226746      	74.26092       	74.30728       	74.34477       	73.98797       	74.42282       	74.30475       	74.23128       	74.308685      	74.326805      	74.12078       	74.22086       	74.32584       	74.333435      	74.23665       	74.309715      	74.30988       	74.157         	74.23531       	74.32335       	74.161545      	74.29218       	74.22387       	74.23849       	74.40196       	74.15502       	74.11655       	73.839714      	75.42492       	80.5591        	74.652565      	74.1944        	74.44052       	74.196465      	74.31081       	74.35124       	74.34041       	74.35235       	74.46083       	74.6057        	74.742836      	
74.34009       	74.19527       	74.153015      	74.34783       	74.234985      	74.28469       	74.14079       	74.35531       	74.351845      	74.14296       	74.12848       	74.097824      	74.55685       	74.09214       	74.23407       	74.31047       	74.273445      	74.01914       	74.27939       	74.27333       	74.43994       	74.19465       	73.93771       	74.26599       	73.80444       	77.61718       	78.33593       	74.450134      	73.51757       	74.392136      	74.24793       	74.0948        	74.1516        	74.40454       	74.427635      	74.35746       	74.50175       	73.984955      	74.340065      	74.31768       	74.20676       	74.48135       	74.170784      	74.3919        	74.02631       	74.323875      	74.20097       	74.303955      	74.2989        	74.155624      	74.134445      	74.26943       	74.227356      	74.441216      	74.542435      	74.48494       	71.79802       	67.80003       	74.23259       	74.212494      	74.232414      	74.17197       	74.31508       	74.280266      	74.27434       	74.135414      	74.36254       	74.32685       	74.1206        	74.145615      	74.31334       	74.161865      	74.38764       	74.064835      	74.36199       	74.22062       	74.32202       	74.29153       	74.201805      	74.31298       	74.31222       	74.23517       	74.13942       	74.28242       	74.25069       	74.19883       	73.62956       	76.66487       	79.321365      	74.45934       	74.05362       	74.40927       	74.3611        	74.18842       	74.292336      	74.2736        	74.57489       	74.41158       	74.43883       	74.39386       	
74.19314       	74.15369       	74.14373       	74.302956      	74.2557        	74.20543       	74.313515      	74.25937       	74.23177       	74.13398       	74.25401       	74.308754      	74.17204       	74.285225      	74.20598       	74.17667       	74.27201       	74.21773       	74.143         	74.222496      	74.31388       	74.07263       	74.14049       	74.27018       	73.78249       	78.36265       	77.996704      	74.59497       	73.94856       	74.39889       	74.17455       	74.16887       	74.29285       	74.19803       	74.40402       	74.176216      	74.29735       	74.21683       	74.12095       	74.3589        	74.36305       	74.19021       	74.22882       	74.29677       	74.37542       	74.372696      	74.09769       	74.17181       	74.16437       	74.30804       	74.25332       	74.48861       	74.02631       	74.50029       	74.54711       	74.38957       	72.26223       	67.78802       	71.63809       	74.288956      	74.13366       	74.228455      	74.2418        	74.36318       	74.174515      	74.28033       	74.261375      	74.379364      	74.2207        	74.04216       	74.41335       	74.1035        	74.38575       	74.21696       	74.142494      	74.36858       	74.24101       	74.21643       	74.29145       	74.11207       	74.34855       	74.15158       	74.31092       	74.38251       	74.08461       	74.156136      	73.997955      	74.87436       	80.75842       	74.30133       	73.4828        	74.30025       	74.47331       	74.21887       	74.139694      	74.25579       	74.43377       	74.369415      	74.47283       	74.48488       	
74.23104       	74.1004        	74.18417       	74.439606      	74.25754       	74.19657       	74.147354      	74.25759       	74.24207       	74.3847        	74.22164       	74.13193       	74.20532       	74.38226       	74.33439       	74.028946      	74.293625      	74.21781       	74.22953       	74.27461       	74.18143       	74.1781        	74.16364       	74.33174       	73.89311       	74.96837       	80.47499       	74.67979       	74.045975      	74.24172       	74.27481       	74.34192       	74.182556      	74.23065       	74.16995       	74.20439       	74.21819       	74.40944       	74.24887       	74.14049       	74.24759       	74.26476       	74.33152       	74.2934        	74.18917       	74.20685       	74.26123       	74.23158       	74.17711       	74.294914      	74.36093       	74.35813       	74.205345      	74.398705      	74.582756      	74.77573       	72.850365      	67.676796      	73.52211       	74.29272       	74.20919       	74.17947       	74.24706       	74.326035      	74.25933       	74.17146       	74.30695       	74.20435       	74.40296       	74.19932       	74.21743       	74.1968        	74.24723       	74.40996       	74.35197       	74.10195       	74.346016      	74.19386       	74.19417       	74.10441       	74.41981       	74.23994       	74.03029       	74.096176      	74.397285      	74.24086       	73.615944      	75.42513       	80.0305        	74.5632        	74.07786       	74.37374       	74.27623       	74.17783       	74.31553       	74.32647       	74.38123       	74.46674       	74.37604       	74.63205       	
74.052734      	74.171684      	74.459915      	74.20833       	74.09035       	74.213394      	74.496216      	74.01462       	74.15468       	74.31401       	74.20697       	74.317406      	74.19296       	74.42425       	74.16836       	74.18372       	74.27623       	74.15539       	74.17676       	74.28505       	74.32958       	74.111916      	74.184814      	74.12457       	74.19357       	73.87452       	80.8738        	75.67015       	74.206085      	74.32084       	74.265594      	73.94657       	73.74362       	74.27447       	74.12647       	74.40526       	74.28365       	74.21998       	74.2121        	74.20112       	74.357155      	74.222885      	74.25482       	74.168785      	74.28929       	74.27442       	74.37172       	74.20811       	74.21663       	74.32812       	74.21744       	74.51942       	74.1653        	74.315         	74.28546       	74.804985      	72.22065       	66.96209       	73.0412        	74.26567       	74.29485       	74.23932       	74.17767       	74.29317       	74.25856       	74.23271       	74.28724       	74.23486       	74.24767       	74.23566       	74.22177       	74.2954        	74.22002       	74.07326       	74.39444       	74.27144       	74.33984       	74.1015        	74.3255        	74.28927       	74.16141       	74.17239       	74.45827       	74.12504       	74.16646       	74.2039        	73.80123       	75.64885       	80.131386      	74.31616       	73.63374       	73.682396      	74.324615      	74.30986       	74.20455       	74.33273       	74.26533       	74.623764      	74.44946       	74.53566       	
74.25865       	74.10617       	74.3042        	74.18629       	74.22657       	74.19715       	74.41866       	74.15598       	74.20361       	74.25102       	74.31265       	74.19997       	74.292366      	74.19888       	74.21627       	74.11355       	74.27394       	74.18328       	74.283325      	74.24227       	74.257416      	74.10141       	74.33238       	74.10168       	73.93148       	74.836136      	81.01324       	74.61046       	74.16848       	74.104034      	74.273056      	74.2144        	74.27119       	74.25445       	74.25567       	74.39583       	74.19541       	74.20702       	74.28689       	74.30108       	74.12582       	74.315575      	74.102585      	74.18644       	74.22556       	74.29083       	74.3173        	74.255035      	74.33691       	74.24212       	74.19705       	74.501755      	74.3002        	74.29922       	74.21638       	74.89614       	72.91306       	66.588135      	73.76379       	74.21733       	74.108116      	74.26482       	74.39022       	74.27584       	74.14251       	74.34409       	74.11716       	74.38261       	74.358765      	74.031204      	74.28902       	74.17929       	74.23744       	74.23537       	74.31149       	74.24752       	74.258965      	74.21829       	74.24824       	74.36019       	74.35855       	74.17338       	74.16554       	74.23929       	74.06024       	74.31501       	73.869026      	73.9533        	81.276146      	74.0088        	74.31659       	74.21639       	74.15966       	74.23718       	74.28465       	74.21518       	74.41675       	74.48039       	74.421715      	74.449326      	
74.21104       	74.35816       	74.38827       	74.11048       	74.10283       	74.293884      	74.354774      	74.25036       	74.07071       	74.31808       	74.15835       	74.303215      	74.40703       	73.9379        	74.46551       	74.160576      	74.28201       	74.27069       	74.12381       	74.35697       	74.09999       	74.28218       	74.117424      	74.11876       	73.79622       	76.66506       	79.50898       	74.35393       	74.133736      	74.29471       	74.18507       	74.30185       	74.273384      	74.21391       	74.27198       	74.23323       	74.22771       	74.20486       	74.33775       	74.313965      	74.12651       	74.28427       	74.367386      	74.17291       	74.17943       	74.2982        	74.23445       	74.38978       	74.190384      	74.24938       	74.307755      	74.221115      	74.31676       	74.30695       	74.37717       	74.72293       	73.19304       	67.88539       	72.5917        	74.135506      	74.2259        	74.239586      	74.02784       	74.43602       	74.24268       	74.11558       	74.35402       	74.115776      	74.31303       	74.21644       	74.184265      	74.31242       	74.26397       	74.11112       	74.39422       	74.37766       	74.22284       	74.2078        	74.24586       	74.24191       	74.38093       	74.13051       	74.05107       	74.31422       	74.109856      	74.21506       	73.68355       	76.52742       	80.2368        	74.395966      	74.350945      	74.17507       	74.29321       	74.28562       	74.25764       	74.32536       	74.464935      	74.42764       	74.48301       	74.486824      	
74.13448       	74.40074       	74.134705      	74.24185       	74.29009       	74.141594      	74.406265      	74.10209       	74.14493       	74.31147       	74.24063       	74.165695      	74.18254       	74.24676       	74.27349       	74.28147       	74.277245      	74.14694       	74.24421       	74.22412       	74.25657       	74.21397       	74.30624       	74.013725      	73.97663       	74.47992       	80.789604      	74.377815      	74.25415       	74.181755      	74.21516       	74.30359       	74.13167       	74.287674      	74.0567        	74.357         	74.316444      	74.267624      	74.197716      	74.239685      	74.299164      	74.32123       	74.27884       	74.208855      	74.211754      	74.29113       	74.40206       	74.09121       	74.15378       	74.47203       	74.40516       	74.120865      	74.091606      	74.32267       	74.51239       	74.54652       	72.451935      	67.901276      	73.172966      	74.18993       	74.17531       	74.2935        	74.28547       	74.114624      	74.4704        	74.02176       	74.27726       	74.3122        	74.160866      	74.27618       	74.27409       	74.29659       	74.16998       	74.267166      	74.30767       	74.214714      	74.27627       	74.2109        	74.295235      	74.29591       	74.04583       	74.236374      	74.215744      	74.3387        	74.15221       	74.18052       	73.986084      	75.65309       	79.92703       	74.44561       	74.244514      	74.287384      	74.37175       	74.257         	74.26272       	74.39672       	74.35463       	74.47148       	74.40775       	74.53534       	
74.22944       	74.294624      	74.1603        	74.277985      	74.22526       	74.19942       	74.287125      	74.234436      	74.299416      	74.15459       	74.26122       	74.21392       	74.27629       	74.273506      	74.14396       	74.36696       	74.18432       	74.21372       	74.19966       	74.23944       	74.22691       	74.32504       	74.069786      	74.166176      	73.91859       	75.1465        	80.1971        	74.657         	74.12527       	74.23497       	74.17894       	74.32763       	74.378525      	74.26587       	74.009766      	74.244286      	74.33143       	74.16351       	74.22686       	74.255455      	74.21217       	74.262276      	74.4132        	74.21257       	74.21584       	74.30364       	74.25162       	74.31986       	74.17656       	74.24945       	74.35964       	74.1905        	74.36016       	74.3614        	74.34084       	74.712715      	73.21895       	67.5518        	72.79676       	74.284225      	74.09311       	74.13978       	74.32118       	74.246666      	74.27323       	74.216064      	74.2239        	74.25922       	74.28881       	74.21272       	74.35141       	74.14078       	74.25554       	74.20993       	74.20856       	74.32374       	74.12221       	74.34954       	74.287315      	74.188866      	74.37605       	74.3991        	74.11998       	74.07576       	74.26008       	74.14755       	73.94812       	75.668335      	79.78378       	74.712364      	74.17295       	74.3362        	74.30096       	74.22295       	74.3832        	74.098915      	74.24976       	74.53258       	74.62774       	74.4699        	
74.14495       	74.24342       	74.28343       	74.19495       	74.20348       	74.4282        	74.0074        	74.33494       	74.341995      	74.27801       	74.05673       	74.1949        	74.52399       	74.24903       	74.11865       	74.14544       	74.0936        	74.35169       	74.16837       	74.32182       	74.28771       	74.208015      	74.0631        	74.11151       	73.98523       	73.182724      	81.32166       	74.18961       	74.3017        	74.23507       	74.26496       	74.23653       	74.302315      	74.26394       	74.14768       	74.401886      	74.10201       	74.35365       	74.16902       	74.15594       	74.15666       	74.34013       	74.50901       	74.144264      	74.185745      	74.25712       	74.16132       	74.3794        	74.222115      	74.35704       	74.23219       	74.29509       	74.236916      	74.39613       	74.397644      	74.540276      	73.57625       	67.229324      	72.119026      	74.298004      	74.31316       	74.21372       	74.22015       	74.247765      	74.349464      	74.24738       	74.232346      	74.29434       	74.11697       	74.34131       	74.27847       	74.16406       	74.32899       	74.14159       	74.29678       	74.14933       	74.28575       	74.323715      	74.05585       	74.22751       	74.38842       	74.299614      	74.02951       	74.25169       	74.29169       	74.16326       	73.81473       	74.01247       	80.79513       	74.27176       	74.2538        	74.2414        	74.2426        	74.40797       	74.351974      	74.203384      	74.27748       	74.449974      	74.47685       	74.37563       	
74.19252       	74.21936       	74.244675      	74.24322       	74.21434       	74.363106      	74.182686      	74.19422       	74.26351       	74.234856      	74.22502       	74.3157        	74.35118       	74.17842       	74.13854       	74.12749       	74.37608       	74.17661       	74.17002       	74.29777       	74.32615       	74.30465       	74.109085      	74.08665       	74.07465       	73.680305      	81.02736       	75.57534       	74.27482       	74.3165        	74.30714       	74.20635       	74.25188       	74.171295      	74.36743       	74.113045      	74.12219       	74.26614       	74.42737       	74.16975       	74.339264      	74.208755      	74.212875      	74.40504       	74.31073       	74.28829       	74.158         	74.278015      	74.39481       	74.168175      	74.24981       	74.3178        	74.31714       	74.26446       	74.28271       	74.719444      	73.27865       	67.77067       	73.0276        	74.45106       	74.26704       	74.22139       	74.109474      	74.18716       	74.42409       	74.18516       	74.17498       	74.25985       	74.175735      	74.30727       	74.36257       	74.21753       	74.202065      	74.28002       	74.28109       	74.24629       	74.219986      	74.29736       	74.24748       	74.31303       	74.22898       	74.17702       	74.29841       	74.21881       	74.12705       	74.12453       	73.89713       	75.34886       	79.99988       	74.40794       	74.1862        	74.239655      	74.25148       	74.26976       	74.17959       	74.26376       	74.32216       	74.436554      	74.62752       	74.461044      	
74.16014       	74.178055      	74.231255      	74.30592       	74.30525       	74.22147       	74.16301       	74.313416      	74.30948       	74.12591       	74.23967       	74.11631       	74.24306       	74.26862       	74.23354       	74.31565       	74.098         	74.44872       	74.24342       	74.1939        	74.16381       	74.13314       	74.17682       	73.96682       	74.068214      	73.644806      	81.138885      	75.43029       	74.20403       	74.19726       	74.19667       	74.4494        	74.22089       	74.30484       	74.31798       	74.00922       	74.42307       	74.15295       	74.082054      	74.46374       	74.279526      	74.14678       	74.15433       	74.41156       	74.20594       	74.36248       	74.28385       	74.232056      	74.22092       	74.31984       	74.450516      	74.25806       	74.20939       	74.35107       	74.52139       	74.49881       	73.52448       	67.94147       	71.436485      	74.30023       	74.27084       	74.07633       	74.4238        	74.25056       	74.13431       	74.397224      	74.14115       	74.413445      	74.17033       	74.116486      	74.265945      	74.38685       	74.21584       	74.142075      	74.31972       	74.37162       	74.16183       	74.23245       	74.14732       	74.4579        	74.14848       	74.2854        	74.242         	74.046585      	74.30411       	74.158615      	74.165565      	73.7228        	80.28297       	75.90689       	74.247765      	74.42926       	74.35254       	74.16267       	74.267914      	74.23757       	74.229004      	74.52416       	74.51704       	74.47653       	
74.2613        	74.35624       	74.11928       	74.26728       	74.25318       	74.16159       	74.21989       	74.20764       	74.3608        	74.1268        	74.34207       	74.2001        	74.043884      	74.21151       	74.22811       	74.2774        	74.14378       	74.36257       	74.159546      	74.37081       	74.233765      	74.266594      	74.17305       	74.02955       	74.14968       	73.34705       	81.30137       	74.546036      	74.17687       	74.33761       	74.2066        	74.22385       	74.19685       	74.38303       	74.08729       	74.28005       	74.321014      	74.40092       	74.303986      	74.21567       	74.2608        	74.251724      	74.19689       	74.246605      	74.15699       	74.42459       	74.32565       	74.24072       	74.158966      	74.33441       	74.169106      	74.413345      	74.16491       	74.11359       	74.30443       	74.520905      	73.35402       	67.86251       	71.899124      	74.277695      	74.26128       	74.3751        	74.18602       	74.20329       	74.2178        	74.25705       	74.24931       	74.28191       	74.310776      	74.37076       	74.04058       	74.212166      	74.1536        	74.44229       	74.289215      	74.168274      	74.27058       	74.12827       	74.22534       	74.42513       	74.19297       	74.24898       	74.215034      	74.298996      	74.05119       	74.34419       	73.65301       	75.64184       	80.107704      	73.99774       	74.17688       	74.27385       	74.16569       	74.33259       	74.34276       	74.232864      	74.36837       	74.49457       	74.68889       	74.46783       	
74.11627       	74.490234      	74.06553       	74.29923       	74.180374      	74.30552       	74.24095       	74.40205       	74.17468       	74.23343       	74.25357       	74.18126       	74.330536      	74.31368       	74.11754       	74.330086      	73.8856        	74.41655       	74.34597       	74.28694       	74.011406      	74.20636       	74.340866      	74.14281       	74.05242       	73.507484      	81.33907       	74.37721       	74.09991       	74.23848       	74.33894       	74.27506       	74.09998       	74.310326      	74.334724      	74.29163       	74.08958       	74.403         	74.25562       	74.107704      	74.39441       	74.215164      	74.25845       	74.236435      	74.265945      	74.21239       	74.24361       	74.354324      	74.13793       	74.24478       	74.37462       	74.18184       	74.27591       	74.43336       	74.33726       	74.83153       	73.34659       	67.89861       	71.44601       	74.13875       	74.329605      	74.20392       	74.23909       	74.33006       	74.271225      	74.24124       	74.39964       	74.21401       	74.08851       	74.4194        	74.168816      	74.28788       	74.30923       	74.15301       	74.15089       	74.33048       	74.426674      	74.06839       	74.169395      	74.304634      	74.27841       	74.271545      	74.214485      	74.17085       	74.062325      	74.32126       	74.08675       	74.32978       	80.83537       	74.587524      	74.204956      	74.32462       	74.28072       	74.27056       	74.43439       	74.30075       	74.341805      	74.30293       	74.55304       	74.45807       	
74.14003       	74.20003       	74.28943       	74.16812       	74.29699       	74.282364      	74.19303       	74.21829       	74.22689       	74.22873       	74.295044      	74.30772       	74.12879       	74.17744       	74.18493       	74.39673       	74.21753       	74.244095      	74.11808       	74.20356       	74.259254      	74.227806      	74.30121       	74.220566      	74.06269       	73.468124      	80.94631       	75.16266       	74.24043       	74.159096      	74.355705      	74.16416       	74.315155      	74.18332       	74.30619       	74.25612       	74.20083       	74.26447       	74.10147       	74.32167       	74.23451       	74.30475       	74.26712       	74.09708       	74.36029       	74.316765      	74.08053       	74.39538       	74.18975       	74.328995      	74.26684       	74.22865       	74.40326       	74.31792       	74.19048       	74.73589       	73.43333       	68.90908       	71.765335      	74.1285        	74.17658       	74.32139       	74.33545       	74.214195      	74.19512       	74.243256      	74.308655      	74.2379        	74.17454       	74.20255       	74.24568       	74.36613       	74.15558       	74.35573       	74.08967       	74.28808       	74.33153       	74.17413       	74.26168       	74.389305      	74.16378       	74.17432       	74.321175      	74.39361       	73.97822       	74.27533       	73.90959       	73.50051       	81.18912       	74.12457       	74.34055       	74.17971       	74.2965        	74.37937       	74.28537       	74.24562       	74.45918       	74.510315      	74.45116       	74.289925      	
74.16034       	74.46902       	74.19457       	74.17485       	74.19626       	74.30972       	74.194954      	74.32711       	74.18628       	74.173485      	74.36854       	74.18744       	74.18468       	74.30859       	74.11476       	74.27237       	74.206985      	74.23732       	74.25552       	74.14081       	74.32447       	73.97045       	74.471306      	74.00449       	74.0797        	73.57925       	80.48831       	75.60006       	74.33412       	74.09868       	74.29484       	74.169495      	74.38962       	74.16709       	74.13833       	74.27076       	74.30073       	74.25529       	74.24825       	74.38344       	74.27916       	74.12254       	74.14536       	74.43119       	74.33323       	74.15522       	74.26767       	74.25699       	74.42023       	74.20915       	74.24549       	74.31133       	74.16185       	74.35492       	73.83189       	74.66168       	74.540665      	69.203964      	70.76451       	74.391205      	74.27263       	74.192184      	74.216644      	74.18706       	74.27936       	74.31825       	74.170845      	74.19567       	74.32248       	74.13471       	74.31091       	74.29752       	74.13538       	74.28702       	74.34173       	74.34954       	74.22673       	74.167305      	74.09808       	74.204956      	74.41354       	74.16837       	74.32888       	74.22721       	74.09335       	74.33491       	73.99768       	73.32979       	79.94615       	77.063705      	74.21138       	74.30588       	74.41236       	74.23988       	74.18871       	74.24709       	74.483955      	74.46994       	74.52206       	74.67744       	
74.20028       	74.2265        	74.14081       	74.32506       	74.25305       	74.10311       	74.25384       	74.37158       	74.17716       	74.32035       	74.24598       	74.12565       	74.406044      	74.13065       	74.2801        	74.25937       	74.216446      	74.223885      	74.36187       	74.263176      	74.16022       	74.28028       	74.116325      	74.204315      	73.89693       	72.87754       	80.9228        	75.7221        	74.25072       	74.13749       	74.2907        	74.18537       	74.342064      	74.33249       	74.01578       	74.50347       	74.15161       	74.29672       	74.173294      	74.33632       	74.31279       	74.17089       	74.01881       	74.30079       	74.30053       	74.403046      	74.20643       	74.29638       	74.16155       	74.28365       	74.146904      	74.45649       	74.26564       	74.11642       	74.48034       	74.467674      	74.19782       	69.860664      	70.411354      	74.28228       	74.11903       	74.21959       	74.395676      	74.2962        	74.141304      	74.27013       	74.28124       	74.255196      	74.212364      	74.183365      	74.440636      	74.16277       	74.207924      	74.15664       	74.46938       	74.179886      	74.276596      	74.13733       	74.35119       	74.32971       	74.08418       	74.409615      	74.184784      	74.28549       	74.0613        	74.25925       	74.212944      	73.45133       	80.945946      	75.28739       	74.25331       	74.18748       	74.34425       	74.40986       	74.257805      	74.19414       	74.52479       	74.54532       	74.557816      	74.46197       	
74.35252       	74.20884       	74.27606       	74.369415      	74.17328       	74.32746       	74.09112       	74.30233       	74.258354      	74.27753       	74.255264      	74.175316      	74.195206      	74.32152       	74.33354       	74.24317       	74.09256       	74.3216        	74.21215       	74.1701        	74.41514       	74.28528       	74.13151       	74.13984       	73.96855       	73.7648        	81.04676       	75.094536      	74.25214       	74.31769       	74.3205        	74.23553       	74.204666      	74.37327       	74.137215      	74.294136      	74.21993       	74.27773       	74.13336       	74.323814      	74.20883       	74.23472       	74.29425       	74.23446       	74.257645      	74.32073       	74.28579       	74.08403       	74.33093       	74.31175       	74.2272        	74.328415      	74.222725      	74.40371       	74.41336       	74.32824       	74.30264       	69.68224       	69.45956       	74.21104       	74.34974       	74.31388       	74.25947       	74.23921       	74.157135      	74.2837        	74.20758       	74.22063       	74.13905       	74.30456       	74.30167       	74.29476       	74.23388       	74.32446       	74.19742       	74.231995      	74.19037       	74.36408       	74.27645       	74.22962       	74.1925        	74.270454      	74.12428       	74.30128       	74.398224      	74.12385       	74.22316       	73.46588       	80.79724       	74.57195       	74.27699       	74.20798       	74.2242        	74.35738       	74.34914       	74.26647       	74.54026       	74.553024      	74.46087       	74.46422       	
74.115845      	74.247765      	74.14326       	74.02955       	74.237366      	74.10746       	74.088295      	74.08881       	74.17277       	73.92269       	73.852585      	74.30077       	73.92222       	74.133835      	74.317184      	74.1303        	74.13396       	74.05651       	74.22699       	74.20007       	74.05086       	74.1572        	74.0632        	74.236305      	74.043045      	74.02141       	80.02934       	75.683334      	74.25836       	74.38169       	73.55538       	74.30908       	73.93465       	74.05646       	74.16226       	74.18112       	74.242004      	74.071335      	73.59339       	73.97511       	74.282486      	74.25207       	74.21007       	73.85191       	74.356575      	73.99689       	73.92771       	74.265686      	74.00699       	74.41252       	74.06511       	74.41387       	74.38808       	74.152054      	74.47147       	74.25872       	74.31251       	69.11049       	68.63947       	74.09832       	74.13474       	73.96507       	74.281654      	74.15605       	73.887665      	74.239944      	74.31555       	73.984695      	74.36119       	74.18558       	74.20143       	73.92272       	74.39217       	74.32678       	74.186005      	74.1378        	74.22913       	74.237236      	74.30825       	74.04535       	74.23246       	74.14713       	73.72495       	74.08584       	74.17444       	74.14746       	73.985504      	73.52914       	81.535126      	73.51979       	74.03492       	73.74128       	74.47129       	74.33512       	74.02991       	73.98282       	74.48814       	74.85826       	74.98314       	74.82539       	
74.0777        	74.27046       	74.23311       	74.38605       	74.27086       	74.12101       	74.28356       	74.341736      	74.105095      	74.34328       	74.20946       	74.349594      	74.07529       	74.296425      	74.22888       	74.29052       	74.24303       	74.14712       	74.27147       	74.28659       	74.149605      	74.008224      	74.3254        	74.21956       	73.895676      	74.02885       	81.00521       	74.630325      	74.1182        	74.202995      	74.20573       	74.16525       	74.40566       	74.13637       	74.34307       	74.20562       	74.215645      	74.348335      	74.24422       	74.33985       	74.15661       	74.08811       	74.32768       	74.265274      	74.24474       	74.14409       	74.35982       	74.469604      	74.03148       	74.22734       	74.35788       	74.32086       	74.16717       	74.28175       	74.521         	74.36836       	74.37011       	69.94761       	69.46139       	74.23967       	74.300835      	74.18901       	74.23964       	74.18931       	74.2541        	74.237724      	74.30167       	74.22186       	74.28317       	74.208496      	74.273026      	74.257614      	74.17159       	74.3935        	74.267555      	74.375084      	74.15341       	74.19503       	74.20317       	74.30767       	74.232994      	74.16795       	74.14369       	74.25168       	74.17129       	74.299         	74.06562       	73.61457       	80.50923       	75.586044      	74.1911        	74.21843       	74.217155      	74.28405       	74.266525      	74.37836       	74.38505       	74.49286       	74.51148       	74.56602       	
74.114044      	74.20461       	74.19661       	74.316696      	74.25362       	74.25074       	74.23113       	74.251915      	74.12512       	74.39727       	74.25899       	74.22683       	74.09442       	74.19403       	74.40369       	74.28893       	74.24115       	74.203735      	74.40796       	74.091194      	74.242355      	74.41931       	74.19011       	74.121506      	73.73794       	73.52456       	81.11333       	74.38246       	74.318306      	74.20746       	74.195816      	74.2495        	74.21874       	74.37734       	74.24001       	74.20258       	74.29018       	74.287025      	74.30063       	74.26258       	74.122406      	74.21174       	74.247375      	74.37137       	74.17965       	74.33477       	74.14209       	74.2886        	74.397896      	74.1924        	74.31658       	74.21112       	74.25706       	74.41372       	74.24285       	74.40756       	74.267914      	70.17266       	66.80125       	74.123276      	74.2255        	74.303024      	74.17432       	74.17331       	74.34167       	74.25795       	74.27577       	74.16598       	74.22436       	74.46178       	74.140144      	74.22226       	74.15934       	74.415825      	74.173744      	74.282135      	74.11037       	74.311424      	74.245056      	74.232544      	74.34675       	74.38066       	74.059845      	74.12447       	74.194374      	74.225266      	74.07069       	73.74411       	80.8825        	74.74692       	74.160484      	74.330376      	74.210655      	74.08079       	74.25755       	74.463165      	74.428444      	74.38214       	74.51022       	74.42213       	
74.1672        	74.275314      	74.083786      	74.28571       	74.40774       	74.19866       	74.26049       	74.42716       	74.157776      	74.08799       	74.34355       	74.35477       	74.299805      	74.17705       	74.153824      	74.341255      	74.27481       	74.186615      	74.25528       	74.17948       	74.323296      	74.130226      	74.274956      	74.119576      	74.147446      	73.836525      	80.39929       	75.75819       	74.427765      	74.259834      	74.19586       	74.20054       	74.22658       	74.30168       	74.248055      	74.34378       	74.01518       	74.350235      	74.280975      	74.274055      	74.1465        	74.26803       	74.28099       	74.41261       	74.0349        	74.31149       	74.22523       	74.39164       	74.190834      	74.2984        	74.24823       	74.17393       	74.360756      	74.300995      	74.36749       	74.67932       	73.97584       	70.208176      	69.67537       	74.19644       	74.388824      	74.09821       	74.262634      	74.258965      	74.234825      	74.33696       	74.18123       	74.24898       	74.23026       	74.28643       	74.18126       	74.328224      	74.29855       	74.17278       	74.147644      	74.32302       	74.27976       	74.20562       	74.19528       	74.38654       	74.159256      	74.1545        	74.23651       	74.32274       	74.379555      	74.11386       	73.82986       	73.19506       	80.24138       	75.36316       	74.159775      	74.256325      	74.07194       	74.45736       	74.205986      	74.27025       	74.28853       	74.33135       	74.593895      	74.52117       	
73.97554       	74.36562       	74.08302       	74.27064       	74.3357        	74.16491       	74.27356       	74.26918       	74.30847       	74.09888       	74.275055      	74.28689       	74.16861       	74.258865      	74.211555      	74.37158       	74.095215      	74.18672       	74.26913       	74.26927       	74.12775       	74.223694      	74.39215       	74.10074       	74.35698       	73.1783        	80.20554       	76.28545       	74.322586      	74.19555       	74.173584      	74.45901       	74.16148       	74.129745      	74.08005       	74.33054       	74.2047        	74.29025       	74.312126      	74.37206       	74.31039       	74.13863       	74.32017       	74.41995       	74.116554      	74.26189       	74.14459       	74.3633        	74.302635      	74.30564       	74.08043       	74.356445      	74.25861       	74.34461       	74.31715       	74.36589       	74.770065      	68.739296      	67.89526       	74.38225       	74.120674      	74.33037       	74.23999       	74.29074       	74.30562       	74.30004       	74.22436       	74.220695      	74.30852       	74.04191       	74.44831       	74.23826       	74.26383       	74.1608        	74.32524       	74.29231       	74.188         	74.30129       	74.264595      	73.98784       	74.40206       	74.1644        	74.25422       	74.23298       	74.20211       	74.148926      	74.0774        	73.18012       	81.1011        	74.26688       	74.10602       	74.368996      	74.17678       	74.232925      	74.19573       	74.21432       	74.28047       	74.4362        	74.60109       	74.48542       	
74.01681       	74.33306       	74.20981       	74.38727       	74.16216       	74.27485       	74.26354       	74.07948       	74.36514       	74.29781       	74.174995      	74.23985       	74.2955        	74.100876      	74.292496      	74.345924      	74.24793       	74.072845      	74.30012       	74.14954       	74.21938       	74.23735       	74.374245      	73.90217       	74.181755      	73.45318       	80.98413       	74.588295      	74.303955      	74.19044       	74.192795      	74.41876       	74.03588       	74.31819       	74.30087       	74.26512       	74.24789       	74.25106       	74.078995      	74.36941       	74.293205      	74.22955       	74.27426       	74.22342       	74.21566       	74.359245      	74.3502        	74.217415      	74.1739        	74.21903       	74.39237       	74.28603       	74.22177       	74.27307       	74.43295       	74.625854      	73.61193       	68.53089       	70.9033        	74.269966      	74.111206      	74.338066      	74.39202       	74.20954       	74.165596      	74.24618       	74.505714      	74.15916       	74.23801       	74.28711       	74.30944       	74.3404        	74.119194      	74.29021       	74.18896       	74.18998       	74.30582       	74.40336       	74.1873        	74.14798       	74.30378       	74.293976      	74.245895      	74.26839       	74.10828       	74.254265      	74.15568       	73.64852       	80.23228       	75.20662       	74.39759       	74.23174       	74.32417       	74.29614       	74.28527       	74.25697       	74.45834       	74.36901       	74.4275        	74.54411       	
74.12475       	74.40426       	74.21833       	74.17501       	74.22433       	74.21603       	74.287506      	74.247215      	74.2708        	74.084145      	74.22314       	74.288         	74.35097       	74.21492       	74.09696       	74.15071       	74.2103        	74.43159       	74.01712       	74.32814       	74.29793       	74.25461       	74.34828       	74.09657       	73.996216      	73.53008       	80.02451       	76.339874      	74.24453       	74.25047       	74.25908       	74.30681       	74.06717       	74.31295       	74.330475      	74.265686      	74.192955      	74.31058       	74.31961       	74.289         	74.07684       	74.28997       	74.48417       	74.155716      	74.10376       	74.31175       	74.2154        	74.35393       	74.059906      	74.35969       	74.33434       	74.31679       	74.2217        	74.29021       	74.39046       	74.67005       	74.49731       	69.64877       	69.18274       	74.40967       	74.184265      	74.25147       	74.35201       	74.11534       	74.17472       	74.33963       	74.34762       	74.296005      	74.143745      	74.2152        	74.26937       	74.25356       	74.24875       	74.3271        	74.176445      	74.21645       	74.25904       	74.26517       	74.187805      	74.34565       	74.19307       	74.30096       	74.228775      	74.2672        	74.39853       	73.97009       	74.13055       	73.398224      	80.557846      	75.95894       	74.110954      	74.314964      	74.261604      	74.26558       	74.4189        	74.29414       	74.42879       	74.46335       	74.57114       	74.458916      	
74.053024      	74.27354       	74.34115       	74.105316      	74.228035      	74.34948       	74.21073       	74.27464       	74.20607       	74.17388       	74.20979       	74.262245      	74.323555      	74.27105       	74.18692       	74.130424      	74.22065       	74.389015      	74.19592       	74.245155      	74.18638       	74.44437       	73.89952       	74.280464      	74.010735      	73.76281       	80.92172       	75.012245      	74.11623       	74.165215      	74.44233       	74.21649       	74.07474       	74.23197       	74.294624      	74.304         	74.159325      	74.2493        	74.30871       	74.09799       	74.14867       	74.2779        	74.35591       	74.37395       	74.140686      	74.1727        	74.298256      	74.361534      	74.32853       	74.2886        	74.265076      	73.91023       	74.42986       	74.31994       	74.451904      	74.45818       	74.54858       	70.03715       	69.47799       	74.28371       	74.24136       	74.29907       	74.38741       	74.07311       	74.22393       	74.11039       	74.31059       	74.32999       	74.226425      	74.227264      	74.3457        	74.28677       	74.12691       	74.333626      	74.32361       	74.258835      	74.071335      	74.33675       	74.31849       	74.26275       	74.13952       	74.27456       	74.167854      	74.25033       	74.28587       	74.28334       	74.18581       	73.70503       	77.4221        	78.75381       	74.24575       	74.46173       	74.0455        	74.14384       	74.204735      	74.37647       	74.43924       	74.60439       	74.611626      	74.52544       	
73.96996       	74.35204       	74.384384      	74.261665      	74.11461       	74.302986      	74.277176      	74.26142       	74.044235      	74.40273       	74.25003       	74.24288       	74.17536       	74.16994       	74.381096      	74.16098       	74.37918       	74.20515       	74.234314      	74.2067        	74.28241       	74.15371       	74.29053       	73.94593       	74.12332       	73.50899       	80.96746       	74.74408       	74.12992       	74.317505      	74.24944       	74.11414       	74.27026       	74.29373       	74.20301       	74.29729       	74.23743       	74.13386       	74.29011       	74.171646      	74.24978       	74.417145      	74.27369       	74.158905      	74.155464      	74.328964      	74.36037       	74.196205      	74.1626        	74.290955      	74.42325       	74.20051       	74.148605      	74.35125       	74.305534      	74.28174       	74.7917        	70.18873       	69.65707       	74.34504       	74.245285      	74.31691       	74.366554      	74.13996       	74.28293       	74.08671       	74.13099       	74.38249       	74.153824      	74.25611       	74.31806       	74.25081       	74.28284       	74.25082       	74.23798       	74.319496      	74.34683       	74.05726       	74.04345       	74.368996      	74.29815       	74.31596       	74.195885      	74.069244      	74.35317       	74.35384       	73.97668       	73.716515      	78.37701       	77.37615       	74.41438       	74.23991       	74.32          	74.23745       	74.28772       	74.440414      	74.5068        	74.42646       	74.346466      	74.42489       	
74.23414       	74.24249       	74.28835       	74.26751       	74.19722       	74.186295      	74.30229       	74.30911       	74.318954      	74.18678       	74.157166      	74.44194       	74.10552       	74.32767       	74.14981       	74.186455      	74.23881       	74.26695       	74.349594      	74.09456       	74.31405       	74.29586       	74.09616       	74.30543       	73.80217       	73.01081       	80.83652       	75.655426      	74.26463       	74.224304      	74.26586       	74.20592       	74.244484      	74.3941        	74.1489        	74.140396      	74.32121       	74.273994      	74.279755      	74.24393       	74.24393       	74.218544      	74.34731       	74.31316       	74.25227       	74.351425      	74.106476      	74.20542       	74.441795      	74.16771       	74.30953       	74.23396       	74.31633       	74.44893       	74.2591        	74.28527       	74.871346      	70.70581       	68.70286       	74.232254      	74.28805       	74.27337       	74.15144       	74.3926        	74.205414      	74.25502       	74.21834       	74.19184       	74.30549       	74.162285      	74.31558       	74.265175      	74.264595      	74.22857       	74.349556      	74.2172        	74.15009       	74.192856      	74.14196       	74.477936      	74.250435      	74.23043       	74.26603       	74.07952       	74.28658       	74.22978       	74.173775      	73.22418       	79.77932       	76.7338        	74.269455      	74.25121       	74.30454       	74.147644      	74.41771       	74.16864       	74.3838        	74.54188       	74.59136       	74.42516       	
73.992805      	74.16612       	74.27001       	74.3637        	74.21215       	74.127686      	74.307335      	74.453514      	74.1584        	74.2354        	74.2052        	74.05325       	74.53693       	74.1263        	74.21852       	74.375374      	74.19276       	74.18396       	74.36495       	74.15314       	74.22381       	74.37607       	74.02493       	74.29851       	74.21685       	73.22931       	81.02495       	74.754745      	74.30482       	74.262634      	74.2489        	74.13545       	74.32336       	74.15086       	74.45736       	74.16746       	74.2242        	74.02771       	74.45346       	74.261406      	74.227295      	74.35676       	74.28787       	74.21656       	74.28822       	74.20142       	74.41844       	74.01543       	74.32781       	74.39535       	74.213806      	74.23866       	74.26354       	74.14427       	74.294525      	74.4517        	75.07147       	70.99562       	67.07022       	74.26876       	74.30152       	74.23768       	74.24793       	74.19891       	74.25629       	74.19333       	74.25066       	74.32601       	74.28864       	74.044716      	74.300095      	74.202156      	74.40586       	74.296165      	74.0687        	74.35607       	74.325584      	74.27929       	74.13174       	74.24835       	74.27037       	74.23753       	74.159485      	74.23917       	74.14811       	74.18931       	74.265305      	73.4213        	79.94356       	75.87441       	74.22044       	74.35864       	74.1905        	74.318054      	74.4191        	74.31661       	74.250084      	74.381584      	74.65657       	74.43189       	
74.30145       	74.179016      	74.245094      	74.34109       	74.160965      	74.149216      	74.474724      	74.23203       	74.26585       	74.15154       	74.221664      	74.33358       	74.17379       	74.189964      	74.38773       	74.14406       	74.29679       	74.201195      	74.23471       	74.136024      	74.31066       	74.226295      	74.0521        	74.364265      	74.16234       	73.29303       	79.52924       	76.83886       	74.42566       	74.32717       	74.037575      	74.35769       	74.202156      	74.25882       	74.25157       	74.32422       	74.11835       	74.28193       	74.21764       	74.22031       	74.463455      	74.258644      	74.16553       	74.11173       	74.2853        	74.322174      	74.23512       	74.2795        	74.32539       	74.30775       	74.227844      	74.34167       	74.39194       	74.192444      	74.34397       	74.61416       	74.687584      	70.834656      	68.61249       	74.15932       	74.35001       	74.247406      	74.33274       	74.265045      	74.10143       	74.17754       	74.47752       	74.21103       	74.084305      	74.209114      	74.28883       	74.28314       	74.253494      	74.24001       	74.35269       	74.182396      	74.1698        	74.22073       	74.414566      	74.14868       	74.24315       	74.240295      	74.15792       	74.39386       	74.1           	74.106255      	74.11098       	73.46121       	80.06812       	76.048836      	74.227036      	74.32333       	74.21242       	74.219986      	74.75998       	76.0601        	73.42468       	72.29217       	73.4498        	74.073265      	
74.144455      	74.13857       	74.28746       	74.22843       	74.235245      	74.26502       	74.33259       	74.09062       	74.40726       	74.18497       	74.137695      	74.378845      	74.19407       	74.18514       	74.4278        	74.18028       	74.20343       	74.19639       	74.09387       	74.255104      	74.28138       	74.21414       	74.23907       	74.21935       	74.18673       	73.74306       	77.274445      	78.60567       	74.36218       	74.22679       	74.07016       	74.29044       	74.21987       	74.29313       	74.30003       	74.17994       	74.268364      	74.22076       	74.23389       	74.32496       	74.3692        	74.17966       	74.08663       	74.2931        	74.347496      	74.20387       	74.22026       	74.24405       	74.40269       	74.1118        	74.2855        	74.24921       	74.33282       	74.2664        	74.1484        	74.3734        	74.98287       	69.90037       	66.7872        	74.16506       	74.310486      	74.25169       	74.31116       	74.2272        	74.13229       	74.3168        	74.35654       	74.099075      	74.13657       	74.266235      	74.369194      	74.32586       	73.996864      	74.320885      	74.15498       	74.30378       	74.33863       	74.2593        	74.15817       	74.205734      	74.2236        	74.29652       	74.232956      	74.16093       	74.264145      	74.24907       	74.08607       	73.81039       	77.441414      	75.629814      	74.80929       	74.14951       	73.839516      	76.573         	78.266136      	77.87142       	74.9371        	71.49255       	67.489456      	71.10272       	
74.14953       	74.22339       	74.34609       	74.32816       	74.03306       	74.32497       	74.30699       	74.161705      	74.33047       	74.132675      	74.269356      	74.28812       	74.232864      	74.15756       	74.35081       	74.17456       	74.26069       	74.228294      	74.202255      	74.1742        	74.15948       	74.249565      	74.189476      	74.4638        	73.98149       	73.85519       	76.14884       	79.06586       	73.84454       	73.60253       	74.22823       	73.6462        	74.03054       	74.88429       	73.782196      	74.21114       	74.15106       	73.876495      	73.29774       	74.19487       	74.22156       	74.29688       	73.32114       	73.58937       	75.39926       	73.566284      	74.105354      	73.78726       	74.754         	73.109276      	73.31466       	73.53781       	74.526566      	74.4289        	74.2019        	73.039215      	75.26548       	70.784904      	67.6899        	74.35803       	74.17232       	74.39714       	74.47528       	73.82245       	74.29265       	74.321075      	74.20712       	74.21541       	74.27091       	74.18794       	74.269966      	74.32212       	74.09835       	74.14308       	74.31154       	74.20554       	74.41078       	74.37262       	74.29238       	74.050224      	74.18047       	74.47428       	74.32314       	74.13818       	74.207405      	74.36634       	74.105675      	74.127464      	74.33133       	74.455124      	74.26965       	74.06224       	74.164566      	79.23704       	81.47519       	78.308235      	72.83945       	72.41196       	73.98764       	60.36945       	
74.28441       	74.42736       	74.25296       	74.23727       	74.22232       	74.220764      	74.36412       	74.22527       	74.12218       	74.49864       	73.91923       	74.45025       	74.32392       	74.269135      	74.15024       	74.1705        	74.27893       	74.363914      	74.05122       	74.26064       	74.30424       	74.264694      	74.234184      	74.34465       	74.1302        	74.22322       	74.12148       	74.99324       	74.654465      	74.17659       	73.85877       	73.95234       	74.29464       	74.70097       	74.635506      	73.1533        	75.187584      	73.6034        	73.91841       	73.944176      	74.43352       	74.46388       	74.10337       	74.19909       	74.493935      	74.02724       	74.307755      	74.425575      	74.04743       	74.23025       	74.21648       	74.12693       	74.22568       	74.20748       	74.31476       	74.30901       	73.97766       	74.15032       	74.19617       	74.31755       	74.19394       	74.27579       	74.45646       	74.01974       	74.26114       	74.23073       	74.345436      	74.183815      	74.29333       	74.19579       	74.32614       	74.09356       	74.329056      	74.18618       	74.26774       	74.2036        	74.33455       	74.27379       	74.3517        	74.01213       	74.37813       	74.21259       	74.38992       	74.14791       	74.30427       	74.142006      	74.27791       	74.18188       	74.387054      	74.428764      	74.29974       	74.232864      	74.25936       	73.82065       	76.73975       	78.47099       	72.539764      	66.39177       	69.95272       	73.94967       	
74.26306       	74.46578       	74.07759       	74.13729       	74.3988        	74.15025       	74.33091       	74.20016       	74.18422       	74.20031       	74.259735      	74.271675      	74.24732       	74.368965      	74.121605      	74.14921       	74.37526       	74.198814      	74.21426       	74.26849       	74.33679       	74.271385      	74.23213       	74.19188       	74.09872       	74.283005      	74.28186       	74.48989       	74.012764      	74.224846      	74.252495      	74.2898        	74.21175       	74.31212       	74.13311       	74.313995      	74.22604       	74.15485       	74.2978        	74.26356       	74.282036      	74.26204       	74.39868       	74.31515       	74.11572       	74.2723        	74.40244       	74.29161       	74.25312       	73.99811       	74.42474       	74.28148       	74.039185      	74.28167       	74.10226       	74.282585      	74.383026      	74.09494       	74.08747       	74.29611       	74.16386       	74.22522       	74.48271       	74.38139       	74.11393       	74.12773       	74.21893       	74.28665       	74.41758       	74.078865      	74.172676      	74.25214       	74.349335      	74.143105      	74.34929       	74.22965       	74.242035      	74.245865      	74.35607       	74.2466        	74.37793       	74.14755       	74.11514       	74.30313       	74.2944        	74.3191        	74.30508       	74.18912       	74.45365       	74.63045       	74.126785      	74.24336       	74.25098       	73.97857       	74.52783       	74.45356       	74.50404       	74.59503       	74.67618       	74.61028       	
74.31581       	74.263405      	74.20438       	74.278015      	74.2968        	74.179085      	74.167015      	74.296585      	74.288376      	74.20788       	74.18345       	74.336914      	74.31496       	74.15484       	74.19591       	74.37882       	74.272675      	74.09946       	74.188225      	74.37829       	74.270584      	74.26115       	74.18926       	74.24449       	74.24562       	74.210815      	74.345146      	74.43976       	74.12314       	74.19229       	74.236855      	74.16451       	74.26416       	74.20923       	74.25048       	74.452484      	74.29964       	74.057274      	74.05811       	74.43601       	74.53933       	74.01079       	74.178635      	74.09117       	74.35008       	74.2161        	74.54605       	74.433365      	73.996056      	74.194084      	74.49204       	74.12264       	74.16677       	74.3314        	74.15239       	74.25815       	74.17767       	74.17952       	74.148964      	74.06522       	74.38428       	74.19563       	74.45222       	74.17692       	74.29249       	74.06447       	74.3901        	74.268524      	74.15663       	74.29563       	74.37862       	74.12368       	74.41993       	74.17354       	74.18736       	74.2899        	74.26285       	74.236946      	74.262314      	74.36614       	74.192604      	74.25965       	74.44915       	74.24929       	74.193794      	74.162186      	74.250275      	74.36727       	74.39722       	74.43734       	74.231705      	74.1331        	74.15062       	74.32478       	74.349106      	74.43248       	74.1516        	74.41958       	74.6884        	74.68164       	
74.22887       	74.10615       	74.32669       	74.227196      	74.26598       	74.34204       	74.20253       	74.3147        	74.28779       	74.16413       	74.34371       	74.27117       	74.26609       	74.18586       	74.296265      	74.21437       	74.149506      	74.34512       	74.21681       	74.165596      	74.30847       	74.249374      	74.297005      	74.1643        	74.378845      	74.335266      	74.11087       	74.35922       	74.300934      	74.33354       	74.16318       	74.2399        	74.26692       	74.30736       	74.23482       	74.39119       	74.36365       	74.10789       	74.13475       	74.144615      	74.41241       	74.071075      	74.130165      	74.278404      	74.19618       	74.397675      	74.20678       	74.337616      	74.31221       	74.238205      	74.35169       	74.24241       	74.09531       	74.30169       	74.1405        	74.327156      	74.20732       	74.100235      	74.15208       	74.520004      	73.98709       	74.26244       	74.29555       	74.34502       	74.174416      	74.04229       	74.2786        	74.30901       	74.211044      	74.39528       	74.071045      	74.30306       	74.29149       	74.076035      	74.38096       	74.254974      	74.32615       	74.06378       	74.26404       	74.392914      	74.354576      	74.263336      	74.234314      	74.010735      	74.283676      	74.24537       	74.34699       	74.33015       	74.30014       	74.54016       	74.33496       	74.15016       	74.08767       	74.30037       	74.27177       	74.21553       	74.20916       	74.495346      	74.549286      	74.473465      	
74.13945       	74.39681       	74.30351       	74.11746       	74.29882       	74.20797       	74.25315       	74.25565       	74.33633       	74.13847       	74.30254       	74.19351       	74.18062       	74.42966       	74.15208       	74.311745      	74.255615      	74.31085       	74.2547        	74.11077       	74.264305      	74.31267       	74.31451       	74.26492       	74.13549       	74.25343       	74.22009       	74.63309       	74.18142       	74.09586       	74.2641        	74.13213       	74.37028       	74.127205      	74.2144        	74.56998       	74.37565       	74.10465       	74.3093        	74.10565       	74.07962       	74.362175      	74.10103       	74.24042       	74.439445      	74.15542       	74.195244      	74.30661       	74.31838       	74.252686      	74.23218       	74.258446      	74.32129       	74.25412       	74.13859       	74.25065       	74.219604      	74.15776       	74.33801       	74.10734       	74.28526       	74.149765      	74.22886       	74.45821       	74.16723       	74.15638       	74.34558       	74.170334      	74.24383       	74.364746      	74.24369       	74.298195      	74.21255       	74.26136       	74.25721       	74.226746      	74.19965       	74.22278       	74.42385       	74.242165      	74.2085        	74.30333       	74.15502       	74.189384      	74.21682       	74.46047       	74.22458       	74.23822       	74.44791       	74.435425      	74.457085      	74.1469        	74.070564      	74.40616       	74.30043       	74.19649       	74.35529       	74.46945       	74.38517       	74.3306        	
74.3781        	74.251755      	74.17902       	74.34302       	74.01831       	74.37761       	74.302826      	74.18982       	74.23129       	74.33773       	74.142426      	74.25882       	74.31907       	74.15293       	74.27179       	74.301         	74.3327        	74.266335      	74.09681       	74.23029       	74.286804      	74.29873       	74.23648       	74.128624      	74.33973       	74.267426      	74.28918       	74.5673        	74.22379       	74.11426       	74.11688       	74.265335      	74.25097       	74.18057       	74.19677       	74.29666       	74.323906      	74.32491       	74.1264        	74.21741       	74.18701       	74.20316       	74.3103        	74.3345        	74.15403       	74.24499       	74.39532       	74.30122       	74.191925      	74.17118       	74.38713       	74.1368        	74.32112       	74.480865      	74.05753       	74.1999        	74.380844      	74.078606      	74.23874       	74.16668       	74.271736      	74.101715      	74.27506       	74.18341       	74.3391        	74.22725       	74.22443       	74.31354       	74.24142       	74.238884      	74.15596       	74.346756      	74.309586      	74.24843       	74.20948       	74.237885      	74.32765       	74.18542       	74.35945       	74.310585      	74.19522       	74.361084      	74.21235       	74.202225      	74.436455      	74.23948       	74.117424      	74.30545       	74.44805       	74.41512       	74.192764      	74.18262       	74.175         	74.363716      	74.27324       	74.203186      	74.475685      	74.53453       	74.334404      	74.25685       	
74.26509       	74.19695       	74.184975      	74.27473       	74.12779       	74.29566       	74.20122       	74.29994       	74.217834      	74.32596       	74.23684       	74.301575      	74.11148       	74.247856      	74.20167       	74.24628       	74.35485       	74.310356      	74.03192       	74.419586      	74.3266        	74.25794       	74.146385      	74.337135      	74.18855       	74.355705      	74.28633       	74.55562       	74.28856       	74.204185      	74.14693       	74.23646       	74.21182       	74.14029       	74.24232       	74.33326       	74.15562       	74.18034       	74.43499       	74.18529       	74.3176        	73.93632       	74.34469       	74.35946       	74.18928       	74.231514      	74.11959       	74.404884      	74.23363       	74.32812       	74.27229       	74.24782       	74.36343       	74.39927       	74.20686       	74.351944      	74.2439        	73.9254        	74.27683       	74.26603       	74.18604       	74.26969       	74.105415      	74.20113       	74.32891       	74.1694        	74.37673       	74.36213       	74.129906      	74.17448       	74.24375       	74.31742       	74.367226      	74.27849       	74.052666      	74.284096      	74.302574      	74.2278        	74.33995       	74.30843       	74.20868       	74.308235      	74.44543       	74.136246      	74.18268       	74.25799       	74.306816      	74.25402       	74.3803        	74.43035       	74.35752       	74.28037       	73.94463       	74.36584       	74.31846       	74.37658       	74.3902        	74.388824      	74.31703       	74.45819       	
74.31975       	74.13737       	74.10974       	74.451675      	74.1493        	74.16986       	74.354485      	74.178345      	74.409485      	74.32667       	74.114975      	74.26899       	74.109505      	74.29737       	74.288345      	74.30341       	74.098976      	74.18556       	74.26537       	74.20453       	74.27049       	74.32119       	74.22515       	74.27442       	74.100464      	74.28203       	74.31289       	74.37588       	74.39054       	74.357475      	74.21582       	74.06604       	74.20414       	74.31687       	74.20915       	74.23191       	74.331924      	74.21123       	74.230194      	74.20459       	74.44506       	74.15635       	74.266785      	74.273         	74.16875       	74.275         	74.368034      	74.29167       	74.146866      	74.31374       	74.258865      	74.374146      	74.185104      	74.42137       	74.21683       	74.13527       	74.18239       	74.352165      	74.15348       	74.04581       	74.22124       	74.2426        	74.148735      	74.25272       	74.252625      	74.36033       	74.23832       	74.19056       	74.3558        	74.23492       	74.10437       	74.29001       	74.30125       	74.26505       	74.21797       	74.21505       	74.43056       	74.21338       	74.21834       	74.30788       	74.118835      	74.38085       	74.30189       	74.34679       	74.20246       	74.3126        	74.0844        	74.33452       	74.480354      	74.623886      	74.21038       	74.09751       	74.035675      	74.326454      	74.248695      	74.271935      	74.49315       	74.44617       	74.731705      	74.563354      	
74.14497       	74.37713       	74.16211       	74.254585      	74.19008       	74.307724      	74.21509       	74.22141       	74.22012       	74.329475      	74.112206      	74.22593       	74.378136      	74.17777       	74.33637       	74.2319        	74.23651       	74.329834      	74.12181       	74.25751       	74.286316      	74.199356      	74.20191       	74.21209       	74.37608       	74.245636      	74.257545      	74.3574        	74.21869       	74.25307       	74.32799       	74.12204       	74.175064      	74.33009       	74.23818       	74.26593       	74.417114      	73.99215       	74.30628       	74.263336      	74.30178       	74.22693       	74.21985       	74.211296      	74.407875      	74.14572       	74.196045      	74.28213       	74.29986       	74.22701       	74.182915      	74.482376      	74.32785       	74.35067       	74.284874      	74.082726      	74.315704      	74.255356      	73.88868       	74.34361       	74.15565       	74.37351       	74.22557       	74.029106      	74.24535       	74.28929       	74.29547       	74.20705       	74.29568       	74.197365      	74.2455        	74.1669        	74.3813        	74.14449       	74.386734      	74.18563       	74.274605      	74.3337        	74.19965       	74.20478       	74.2976        	74.305275      	74.23818       	74.24641       	74.20003       	74.20736       	74.323524      	74.30753       	74.449844      	74.41956       	74.31804       	74.25107       	74.309525      	74.205086      	74.34913       	74.19908       	74.694046      	74.47442       	74.33747       	74.50809       	
74.14808       	74.05929       	74.4129        	74.239365      	74.14855       	74.30548       	74.18005       	74.31115       	74.28828       	74.300606      	74.15341       	74.21125       	74.42301       	74.16443       	74.300606      	74.16238       	74.29096       	74.1961        	74.343636      	74.16011       	74.19065       	74.10733       	74.34334       	74.30794       	74.34218       	74.123985      	74.335106      	74.20432       	74.417656      	74.15258       	74.40405       	74.27114       	74.10425       	74.297905      	74.25257       	74.34094       	74.19169       	74.101326      	74.26343       	74.3222        	74.25277       	74.18056       	74.2982        	74.20453       	74.39943       	74.22131       	74.21624       	74.25091       	74.32786       	74.164116      	74.32122       	74.371956      	74.149284      	74.306915      	74.13639       	74.3591        	74.24673       	74.27407       	74.01717       	74.02913       	74.44017       	74.32209       	74.21121       	74.06868       	74.21584       	74.27824       	74.28025       	74.24947       	74.23591       	74.35458       	74.09096       	74.33609       	74.29414       	74.18416       	74.276344      	74.310936      	74.24382       	74.379974      	74.20204       	74.28857       	74.286125      	74.145996      	74.32815       	74.20104       	74.24641       	74.1879        	74.29041       	74.26337       	74.402794      	74.23124       	74.27178       	74.41934       	74.233574      	74.25558       	74.34679       	74.20106       	74.33743       	74.53766       	74.3577        	74.61341       	
74.30281       	74.19797       	74.21954       	74.309204      	74.0929        	74.41586       	74.18984       	74.13502       	74.2332        	74.20781       	74.35918       	74.18532       	74.33577       	74.33542       	74.36779       	74.10566       	74.188446      	74.259636      	74.25784       	74.26635       	74.37258       	74.126366      	74.328476      	74.27185       	74.26997       	74.11795       	74.243195      	74.380775      	74.22231       	74.469734      	74.13851       	74.14069       	74.24468       	74.2158        	74.21061       	74.26857       	74.17022       	74.314125      	74.36135       	74.15117       	74.21309       	74.26786       	74.14497       	74.13404       	74.442444      	74.282         	74.26223       	74.31292       	74.24778       	74.312706      	74.322296      	74.091995      	74.129036      	74.53702       	74.23182       	74.39147       	74.145935      	74.078354      	74.18214       	74.22109       	74.10425       	74.218285      	74.41254       	74.18979       	74.3367        	74.15394       	74.25995       	74.20857       	74.21365       	74.394165      	74.201164      	74.219475      	74.10661       	74.39304       	74.362915      	74.24058       	74.35616       	74.25033       	74.13734       	74.49654       	74.20746       	74.0947        	74.38018       	74.23828       	74.17833       	74.33964       	74.18832       	74.22151       	74.396904      	74.44154       	74.267235      	74.361824      	74.34429       	74.29695       	74.066574      	74.32723       	74.3631        	74.65314       	74.37091       	74.52486       	
74.225784      	74.2379        	74.2487        	74.22999       	74.25982       	74.33388       	74.23815       	74.14008       	74.17951       	74.39675       	74.299065      	74.3304        	74.12074       	74.291084      	74.13724       	74.411934      	74.20576       	74.15356       	74.21061       	74.27242       	74.33089       	74.22186       	74.2541        	74.29631       	74.13068       	74.2497        	74.26341       	74.69058       	74.2256        	74.24836       	74.239075      	74.32469       	74.13029       	74.1514        	74.2304        	74.28361       	74.39427       	74.20172       	74.22554       	74.15564       	74.37827       	74.24738       	74.13885       	74.31014       	74.29925       	74.320114      	74.13108       	74.27745       	74.202774      	74.15607       	74.378555      	74.317986      	74.3838        	74.368454      	74.03388       	74.36692       	74.22743       	74.334595      	73.84276       	74.1277        	74.27478       	74.230545      	74.3843        	74.09375       	74.14297       	74.37936       	74.22509       	74.33609       	74.212006      	74.27476       	74.23928       	74.19644       	74.38286       	74.19047       	74.343025      	74.329735      	74.06024       	74.29656       	74.161736      	74.322876      	74.29785       	74.22743       	74.383446      	74.09132       	74.37596       	74.38171       	74.21615       	74.1594        	74.15815       	74.579384      	74.04896       	74.478775      	74.60649       	74.176704      	74.46233       	74.37871       	74.28441       	74.701385      	74.456566      	74.52796       	
74.08127       	74.40759       	74.163246      	74.152405      	74.16258       	74.37627       	74.19263       	74.337166      	74.14086       	74.27258       	74.17853       	74.398926      	74.085785      	74.36409       	74.198685      	74.284454      	74.34572       	74.09021       	74.41285       	74.261604      	74.16191       	74.38687       	74.13851       	74.3754        	74.05266       	74.28808       	74.29374       	74.44651       	74.24159       	74.249565      	74.3579        	74.16675       	74.14074       	74.342606      	74.17266       	74.240425      	74.34128       	74.14308       	74.33515       	74.20518       	74.154         	74.33795       	74.24552       	74.18702       	74.352234      	74.395454      	74.22922       	74.18963       	74.25184       	74.38766       	74.21768       	74.09909       	74.13662       	74.53037       	74.16274       	74.215836      	74.256165      	74.30313       	73.95037       	74.23618       	74.18305       	74.38921       	74.22385       	74.11423       	74.18708       	74.323616      	74.23792       	74.23639       	74.343925      	74.151665      	74.32885       	74.325874      	74.247665      	74.29581       	74.16412       	74.278496      	74.281624      	74.29858       	74.40069       	74.15972       	74.27429       	74.244965      	74.225655      	74.34793       	74.1661        	74.24787       	74.27006       	74.35581       	74.12884       	74.410866      	74.40395       	74.39023       	74.20041       	74.45916       	74.486374      	74.275444      	74.2127        	74.42709       	74.49331       	74.56459       	
74.09985       	74.33126       	74.168846      	74.2856        	74.238396      	74.25066       	74.28803       	74.12992       	74.29561       	74.355064      	74.07856       	74.35104       	74.032715      	74.32198       	74.42289       	74.18266       	74.35855       	74.286255      	74.19325       	74.403885      	74.01726       	74.28711       	74.27147       	74.14691       	74.20647       	74.4392        	74.2235        	74.391426      	74.45646       	74.211655      	74.11541       	74.288795      	74.14462       	74.2548        	74.22332       	74.22015       	74.22246       	74.422935      	74.150566      	74.467575      	74.02395       	74.31509       	74.374245      	74.12635       	74.470276      	74.28837       	74.22173       	73.97162       	74.34306       	74.340454      	74.22529       	74.17046       	74.24417       	74.35497       	74.29762       	74.40583       	74.11669       	73.91105       	74.13344       	74.27478       	74.380356      	74.080284      	74.09504       	74.228455      	74.34158       	74.48568       	74.106224      	74.224365      	74.26476       	74.35249       	74.25915       	74.031784      	74.3028        	74.30001       	74.40836       	74.11691       	74.38136       	74.42077       	74.306465      	74.09471       	74.17324       	74.34484       	74.23177       	74.24868       	74.23397       	74.27946       	74.28904       	74.19568       	74.33342       	74.76526       	74.26643       	74.19583       	74.397354      	74.15893       	74.20116       	74.2991        	74.371475      	74.51595       	74.60785       	74.60164       	
74.288475      	74.18638       	74.347         	74.16404       	74.212944      	74.28944       	74.195274      	74.34879       	74.31214       	74.236534      	74.26424       	74.202644      	74.2208        	74.37699       	74.28538       	74.16744       	74.26149       	74.44271       	74.22002       	74.17922       	74.210266      	74.33138       	74.142166      	74.424         	74.125145      	74.14936       	74.34312       	74.52674       	74.34189       	74.122185      	74.14108       	74.31659       	74.06328       	74.2669        	74.30223       	74.23327       	74.07161       	74.35939       	74.298515      	74.31397       	74.22039       	74.29406       	74.31599       	74.51148       	74.1604        	74.378265      	74.05392       	74.06186       	74.17979       	74.46515       	74.16447       	74.087326      	74.56918       	74.25637       	74.17223       	74.3585        	74.1697        	74.10615       	74.12181       	74.05775       	74.29735       	74.19927       	74.36265       	74.182365      	74.40168       	74.28127       	74.08856       	74.28684       	74.20965       	74.24841       	74.25135       	74.165565      	74.13078       	74.37734       	74.455734      	74.03727       	74.24654       	74.29822       	74.25519       	74.310265      	74.266304      	74.27133       	74.312256      	74.209526      	74.34856       	74.19707       	74.255516      	74.31188       	74.23539       	74.60936       	74.279465      	74.24642       	74.103195      	74.345024      	74.32007       	74.17199       	74.50957       	74.742874      	74.59306       	74.56144       	
74.14188       	74.17978       	74.3124        	74.20744       	74.09857       	74.42426       	74.29788       	74.283516      	74.264114      	74.16332       	74.5001        	74.13686       	74.18477       	74.42049       	74.13399       	74.13526       	74.29099       	74.27778       	74.21495       	74.23031       	74.27136       	74.15115       	74.31002       	74.301254      	74.268265      	74.151726      	74.36821       	74.63227       	74.18507       	74.1198        	74.15529       	74.19369       	74.32154       	74.532585      	73.921455      	74.17398       	74.34586       	74.273         	74.32029       	74.14256       	74.14099       	74.45175       	74.48494       	74.19117       	74.358986      	74.07937       	74.06841       	74.39401       	74.27016       	74.06048       	74.121025      	74.479744      	74.26688       	74.31993       	74.28141       	74.17759       	74.30015       	74.029205      	74.12001       	74.245316      	74.166855      	74.37848       	74.40221       	74.11712       	74.16965       	74.267         	74.26573       	74.426636      	74.187515      	74.31633       	74.19147       	74.25843       	74.145485      	74.45951       	74.143715      	74.239685      	74.16248       	74.306946      	74.26014       	74.383446      	74.23568       	74.15103       	74.28916       	74.23856       	74.42502       	74.14187       	74.19669       	74.37726       	74.2626        	74.45474       	74.310715      	74.34454       	74.29907       	74.11736       	74.31885       	74.17218       	74.361084      	74.667465      	74.61517       	74.51892       	
74.22096       	74.05668       	74.363464      	74.21          	74.27352       	74.23994       	74.24652       	74.31745       	74.19544       	74.22528       	74.26          	74.26544       	74.19391       	74.30919       	74.273026      	74.20482       	74.326324      	74.1394        	74.276764      	74.11726       	74.331245      	74.197914      	74.181046      	74.14809       	74.55337       	74.31351       	74.26967       	74.47893       	74.14678       	74.16001       	74.153336      	74.36303       	74.20381       	74.1722        	74.38312       	74.25431       	74.20058       	74.242035      	74.16731       	74.29667       	74.267876      	74.168655      	74.50634       	74.30661       	74.1486        	74.18704       	74.14877       	74.389244      	74.307434      	74.16266       	74.38248       	74.24596       	74.24303       	74.25606       	74.28872       	74.23162       	74.27765       	74.087685      	74.096146      	74.27145       	74.21823       	74.21559       	74.3643        	74.06876       	74.24754       	74.40646       	74.19574       	74.16241       	74.315285      	74.23304       	74.30491       	74.262695      	74.321884      	74.1043        	74.137566      	74.4827        	74.18176       	74.341805      	74.2163        	74.13382       	74.424095      	74.26848       	74.31967       	74.1304        	74.18204       	74.49403       	74.14065       	74.35517       	74.22466       	74.2684        	74.37337       	74.179115      	74.56817       	74.099884      	74.21494       	74.10095       	74.558304      	74.410835      	74.51576       	74.3719        	
74.1793        	74.24846       	74.25185       	74.20297       	74.26334       	74.126915      	74.177216      	74.25921       	74.2802        	74.263885      	74.24024       	74.32043       	74.294624      	74.22978       	74.25296       	74.36077       	74.04745       	74.22841       	74.415535      	74.30176       	74.23048       	74.14655       	74.31574       	74.13392       	74.285545      	74.374565      	74.218185      	74.441185      	74.19411       	74.11957       	74.37349       	74.41918       	74.10786       	74.4822        	74.32035       	74.09229       	74.39437       	73.98315       	74.2975        	74.42096       	74.08582       	74.262054      	74.27497       	74.204796      	74.30014       	74.18914       	74.41933       	74.18987       	74.0424        	74.32092       	74.35091       	74.247665      	74.07992       	74.364586      	74.40686       	74.290955      	74.51149       	74.08241       	73.92231       	74.31245       	74.27142       	74.21013       	74.37668       	74.14511       	74.23974       	74.23648       	74.264244      	74.10288       	74.21796       	74.262596      	74.242386      	74.40277       	74.05775       	74.429794      	74.259514      	74.22684       	74.305084      	74.068985      	74.35077       	74.3286        	74.1824        	74.34049       	74.31649       	74.21244       	74.13225       	74.364365      	74.14356       	74.23661       	74.43373       	74.26696       	74.330025      	74.422         	74.23002       	74.224045      	74.32165       	74.207115      	74.49032       	74.42671       	74.40712       	74.41413       	
74.2788        	74.06481       	74.31335       	74.22262       	74.23601       	74.22004       	74.39173       	74.330414      	74.146416      	74.198395      	74.290474      	74.20592       	74.239716      	74.25949       	74.11002       	74.289215      	74.34343       	74.18487       	74.24937       	74.15753       	74.3359        	74.38544       	74.136536      	74.37685       	74.16336       	74.17065       	74.428         	74.45217       	74.09002       	74.1684        	74.2647        	74.18933       	74.37363       	74.2991        	74.23073       	74.30335       	74.22899       	74.2078        	74.09109       	74.2076        	74.30985       	74.305824      	74.02782       	74.17623       	74.44373       	74.16218       	74.174995      	74.29222       	74.19131       	74.26973       	74.31806       	74.35343       	74.06106       	74.34624       	74.557655      	74.21383       	74.3307        	74.154884      	73.86093       	74.218056      	74.238716      	74.20185       	74.237946      	74.37828       	74.16474       	74.376045      	74.21915       	74.169815      	74.189224      	74.28266       	74.23514       	74.262375      	74.15691       	74.33323       	74.22161       	74.305145      	74.239815      	74.31933       	74.356155      	74.29613       	74.20129       	74.31571       	74.25346       	74.267456      	74.3521        	74.23491       	74.37172       	74.147125      	74.23546       	74.56012       	74.234146      	74.28595       	74.20157       	74.22625       	74.18135       	74.37513       	74.40751       	74.44293       	74.51482       	74.58334       	
74.30524       	74.264626      	74.00208       	74.43261       	74.15247       	74.30582       	74.16264       	74.193665      	74.27463       	74.33617       	74.17544       	74.394         	74.27067       	73.853424      	74.46191       	74.245094      	74.28124       	74.24494       	74.16301       	74.22669       	74.43814       	74.23994       	74.17581       	74.2196        	74.21485       	74.210686      	74.41817       	74.41424       	74.1148        	74.42437       	74.0678        	74.237114      	74.52273       	74.25593       	74.32193       	74.05654       	74.34827       	74.17948       	74.30233       	74.00324       	74.23582       	74.26026       	74.30048       	74.17327       	74.19609       	74.365616      	74.20281       	74.17178       	74.345604      	74.348595      	74.094765      	74.2456        	74.17378       	74.44971       	74.29375       	74.31258       	74.245         	74.10084       	74.1168        	74.17962       	74.29898       	74.13206       	74.30979       	74.31431       	74.175224      	74.23539       	74.24649       	74.36529       	74.268486      	74.0875        	74.2613        	74.41047       	74.1009        	74.27459       	74.33135       	74.20145       	74.2907        	74.27762       	74.20736       	74.28243       	74.24937       	74.2594        	74.334946      	74.14322       	74.411224      	74.28476       	74.14658       	74.16518       	74.50316       	74.49603       	74.10724       	74.31037       	74.14175       	74.294586      	74.32615       	74.26077       	74.44665       	74.41534       	74.567345      	74.41263       	
74.272835      	74.29992       	74.08136       	74.3852        	74.11224       	74.23526       	74.28282       	74.52563       	74.106064      	74.25999       	74.28339       	74.34823       	74.2618        	74.08068       	74.32637       	74.2443        	74.30408       	74.14585       	74.17682       	74.28846       	74.400665      	74.264885      	74.10335       	74.34783       	74.259735      	74.22768       	74.25279       	74.46884       	74.130806      	74.23053       	74.39548       	74.14063       	74.43033       	74.29297       	74.32793       	74.450386      	74.08715       	74.13209       	74.1764        	74.350204      	74.23168       	74.153404      	74.30677       	74.09811       	74.38619       	74.35344       	73.90868       	74.31963       	74.36344       	74.46115       	74.14786       	74.108505      	74.30326       	74.19923       	74.26691       	74.490555      	74.349556      	74.04577       	74.02259       	74.22659       	74.10323       	74.29922       	74.34067       	74.21466       	74.138565      	74.36313       	74.18148       	74.36555       	74.27303       	74.19821       	74.26647       	74.21912       	74.114456      	74.27921       	74.32834       	74.270294      	74.264465      	74.22671       	74.20095       	74.25125       	74.238976      	74.24917       	74.33359       	74.099144      	74.46335       	74.210236      	74.12892       	74.2857        	74.41216       	74.41263       	74.26224       	74.16445       	74.38067       	74.15466       	74.36183       	74.4065        	74.33954       	74.36152       	74.45434       	74.365524      	
74.174         	74.07231       	74.2865        	74.20987       	74.32567       	74.23039       	74.23738       	74.26087       	74.299164      	74.23816       	74.31237       	74.36305       	74.030754      	74.32307       	74.29          	74.25165       	74.15588       	74.30819       	74.20842       	74.22986       	74.14864       	74.431404      	74.26428       	74.104         	74.288025      	74.38145       	74.27885       	74.160645      	74.3809        	74.3315        	74.17932       	74.15837       	74.122986      	74.32914       	74.11447       	74.48647       	74.06016       	74.40692       	74.37374       	74.15871       	74.17291       	74.37101       	74.10737       	74.22726       	74.41206       	74.29259       	74.14543       	74.35615       	74.29609       	74.19798       	74.151924      	74.265755      	74.08815       	74.2505        	74.25881       	74.5113        	74.391075      	74.127205      	73.82203       	74.38251       	74.232956      	74.147766      	74.122604      	74.35038       	74.25851       	74.10891       	74.30641       	74.14075       	74.371315      	74.23521       	74.34622       	74.16775       	74.30382       	74.318634      	74.18421       	74.33722       	74.19544       	74.32492       	74.23451       	74.144424      	74.46098       	74.25241       	74.26687       	74.16246       	74.28422       	74.274086      	74.2987        	74.11371       	74.245575      	74.50684       	74.357895      	74.14324       	74.24535       	74.42588       	74.312386      	74.577324      	74.1601        	74.19256       	74.459564      	74.44807       	
74.41132       	74.20655       	74.19664       	74.18738       	74.37199       	74.18559       	74.28762       	74.15314       	74.34874       	74.24378       	74.366684      	74.27124       	74.11158       	74.37678       	74.05636       	74.30777       	74.27859       	74.1402        	74.378395      	74.25969       	74.1514        	74.15131       	74.41206       	74.26249       	74.30226       	74.23998       	74.20087       	74.29846       	74.3741        	74.21181       	74.21361       	74.23952       	74.3287        	74.269516      	74.19283       	74.18323       	74.3163        	74.27416       	74.144165      	74.13298       	74.39214       	74.34722       	74.30295       	74.07227       	74.1778        	74.159706      	74.40055       	74.29093       	74.25462       	72.97433       	73.038445      	74.22933       	74.21343       	74.232544      	74.28636       	74.37412       	74.27486       	74.141235      	74.12358       	74.18974       	74.17615       	74.28147       	74.07307       	74.549164      	74.1015        	74.23005       	74.114815      	74.35796       	74.35889       	74.157616      	74.43028       	74.019005      	74.42842       	74.21405       	74.346695      	74.18735       	74.31321       	74.29664       	74.16125       	74.42534       	74.21376       	74.207275      	74.209         	74.2571        	74.389275      	74.165215      	74.45158       	74.25341       	74.3211        	74.332054      	74.23456       	74.22892       	74.39409       	74.308556      	74.08344       	74.5742        	74.39295       	74.14482       	74.28862       	74.18314       	
74.10142       	74.28286       	74.22865       	74.23179       	74.35636       	74.19718       	74.291176      	74.108086      	74.49008       	74.27172       	74.13759       	74.27138       	74.297806      	74.1976        	74.240524      	74.18638       	74.33255       	74.13643       	74.343704      	74.33933       	74.18891       	74.1727        	74.28386       	74.31028       	74.195724      	74.32811       	74.30909       	74.28567       	74.317406      	74.12431       	74.41191       	74.17945       	74.32716       	74.24652       	74.16863       	74.214554      	74.18167       	74.242355      	74.28123       	74.31631       	74.279205      	74.21772       	74.3886        	74.00105       	74.45917       	74.27642       	74.211296      	74.14263       	74.27205       	74.280945      	74.28142       	74.12064       	74.34015       	74.1265        	74.350235      	74.04853       	74.52659       	74.278206      	74.09123       	74.25117       	74.07376       	74.1337        	74.25177       	74.37799       	74.19831       	74.30613       	74.02166       	74.411446      	74.31131       	74.200325      	74.39949       	74.12097       	74.16642       	74.303505      	74.28381       	74.18623       	74.31015       	74.33678       	74.20423       	74.18392       	74.20488       	74.282074      	74.22637       	74.26607       	74.278275      	74.31509       	74.20223       	74.21654       	74.44757       	74.321434      	74.16314       	74.34472       	74.50182       	74.136795      	74.39597       	74.41347       	74.48604       	74.52158       	74.30957       	74.33745       	
74.05542       	74.18312       	74.33819       	74.232346      	74.256226      	74.20356       	74.272255      	74.21991       	74.16221       	74.37002       	74.18493       	74.13142       	74.3881        	74.433266      	74.16575       	74.09963       	74.406944      	74.11891       	74.2055        	74.351425      	74.34616       	74.27809       	74.19368       	74.27568       	74.37107       	74.09814       	74.39499       	74.274994      	74.36209       	74.08002       	74.13142       	74.3103        	74.36309       	74.16508       	74.27325       	74.26369       	74.21506       	74.333496      	74.4446        	74.35773       	74.019         	74.26098       	74.148544      	74.311676      	74.477295      	74.078926      	74.25701       	74.13875       	74.31598       	74.2761        	74.24602       	74.19309       	74.17987       	74.37381       	74.33356       	74.18327       	74.310135      	74.40611       	74.00713       	74.14584       	74.20149       	74.25666       	74.0929        	74.23832       	74.32777       	74.34597       	74.17664       	74.34127       	74.19948       	74.39223       	74.22609       	74.24255       	74.3455        	74.0826        	74.21035       	74.49988       	74.19643       	74.14137       	74.13398       	74.50917       	74.07414       	74.21209       	74.3664        	74.35591       	74.23695       	74.15624       	74.41761       	74.22348       	74.34686       	74.52643       	74.27438       	74.2615        	74.35091       	74.19698       	74.227104      	74.46098       	74.29502       	74.45568       	74.63976       	74.486755      	
74.22821       	74.159225      	74.31076       	74.22222       	74.12686       	74.35352       	74.33467       	74.27352       	74.18642       	74.31306       	74.1776        	74.24246       	74.24441       	74.1997        	74.30992       	74.22031       	74.28124       	74.20523       	74.35311       	74.28482       	74.22026       	74.31591       	74.13632       	74.21929       	74.28113       	74.1074        	74.46645       	74.3497        	74.53107       	74.2287        	74.098885      	74.268875      	74.13095       	74.277466      	74.0767        	74.34565       	74.307976      	74.360634      	74.35889       	74.232895      	74.27595       	74.25541       	74.18414       	74.23572       	74.31061       	74.328094      	74.16749       	74.01021       	74.342255      	74.255936      	74.29833       	74.110695      	74.285835      	74.324524      	74.13124       	74.27724       	74.40298       	74.28253       	73.92051       	74.020805      	74.321014      	74.30025       	74.15735       	74.18855       	74.26773       	74.33866       	74.212105      	74.13732       	74.29653       	74.266556      	74.32637       	74.42167       	74.14356       	74.23582       	74.212776      	74.35272       	74.22988       	74.268875      	74.240395      	74.28079       	74.200264      	74.431786      	74.25419       	74.107796      	74.31649       	74.20893       	74.44979       	74.025795      	74.38035       	74.414246      	74.387566      	74.2668        	74.39885       	74.33498       	74.14675       	74.251884      	74.428856      	74.5603        	74.54295       	74.40905       	
74.3322        	74.287025      	74.23585       	74.258484      	74.26873       	74.01744       	74.422844      	74.245865      	74.20878       	74.29047       	74.15963       	74.323135      	74.19168       	74.34108       	74.222046      	74.30263       	74.19921       	74.2948        	74.22591       	74.44825       	74.06754       	74.15768       	74.08829       	74.43663       	74.441925      	74.091095      	74.29148       	74.44596       	74.28379       	74.40199       	74.20609       	74.00851       	74.22818       	74.3169        	74.36397       	74.011246      	74.42209       	74.29146       	74.21266       	74.29282       	74.11744       	74.51979       	74.224815      	74.20075       	74.36021       	74.21142       	74.15021       	74.31568       	74.11033       	74.24879       	74.21637       	74.19299       	74.505104      	74.1571        	74.27198       	74.195786      	74.165306      	74.265945      	74.02272       	74.205696      	74.210335      	74.28405       	74.29515       	74.050316      	74.528206      	74.14315       	74.06746       	74.33212       	74.14239       	74.31468       	74.322914      	74.29347       	74.177         	74.20441       	74.16268       	74.44378       	74.31719       	74.22199       	74.18436       	74.22314       	74.40701       	74.29044       	74.252686      	74.10329       	74.2255        	74.15276       	74.41289       	74.142166      	74.37286       	73.933525      	73.07577       	74.98253       	74.46086       	73.600494      	74.53389       	73.88969       	75.45458       	76.733315      	73.19785       	72.95811       	
74.13486       	74.280334      	74.09078       	74.286064      	74.32326       	74.27296       	74.21641       	74.32775       	74.10995       	74.21404       	74.168976      	74.46982       	74.10361       	74.354004      	74.2676        	74.2005        	74.23387       	74.29322       	74.26428       	74.152145      	74.142525      	74.26625       	74.25669       	74.2384        	74.28806       	74.05912       	74.376175      	74.21547       	74.171326      	74.52907       	74.155045      	74.34079       	73.82841       	74.370674      	74.36391       	74.19612       	74.180565      	74.354515      	74.27171       	74.28018       	74.33173       	74.207886      	74.079796      	74.22833       	74.03361       	74.546364      	74.1197        	74.147354      	74.30464       	74.16244       	74.21435       	74.21021       	74.06041       	73.7407        	74.45258       	73.409225      	75.20432       	74.43177       	73.384575      	74.16769       	74.2069        	74.61706       	74.24087       	74.029335      	74.33184       	74.172775      	74.336205      	74.20774       	74.23087       	74.30692       	74.342064      	74.28216       	74.18069       	74.27902       	74.083595      	74.17982       	74.208626      	74.22697       	74.2733        	74.329254      	74.18476       	73.99836       	74.364365      	74.10822       	74.07354       	74.17879       	74.16125       	74.044815      	73.65543       	80.3705        	74.52503       	74.75734       	74.25921       	73.9449        	74.0527        	74.14147       	74.36828       	75.25182       	73.695564      	74.12265       	
74.25544       	74.4191        	74.29494       	74.08857       	74.34289       	74.182076      	74.460396      	74.27581       	74.04553       	74.242386      	74.19016       	74.289116      	74.32125       	74.27053       	73.94595       	74.12206       	74.56807       	73.95434       	74.451225      	73.99933       	74.15405       	74.229576      	74.22157       	74.335464      	74.17597       	74.03746       	74.31921       	75.25907       	73.425934      	73.48027       	74.49983       	73.8975        	74.76625       	74.55476       	71.17849       	73.010506      	75.04805       	74.91642       	73.77717       	75.730804      	74.81276       	73.540184      	73.6118        	73.02712       	75.14045       	74.75881       	74.315636      	74.64544       	72.65318       	75.38909       	73.59129       	74.52237       	74.536476      	75.225555      	72.406815      	73.66433       	73.32405       	75.06073       	67.866394      	70.45362       	74.194626      	74.290565      	74.19006       	74.35931       	74.2023        	74.30834       	74.22554       	74.27037       	74.14896       	74.24334       	74.2658        	74.204735      	74.18016       	74.2642        	74.2643        	74.42461       	74.113014      	74.24437       	74.22871       	74.37359       	74.11952       	74.186516      	74.40236       	74.03392       	74.39365       	74.157036      	73.91          	73.97463       	75.76176       	80.194954      	74.93421       	74.110886      	74.29437       	74.347946      	74.283516      	74.218025      	74.32654       	74.5103        	74.490326      	74.42915       	
74.24215       	74.267006      	74.251434      	74.16873       	74.10464       	74.22423       	74.67611       	74.20226       	74.41282       	74.042274      	74.12358       	74.22689       	74.21047       	74.32511       	74.16151       	74.406586      	74.24616       	74.086655      	74.387184      	73.98679       	74.27503       	74.203705      	73.844025      	74.18545       	74.10485       	73.70025       	77.10959       	78.802826      	74.63403       	74.09801       	74.42327       	74.36957       	74.19172       	74.39692       	74.262505      	73.932365      	74.55487       	74.39559       	74.17958       	74.51943       	74.105736      	74.35348       	74.12775       	74.2996        	74.08885       	74.30629       	74.31283       	74.29691       	74.21847       	74.445724      	74.09077       	74.08034       	74.53819       	74.17778       	74.10104       	74.79246       	73.92956       	74.48101       	68.47763       	69.85849       	74.17672       	74.290184      	74.0927        	74.25661       	74.2548        	74.32658       	74.14927       	74.26252       	74.18179       	74.19123       	74.36193       	74.368935      	73.99881       	74.30991       	74.07236       	74.42416       	74.274635      	73.94033       	74.49234       	74.23153       	74.16481       	74.23746       	74.22939       	74.31782       	73.82699       	73.99057       	74.24984       	74.16449       	77.25251       	78.207275      	74.11545       	73.99303       	74.279305      	74.18263       	74.151665      	74.13015       	74.444534      	74.45372       	74.40402       	74.95069       	
74.82987       	73.14409       	74.11013       	74.27833       	74.331245      	74.22994       	74.35583       	74.31395       	74.222984      	74.134674      	74.29988       	74.32672       	74.11478       	74.30665       	74.12989       	74.17143       	74.348755      	74.31565       	74.01878       	74.15711       	74.36695       	74.10623       	74.20098       	74.17395       	74.66913       	76.370544      	76.08636       	76.3704        	74.96443       	74.29856       	74.17398       	74.350494      	73.999794      	74.386185      	74.24194       	74.03706       	74.36805       	74.328476      	74.500694      	74.43875       	74.10383       	73.756905      	74.224236      	74.54574       	74.18887       	74.08193       	74.356415      	74.25542       	74.22782       	74.38721       	74.27509       	74.14247       	74.43348       	74.1626        	74.2134        	74.20217       	74.73019       	74.353775      	69.41464       	69.7097        	74.15724       	74.1219        	74.50106       	74.28842       	74.04345       	74.39017       	74.11914       	74.45748       	74.021484      	74.19295       	74.47022       	74.178215      	74.04667       	74.30553       	74.24018       	74.155846      	74.49242       	74.1681        	74.14419       	74.34013       	74.29209       	74.17826       	74.06783       	74.12445       	74.22782       	74.33763       	73.25079       	73.726166      	77.85546       	78.67611       	74.2479        	73.95088       	74.16321       	74.34073       	74.529625      	74.567856      	74.898445      	75.390366      	75.62766       	75.43797       	
74.18175       	74.287964      	74.33052       	74.25046       	74.040146      	74.23136       	74.360214      	74.30062       	74.18052       	74.217514      	74.285774      	74.18226       	74.23145       	74.3613        	74.13568       	74.122536      	74.29865       	74.29198       	74.14937       	74.16713       	74.37523       	73.96507       	74.19509       	74.31134       	74.05994       	74.08372       	75.307755      	79.916275      	75.278656      	74.113266      	74.167755      	74.39194       	74.17139       	74.21094       	74.368546      	74.04446       	74.452545      	74.16771       	74.13747       	74.40062       	74.245605      	74.387535      	74.119316      	74.38804       	74.329666      	74.16182       	74.24283       	73.99413       	74.21672       	74.2683        	74.21447       	74.3           	74.39863       	74.27384       	74.20234       	74.385216      	74.426094      	74.27675       	69.26662       	68.6621        	74.31662       	74.127785      	74.26453       	74.10445       	74.48396       	74.111         	74.46222       	74.29179       	74.19248       	74.260445      	74.24304       	74.14626       	74.48242       	74.36659       	74.11595       	74.23026       	74.26886       	74.14287       	74.311905      	74.29865       	74.06567       	74.11159       	74.31137       	73.836685      	74.16037       	74.00077       	74.57736       	74.639984      	75.09647       	79.57842       	75.31734       	74.46033       	74.15031       	74.535095      	74.062256      	73.72814       	74.06559       	74.64404       	74.53063       	74.5583        	
74.24313       	74.12541       	74.25991       	74.255745      	74.30735       	74.25197       	74.21512       	74.226906      	74.350464      	74.29059       	74.27568       	73.89237       	74.17309       	74.3672        	74.15903       	74.16592       	74.351074      	74.28254       	74.090515      	74.154976      	74.27745       	74.325195      	74.34909       	74.05067       	75.388824      	75.93791       	76.11905       	76.24498       	74.79563       	74.21344       	74.30438       	74.07452       	74.37774       	74.251656      	74.24447       	74.078995      	74.365616      	74.25726       	74.24196       	74.16184       	74.08402       	74.351006      	74.06704       	74.33987       	74.82888       	75.186485      	75.32814       	75.37314       	75.408676      	75.16251       	74.582985      	74.740814      	74.0163        	72.21298       	71.012314      	73.56697       	74.09084       	74.17514       	72.19855       	74.45645       	72.98077       	72.84972       	72.97564       	73.29106       	73.57447       	73.944534      	74.38376       	74.36568       	74.09611       	74.117935      	74.29874       	74.11931       	74.068954      	74.13846       	74.342064      	74.121864      	74.20387       	74.312546      	74.50634       	74.14356       	74.544044      	75.202614      	74.94431       	73.68832       	74.182526      	74.06059       	73.75258       	73.24337       	75.379105      	79.92003       	75.6129        	74.23507       	74.19642       	73.657845      	73.84155       	73.986885      	74.11833       	74.61925       	74.98797       	74.893845      	
