# www.neaspec.com
# Scan:	 	Whitelight Imaging
# Project:	 	20251007_PS
# Description:	 	
# Date:	 	10/07/2025 14:41:49
# Scanner Center Position (X, Y):	[µm]	49.66	48.17	 
# Rotation:	[°]	0	 	 
# Scan Area (X, Y, Z):	[µm]	5.000	5.000	0.000
# Pixel Area (X, Y, Z):	[px]	100	100	1
# Interferometer Center/Distance:	[µm]	288.577	0.000	 
# Averaging:	 	1	 	 
# Integration time:	[ms]	5	 	 
# Wavenumber Scaling:	 	1.000000	 	 
# Laser Source:	 	4.5-15 µm nano-FTIR laser
# Detector:	 	R
# Target Wavelength:	[µm]	10.000	 	 
# Demodulation Mode:	 	Fourier
# Tip Frequency:	[Hz]	241,340.500	 	 
# Tip Amplitude:	[mV]	45.700	 	 
# Tapping Amplitude:	[nm]	74.245	 	 
# Modulation Frequency:	[Hz]	0.000	 	 
# Modulation Amplitude:	[mV]	0.000	 	 
# Modulation Offset:	[mV]	0.000	 	 
# Setpoint:	[%]	79.75	 	 
# Regulator (P, I, D):	 	4.206850	8.625812	1.000000
# Tip Potential:	[mV]	0.000	 	 
# M1A Scaling:	[nm/V]	0.426	 	 
# M1A Cantilever Factor:	 	1,000	 	 
# Q-Factor:	 	487.4	 	 
# Version:	 	2.1.11536.0
94.087234      	93.980545      	93.988         	93.778946      	93.39157       	92.93261       	93.19898       	92.9425        	92.86655       	93.49539       	93.30389       	93.13974       	93.317986      	93.11386       	92.61425       	93.325165      	93.675606      	93.72863       	93.64566       	93.506676      	93.23902       	93.45411       	93.46309       	93.61039       	93.92901       	93.59196       	93.49755       	93.64511       	93.38698       	93.122086      	92.842636      	93.02495       	93.21827       	93.66483       	93.4286        	92.883675      	93.42304       	93.14453       	93.08428       	92.89617       	92.716705      	93.16955       	94.250336      	93.98852       	94.34802       	94.355095      	93.9509        	93.50849       	94.35054       	94.39308       	94.67502       	94.23214       	93.75911       	93.96856       	94.31018       	94.03883       	94.1514        	94.55472       	93.9768        	93.37857       	93.718155      	93.87249       	94.06794       	94.26154       	94.458046      	94.393196      	94.10631       	93.60937       	93.432846      	93.61193       	93.18452       	93.22074       	93.469734      	93.12953       	93.08765       	94.11986       	93.84432       	93.5594        	93.74195       	93.57698       	93.355545      	93.81413       	93.46547       	93.263916      	93.83509       	93.50738       	93.560776      	93.60367       	93.59068       	93.52302       	93.75565       	93.627045      	93.71505       	93.884605      	93.92998       	93.69539       	93.42697       	93.54545       	93.57666       	93.09559       	
93.6705        	93.345375      	93.669754      	93.709366      	93.37269       	92.70155       	92.48174       	92.6115        	92.67976       	92.72002       	92.657715      	92.42476       	93.05446       	93.041916      	92.95274       	93.35128       	93.162094      	93.14208       	92.8894        	93.52861       	93.72514       	93.52613       	93.644         	93.396484      	93.09655       	92.88071       	93.34156       	93.46992       	93.34254       	92.928535      	92.70154       	92.76049       	92.61939       	92.58764       	93.65076       	93.831245      	93.218956      	93.45076       	93.29908       	93.28974       	93.67695       	94.30724       	94.325264      	94.45829       	94.60913       	94.345085      	94.938385      	94.61194       	94.50893       	94.00679       	93.760445      	93.75916       	94.094         	93.86018       	93.538605      	93.93799       	94.358475      	94.39178       	94.35299       	94.287224      	94.20675       	94.488815      	93.72533       	93.94675       	94.1608        	94.05604       	94.33355       	93.586296      	93.80627       	93.47041       	93.613144      	93.72          	93.731         	93.74956       	93.76614       	93.57204       	93.69304       	93.46704       	93.24288       	93.28838       	93.52131       	93.293365      	93.24157       	93.023155      	92.98681       	93.46956       	93.312256      	93.35066       	94.010376      	93.641914      	93.052734      	93.08802       	93.202805      	92.85257       	93.43567       	93.25639       	93.22307       	93.37334       	93.18758       	93.53582       	
94.323944      	94.07068       	94.041245      	93.92297       	93.64787       	93.47661       	93.778725      	93.67329       	93.31958       	93.517784      	93.54969       	93.32277       	92.96445       	92.96054       	93.33073       	93.51055       	93.05313       	93.07475       	92.947876      	92.78981       	92.978935      	93.03887       	93.181206      	93.28808       	93.19563       	93.22862       	93.48831       	93.45663       	93.559456      	93.63798       	93.632645      	93.845634      	93.90872       	93.76128       	93.463104      	93.177284      	92.83876       	92.76324       	93.142296      	92.722336      	93.03038       	92.516594      	93.079506      	93.60776       	93.45094       	94.050095      	93.946815      	93.718994      	93.749756      	93.2205        	93.23656       	93.15857       	93.10074       	92.9997        	93.73226       	93.72131       	93.67191       	93.9382        	93.69418       	93.02113       	93.61047       	93.98303       	93.21736       	93.73621       	93.476326      	93.76697       	93.66398       	93.4207        	92.9113        	92.92464       	92.87688       	93.16368       	93.41549       	93.10075       	92.87078       	92.79436       	93.33097       	92.90959       	93.12252       	92.79005       	92.59931       	92.723465      	93.32643       	92.96031       	92.6599        	92.85646       	92.93335       	93.00502       	92.7529        	93.189384      	92.777115      	93.21624       	93.74488       	93.2414        	93.23327       	93.44903       	93.93951       	93.86548       	93.783195      	93.70653       	
94.48207       	94.37585       	94.2556        	94.2799        	93.99857       	93.37979       	93.344635      	93.11518       	93.06032       	93.43334       	92.8847        	93.10009       	93.1121        	93.566696      	93.27003       	93.28557       	93.41676       	93.72295       	93.865364      	93.593925      	93.78533       	93.99135       	93.54732       	93.64665       	93.82141       	93.84488       	93.88529       	93.88924       	93.59451       	93.668594      	93.48335       	93.454834      	93.535         	93.43234       	93.40927       	93.07559       	93.542755      	93.55218       	93.47005       	93.134285      	93.0101        	93.582085      	93.76556       	93.656815      	93.60555       	93.85189       	93.88317       	93.87317       	93.950836      	93.93356       	93.821785      	93.9018        	94.00668       	93.889694      	93.39273       	93.529434      	93.62434       	93.54068       	93.81835       	93.98812       	93.78268       	93.46146       	93.27382       	93.41707       	93.5225        	93.696846      	93.85816       	93.83157       	93.92956       	93.62928       	93.50662       	93.17302       	92.9472        	92.76904       	93.0275        	92.89902       	92.80543       	92.45673       	92.76212       	93.121284      	93.20064       	92.90482       	93.29222       	93.172775      	93.24332       	93.42873       	93.19477       	93.25208       	93.00947       	92.91694       	93.56312       	93.37952       	93.301674      	93.57007       	93.81751       	93.69803       	93.40732       	93.82087       	93.80867       	93.57762       	
93.88353       	93.62452       	93.49398       	93.34632       	93.181625      	92.96115       	92.67028       	92.88179       	93.063736      	92.969574      	93.01722       	93.42612       	93.13978       	93.19764       	93.28605       	93.22799       	93.32438       	93.24444       	93.36377       	93.4924        	93.816986      	93.865845      	93.60873       	93.47663       	93.70726       	93.909615      	93.41257       	93.604385      	93.949776      	93.41579       	94.27129       	94.19738       	93.95448       	94.143875      	93.64305       	93.55209       	93.16364       	93.346         	93.199715      	93.3581        	93.31512       	94.354576      	94.00504       	93.79201       	94.29479       	94.08965       	94.521904      	94.501724      	94.031624      	94.24354       	94.192635      	93.97637       	94.253525      	94.06762       	94.14117       	94.096245      	93.8867        	93.62939       	93.7692        	93.59002       	93.4014        	94.09842       	94.170784      	94.056526      	94.0837        	94.57225       	94.639275      	94.2773        	94.34246       	93.7081        	93.75136       	93.054375      	93.10776       	93.18961       	93.39775       	93.829315      	94.01334       	93.24751       	93.234         	93.20195       	93.17638       	93.80736       	93.190605      	93.08741       	92.971146      	93.16996       	93.07317       	93.46619       	93.34757       	93.24881       	93.58435       	93.40364       	93.503105      	93.33105       	93.24459       	93.118866      	93.16781       	93.10524       	93.06617       	92.9213        	
93.76045       	93.883095      	94.110016      	94.1403        	93.71896       	93.364944      	93.43712       	93.63353       	93.45337       	93.6809        	93.99793       	93.725105      	93.48157       	93.57225       	93.40813       	93.60343       	94.140366      	93.77613       	93.76302       	93.719376      	93.79342       	93.76965       	93.61275       	93.36691       	92.98251       	93.28826       	93.30444       	93.54206       	93.651215      	93.19075       	92.9253        	93.30765       	93.57686       	93.06064       	92.854385      	93.112465      	93.382515      	93.58985       	93.248375      	93.6344        	93.332794      	93.36083       	93.35003       	93.897026      	94.06398       	94.14489       	94.49273       	94.749466      	94.60397       	94.40231       	94.52068       	94.18762       	94.12151       	93.97289       	94.64208       	94.6079        	94.00977       	94.2           	93.84576       	93.644424      	93.767784      	94.16605       	93.847         	93.71141       	94.075264      	93.56684       	93.94899       	93.625946      	93.33716       	93.576385      	93.12935       	92.74277       	92.86419       	92.835396      	92.89369       	93.2914        	93.53837       	93.08948       	93.546234      	94.15128       	93.99752       	93.79422       	93.745865      	93.62331       	93.89912       	93.74482       	93.37855       	93.85684       	93.602066      	93.218094      	93.219894      	93.20405       	93.29208       	93.73772       	93.60113       	93.61557       	93.57638       	94.10499       	94.04863       	94.10022       	
93.67225       	93.835815      	93.84586       	93.818634      	93.53187       	93.45894       	93.03357       	92.78417       	92.61218       	92.489746      	93.16014       	93.14739       	92.92012       	93.34415       	93.41535       	94.07393       	93.62669       	93.56398       	93.474205      	93.58131       	93.31977       	93.14164       	93.408646      	93.56467       	93.41377       	93.25049       	93.490364      	93.55385       	92.981415      	92.82309       	93.05876       	92.55286       	92.90597       	92.83222       	93.20553       	92.78438       	93.14275       	92.42606       	93.068275      	92.79052       	92.601494      	92.742325      	92.8975        	93.89914       	94.01335       	93.71929       	93.83017       	94.03034       	93.93579       	93.77501       	94.10741       	93.507164      	93.01664       	93.69386       	93.616905      	93.86373       	93.78063       	93.68212       	93.28556       	93.727615      	93.77546       	93.88679       	94.13969       	93.790085      	94.22445       	94.102455      	94.13714       	94.148186      	94.32771       	93.49316       	93.07832       	93.3243        	93.13968       	93.111984      	93.00176       	92.95628       	93.13071       	93.34335       	93.351654      	93.01139       	93.36917       	93.31849       	93.489105      	93.49756       	93.12431       	92.8424        	93.70992       	93.624954      	93.1963        	93.96651       	93.89625       	93.9725        	93.86905       	93.51907       	93.86401       	94.12056       	93.66731       	93.902504      	94.02148       	93.23195       	
93.72814       	93.84157       	93.699554      	93.98924       	93.7998        	93.28442       	93.2089        	93.13875       	92.9392        	92.86576       	92.764175      	93.1438        	93.157265      	93.0313        	93.027336      	93.23502       	92.88825       	92.97213       	92.67866       	92.84683       	92.744255      	92.21131       	92.33521       	92.9912        	92.890816      	93.209526      	93.28626       	93.25533       	93.06733       	93.54872       	93.883736      	92.7451        	93.187225      	93.53393       	93.50537       	93.52098       	93.638664      	93.1284        	93.661934      	93.502686      	92.88765       	93.12062       	93.46978       	93.3615        	93.45196       	93.46098       	93.41994       	94.07702       	94.26671       	94.49246       	94.434784      	94.12962       	94.22376       	94.38032       	94.27796       	93.81998       	93.98148       	94.1054        	94.1665        	94.0562        	94.00973       	94.0993        	94.206985      	93.45322       	93.781006      	94.220375      	94.02725       	94.32609       	93.59535       	93.496254      	93.76763       	93.14429       	92.952965      	93.061035      	92.77638       	93.45731       	93.5287        	93.238556      	93.14568       	92.99571       	92.69877       	92.86369       	93.06059       	93.342545      	93.2848        	93.22492       	93.30904       	93.48755       	93.30307       	93.53988       	94.09443       	93.23832       	93.25247       	93.77813       	93.69645       	93.69392       	93.5798        	93.87554       	94.244194      	94.23915       	
94.16119       	93.94621       	94.1014        	93.94642       	93.35741       	92.984795      	93.257416      	93.0486        	92.400635      	92.67612       	93.24556       	92.79977       	92.681076      	92.96923       	93.66413       	93.54945       	92.76973       	93.207855      	93.26724       	93.57072       	93.40225       	93.543106      	93.76953       	93.54424       	93.77071       	93.960846      	93.60096       	93.071945      	93.58934       	93.05553       	93.38553       	93.19754       	93.20097       	92.95378       	93.099655      	93.343124      	92.98223       	92.87524       	92.84335       	92.91142       	93.066124      	93.15095       	93.31947       	93.473625      	93.30537       	94.13701       	94.16061       	93.678665      	93.91269       	94.043686      	93.49006       	93.92423       	94.16089       	94.400314      	94.40868       	94.490616      	94.56157       	94.25994       	93.60526       	93.6775        	94.270134      	94.333405      	94.305176      	94.574554      	94.90123       	94.22327       	94.325195      	94.46643       	94.03278       	93.95844       	93.62203       	93.32437       	93.26213       	93.449814      	93.632675      	93.96365       	93.97603       	93.96969       	93.78758       	93.48387       	93.3965        	93.40254       	93.31229       	93.56547       	93.41911       	93.58603       	93.61689       	93.6443        	93.860466      	94.08296       	93.85934       	93.70322       	94.03859       	94.21969       	93.89824       	93.80888       	94.271736      	93.79691       	93.54528       	94.06574       	
93.68067       	93.846344      	93.90053       	93.657684      	93.82487       	93.44278       	92.94481       	93.48633       	93.12293       	92.78169       	92.940994      	93.330315      	93.06518       	93.16268       	93.59736       	93.41535       	93.661095      	93.73649       	93.6512        	93.866165      	93.50333       	93.008415      	93.358         	93.67552       	93.05029       	93.307846      	93.89427       	93.7685        	94.044365      	93.96034       	93.37853       	93.66078       	93.927895      	93.6305        	93.51617       	93.41654       	93.228065      	93.0995        	93.34586       	93.42197       	93.30408       	93.435875      	93.07165       	93.34364       	94.12138       	94.36718       	94.052315      	93.8978        	93.89176       	93.64262       	93.872856      	93.7946        	93.81923       	94.06636       	93.830826      	93.917816      	94.01972       	93.770454      	93.728195      	93.82487       	93.92339       	93.4893        	93.881874      	93.77697       	94.27762       	94.07149       	93.82605       	93.40422       	93.54817       	93.20096       	92.72536       	92.87835       	92.54932       	92.94949       	92.80897       	92.82182       	93.01111       	93.34449       	93.247314      	92.90951       	93.450485      	93.320854      	93.47047       	93.63091       	93.59541       	93.88211       	93.86114       	93.58078       	93.61961       	93.94301       	93.74002       	94.079994      	94.060905      	93.738         	93.57879       	93.76583       	93.98491       	94.23476       	94.18453       	94.01149       	
93.77072       	93.89143       	93.78605       	93.54529       	93.793205      	93.54981       	93.15101       	93.129135      	92.68482       	92.47661       	92.41631       	92.462776      	92.62032       	92.5813        	92.4348        	92.24368       	92.667244      	93.22594       	93.342926      	92.66865       	93.0196        	93.07646       	93.26871       	93.46188       	93.56489       	93.46599       	93.748665      	93.941666      	93.12809       	93.40614       	93.46828       	93.83713       	93.55411       	93.69544       	93.37375       	93.4082        	93.85941       	93.66467       	93.573         	92.85026       	92.51794       	92.99671       	93.000565      	93.728935      	94.65779       	94.2175        	94.718124      	94.406624      	94.342         	94.17272       	93.92262       	93.54296       	93.676186      	93.44918       	93.393814      	93.501495      	93.5043        	93.4958        	93.71713       	93.748985      	93.98103       	93.570885      	93.44927       	94.12597       	94.054184      	94.05541       	94.07567       	94.12044       	93.98306       	93.922066      	93.52657       	93.33112       	92.9797        	92.900955      	93.57262       	93.392136      	93.69437       	93.61703       	93.5019        	93.81229       	93.994675      	93.967285      	93.530716      	93.62497       	94.167465      	93.52661       	94.02355       	93.95002       	94.07468       	93.74333       	93.98711       	93.80779       	93.6656        	93.4843        	93.82525       	93.89179       	94.17133       	94.67566       	94.69887       	94.27613       	
93.9732        	94.14047       	93.91999       	93.67395       	93.86923       	93.772064      	93.95338       	93.499374      	93.547066      	93.08904       	93.38864       	93.36968       	93.134735      	93.48522       	93.03963       	93.33934       	93.503784      	93.69519       	93.59122       	93.82031       	93.80795       	94.04305       	93.56249       	93.72466       	94.06502       	93.79667       	93.99211       	94.214676      	94.21859       	94.201035      	94.04759       	94.05458       	94.0169        	93.872856      	93.876755      	93.5735        	93.6558        	93.34685       	93.67765       	94.081215      	93.82032       	93.60123       	93.770096      	93.82071       	93.82271       	94.38429       	94.26534       	94.077484      	93.82092       	93.96126       	93.6678        	93.623955      	93.52581       	93.7929        	93.768715      	93.5352        	93.5568        	93.83708       	93.85235       	94.17249       	94.65628       	93.95826       	93.49395       	94.063995      	93.76497       	93.61154       	93.68442       	93.11654       	93.20643       	92.962845      	92.60962       	92.846405      	93.15009       	92.92443       	92.67233       	93.403         	92.850586      	92.6389        	93.397415      	93.31967       	93.684006      	93.56479       	93.380844      	93.28524       	93.69191       	93.883064      	93.924484      	93.704216      	93.86068       	94.38056       	94.4544        	94.0529        	94.23885       	93.96898       	93.24049       	93.06584       	93.19343       	92.90116       	93.10976       	93.252335      	
94.00955       	93.827965      	93.953865      	94.22578       	94.43848       	93.71815       	93.00292       	92.35878       	92.84266       	92.88492       	92.691536      	93.10788       	93.37544       	93.190056      	93.12439       	92.85432       	92.55529       	93.14229       	92.97243       	93.20546       	92.89466       	93.180466      	93.63161       	94.12102       	93.51645       	93.64886       	93.44202       	93.53924       	93.53474       	93.83862       	93.88595       	93.49133       	94.134735      	93.79497       	93.61804       	93.83782       	93.80482       	93.479546      	93.388466      	93.304214      	93.71335       	93.602486      	93.09224       	93.22609       	93.41926       	93.83321       	94.25195       	94.47547       	93.98067       	94.134674      	94.26412       	94.40514       	94.29825       	94.00953       	94.229004      	94.046425      	93.95057       	94.0478        	94.296455      	94.05284       	93.79225       	93.440544      	93.754105      	93.47786       	93.61846       	94.038124      	93.71309       	93.2233        	93.279655      	93.565704      	93.47506       	93.389275      	93.568726      	93.416046      	93.27361       	93.142334      	93.41771       	93.482994      	93.19698       	92.97427       	93.27461       	93.43025       	93.05865       	93.28101       	93.38504       	92.99638       	93.59004       	93.42496       	93.81086       	93.87525       	93.77264       	93.944534      	93.79758       	93.642746      	94.173775      	94.13844       	93.7614        	93.70292       	93.78468       	93.523994      	
93.89682       	94.0585        	93.73725       	93.53535       	93.34095       	93.03325       	92.98813       	92.5146        	92.59631       	92.841705      	92.83362       	92.78454       	93.1779        	93.313354      	93.0721        	93.31291       	93.02624       	92.873695      	93.60792       	93.391304      	93.246796      	93.58824       	93.65351       	93.69479       	93.95965       	93.60884       	93.91226       	94.05451       	93.666016      	93.570114      	93.491936      	93.728096      	93.80295       	93.38545       	93.76946       	93.408966      	93.65911       	93.38443       	93.45333       	93.59639       	93.36561       	93.46274       	93.20135       	93.59531       	94.1073        	94.50292       	94.72249       	94.64057       	94.71566       	94.52401       	94.30545       	94.07936       	94.342865      	94.20389       	93.97487       	94.342125      	93.87862       	94.19254       	94.05729       	94.00395       	93.67613       	93.72238       	93.43556       	93.287796      	93.33631       	93.64781       	94.036255      	93.850426      	93.87873       	94.01456       	94.36513       	94.233475      	93.75806       	93.304375      	93.25143       	93.05366       	92.93072       	93.49308       	93.717865      	93.59456       	93.46178       	93.43965       	93.30844       	93.45379       	93.91072       	93.86658       	93.889496      	94.36919       	93.96276       	93.92125       	94.22659       	93.80348       	93.92757       	94.096886      	93.994995      	94.27847       	94.20645       	93.93659       	93.68531       	93.62355       	
93.498344      	93.735306      	93.75606       	93.99718       	94.054085      	93.53864       	93.581985      	93.8965        	94.13482       	94.176544      	93.27836       	93.5441        	93.80078       	93.96434       	93.46631       	93.78624       	93.66527       	93.47536       	93.53879       	93.63081       	93.619865      	93.645004      	93.685394      	93.6357        	93.36964       	93.32927       	93.242744      	93.436646      	93.48487       	93.440765      	93.11413       	93.09525       	93.019585      	93.2992        	93.123215      	93.32712       	93.17244       	93.61789       	93.838104      	93.28316       	93.37215       	93.251274      	93.42381       	93.31168       	93.18897       	93.33736       	94.18718       	93.85361       	93.65081       	94.08895       	94.19827       	93.83906       	93.95122       	93.82343       	93.73132       	94.103676      	94.02116       	93.55303       	93.98096       	93.75082       	93.64213       	93.66795       	93.82335       	93.77689       	93.751625      	93.99693       	94.17873       	94.06142       	94.18588       	94.14943       	94.139725      	94.557076      	94.335686      	94.11987       	94.12036       	94.39198       	94.19019       	94.05554       	93.79664       	94.16164       	94.28          	94.22973       	94.427414      	94.15589       	94.022736      	94.0942        	93.79491       	93.690544      	93.95301       	93.60759       	93.45698       	93.61694       	93.61792       	93.6977        	93.946045      	93.72766       	93.72332       	94.145355      	94.041756      	94.14928       	
93.28402       	93.84927       	93.98656       	93.8575        	94.280426      	94.36512       	93.8726        	93.93564       	93.31878       	93.784195      	93.33782       	93.769936      	93.63525       	93.509315      	92.80051       	93.055374      	93.41561       	93.24592       	93.56033       	93.20799       	93.23677       	93.406265      	93.36181       	92.698555      	93.158806      	93.069954      	93.31115       	93.30851       	93.09781       	93.518684      	93.44643       	93.72768       	93.65613       	93.40736       	93.312126      	93.45482       	93.295616      	93.25631       	93.121956      	93.41014       	93.37425       	93.847046      	93.44006       	93.46277       	93.66932       	93.72591       	93.97366       	94.49466       	94.283554      	94.25404       	94.05541       	93.83558       	93.79656       	94.03392       	94.42433       	94.2922        	94.169205      	94.221855      	94.26856       	93.94255       	93.8122        	93.51048       	93.66513       	93.69756       	93.48564       	93.54979       	93.86195       	93.68151       	93.87752       	93.878586      	93.82103       	93.74632       	94.30498       	93.91918       	93.930626      	93.53776       	93.6883        	93.876915      	93.5004        	93.77475       	93.7295        	93.348114      	93.35686       	93.62393       	93.639496      	93.278435      	93.62808       	93.29912       	93.35772       	92.80547       	93.08843       	93.67026       	93.59771       	93.588905      	93.941055      	93.97177       	93.494865      	93.74516       	93.596504      	93.36991       	
93.74617       	93.88453       	94.08542       	94.01871       	93.68087       	94.17382       	94.10987       	93.53211       	93.661736      	93.85635       	93.11597       	93.33035       	93.791176      	93.77259       	93.95846       	93.94533       	93.52916       	93.67282       	93.33113       	93.42712       	93.92674       	93.55713       	93.623886      	93.706245      	93.81304       	93.809746      	93.6047        	93.7985        	93.591515      	93.99539       	94.15358       	94.43722       	94.10742       	93.862274      	94.21187       	94.28726       	94.06363       	93.9801        	93.76978       	93.66342       	93.32582       	93.28856       	93.85468       	93.251495      	93.52569       	93.65002       	94.146255      	94.772896      	94.717         	94.20121       	93.37247       	93.31479       	93.34969       	93.4858        	93.728096      	93.76492       	93.67825       	93.600716      	93.52387       	93.59856       	93.63591       	93.53753       	93.73345       	93.95743       	93.82354       	94.01905       	94.10107       	94.580925      	94.29201       	93.98727       	93.95316       	93.85876       	94.16873       	93.344536      	93.38638       	93.57736       	93.56762       	94.055         	94.261955      	94.00952       	93.7289        	93.66568       	93.48277       	93.04577       	93.37044       	93.901245      	93.67093       	93.735596      	93.88716       	94.50378       	94.226006      	93.79334       	93.84262       	94.1976        	93.97277       	94.09816       	93.891396      	94.067764      	93.523926      	93.82988       	
94.084946      	94.17689       	94.29566       	94.31735       	94.03528       	94.57427       	93.98958       	93.73955       	93.72069       	93.401535      	93.26015       	93.196686      	92.86251       	92.9432        	93.157684      	93.176926      	93.40626       	93.44038       	93.28407       	92.913765      	92.831055      	93.08505       	93.23819       	93.38609       	93.3754        	93.78016       	94.01383       	93.61684       	93.343346      	93.72625       	93.87626       	93.54652       	93.5337        	93.74662       	93.643234      	93.46777       	93.164566      	93.33747       	93.732574      	93.24844       	93.65536       	93.702866      	93.01985       	93.22505       	93.811035      	93.34709       	93.76051       	94.616745      	95.00585       	94.54171       	94.39837       	94.41464       	94.669914      	94.373085      	93.933         	94.17864       	94.019035      	93.71737       	93.90897       	94.957146      	93.959114      	94.27058       	94.29623       	94.13445       	93.48797       	93.90899       	94.303345      	94.46435       	94.581245      	93.99157       	93.970184      	93.96184       	93.89839       	94.12038       	94.54835       	93.99421       	93.84905       	93.91019       	93.98321       	93.693         	93.68078       	93.74145       	93.76368       	93.84842       	93.93944       	93.709564      	93.943405      	93.445595      	93.794         	93.44307       	93.30645       	93.57973       	93.28724       	93.3142        	93.39232       	94.058426      	93.9371        	93.808685      	93.810356      	93.78093       	
93.7124        	93.469765      	93.46461       	93.5256        	93.763054      	94.1346        	93.9783        	93.543205      	92.696815      	93.17045       	93.17148       	93.04674       	93.53496       	93.54971       	93.72295       	93.38028       	93.22322       	93.405075      	93.78393       	93.8741        	93.81154       	93.76647       	93.61557       	93.671196      	93.796555      	94.02589       	93.6775        	93.342125      	93.67567       	92.9428        	93.16931       	93.48347       	93.13239       	93.44172       	93.36418       	93.62294       	93.442505      	93.68478       	93.71306       	93.640594      	93.90451       	93.8981        	93.50883       	93.52631       	93.95509       	93.792694      	94.41436       	94.5347        	94.617935      	94.677704      	94.16654       	94.12838       	94.2097        	93.88111       	93.56869       	94.25078       	93.32604       	93.32698       	93.50282       	93.80773       	93.39139       	94.15102       	94.12708       	93.79131       	94.1711        	94.143394      	94.120346      	94.19596       	94.04353       	94.05326       	94.12138       	94.32763       	93.95656       	94.35014       	93.69994       	93.34002       	93.84443       	93.79759       	93.81175       	93.8163        	93.834465      	93.96419       	93.88417       	93.60989       	93.7154        	93.75868       	93.52524       	93.541756      	93.91362       	93.99149       	94.05291       	94.340164      	93.73453       	93.757645      	93.66723       	93.54298       	93.390366      	93.55876       	93.70379       	93.8691        	
93.506096      	93.44534       	93.36356       	93.303604      	93.355576      	93.7152        	93.80232       	93.5912        	93.64633       	93.482376      	93.17765       	93.12233       	93.143425      	92.88895       	93.37631       	93.31264       	93.3411        	93.44789       	93.25483       	92.98927       	93.312675      	93.51712       	93.38824       	93.2441        	93.328766      	93.06668       	93.5268        	93.34291       	93.000786      	93.82205       	93.53708       	93.62212       	93.85591       	93.696976      	93.984955      	93.57099       	93.54853       	93.51674       	93.602936      	93.96672       	93.585434      	93.556625      	93.736626      	93.87062       	93.66429       	93.64547       	94.322945      	94.066986      	94.13533       	94.952354      	94.70494       	94.0816        	94.0804        	94.90294       	94.20674       	94.04605       	94.325165      	94.26318       	94.22447       	93.98329       	93.523834      	93.83858       	94.83928       	94.51293       	94.537346      	94.36091       	94.18615       	94.24104       	94.57906       	93.74584       	93.9034        	94.08788       	93.876724      	93.68766       	93.79207       	93.62198       	93.54687       	93.741585      	93.5881        	94.23729       	94.168915      	93.718185      	94.09401       	94.41934       	94.25511       	94.38505       	94.509766      	93.86272       	93.63611       	93.09705       	93.38139       	93.554855      	93.280876      	93.48092       	93.19627       	93.48737       	93.45387       	93.41324       	93.52711       	94.038605      	
93.79138       	93.844475      	93.97393       	94.1001        	94.72124       	94.8316        	94.609566      	93.69052       	93.54271       	93.27319       	93.25284       	93.68297       	93.65736       	93.60357       	93.78763       	93.2561        	93.534355      	93.56038       	93.33067       	93.32868       	93.43487       	93.12691       	93.45084       	94.057144      	94.03425       	94.35897       	94.243416      	93.685555      	94.03044       	93.42435       	93.49703       	93.50378       	93.14579       	93.22826       	92.932526      	93.4021        	93.738235      	93.70258       	93.661705      	93.34497       	93.52878       	93.37299       	93.52958       	94.00053       	93.563675      	93.56316       	93.91064       	93.89115       	94.10754       	94.60844       	94.47452       	94.39201       	94.535995      	94.6938        	94.48133       	94.549774      	94.2994        	93.57825       	93.46772       	93.6835        	93.68236       	93.56177       	93.761116      	93.69259       	93.88337       	93.62892       	93.81711       	93.47368       	93.60261       	94.169235      	93.90854       	93.25119       	92.974655      	93.00997       	92.489914      	92.74814       	92.86026       	93.21091       	92.96953       	93.17611       	93.6888        	92.902275      	93.19878       	93.31342       	92.77262       	93.26017       	93.026924      	92.83316       	93.10302       	93.198456      	93.095406      	93.75961       	93.569176      	93.36138       	93.35573       	93.16772       	92.92095       	93.03155       	93.00053       	92.98292       	
94.13428       	94.02504       	93.99806       	94.1386        	94.0584        	93.812065      	93.62809       	93.52941       	93.08127       	93.311195      	93.085236      	93.162476      	93.80859       	93.479614      	93.67376       	93.51716       	93.736855      	93.46638       	93.736855      	93.50248       	93.63192       	93.263306      	93.37542       	93.852776      	93.640915      	93.27271       	93.32875       	93.29316       	93.21034       	93.3028        	93.373985      	93.354095      	93.30476       	93.56759       	93.51281       	93.72571       	93.92839       	93.89912       	93.46752       	93.69059       	93.56346       	93.93314       	94.113716      	93.86702       	93.55102       	94.3825        	93.949295      	94.14664       	94.4169        	94.2138        	94.296394      	93.9012        	93.891716      	93.97168       	93.59716       	93.39839       	93.43002       	93.18346       	93.15882       	93.52791       	93.44589       	93.31715       	93.81981       	93.7928        	93.822784      	93.84575       	94.113075      	93.97382       	94.09504       	93.71075       	93.71567       	94.26392       	94.08284       	93.95926       	94.01262       	93.9206        	94.42827       	94.36386       	94.23088       	93.85787       	93.79813       	93.69795       	93.74785       	93.15067       	93.18138       	93.40413       	93.23539       	93.36555       	93.508896      	93.90783       	93.19306       	93.63742       	93.99841       	93.515045      	93.45529       	93.63011       	93.547646      	93.38056       	93.56094       	93.87424       	
93.36256       	93.71856       	93.54656       	94.03963       	94.3221        	94.131714      	94.30644       	94.466965      	93.90328       	93.57568       	93.63759       	93.16874       	93.024055      	92.91098       	93.00944       	93.68532       	93.48571       	93.27542       	93.47049       	93.63061       	93.05411       	93.44381       	93.70534       	93.855484      	93.59534       	93.677315      	93.978714      	93.97636       	94.3576        	93.99971       	93.67224       	94.17968       	93.847336      	93.99053       	93.9613        	93.935425      	93.972664      	94.001465      	93.77145       	93.91784       	93.885124      	93.57149       	93.85905       	93.79476       	93.7626        	93.38428       	93.83609       	93.978195      	93.7116        	93.57093       	93.520256      	93.36164       	93.34966       	93.230156      	94.12469       	94.24991       	93.881065      	94.36459       	94.12344       	94.02217       	94.463776      	94.581924      	93.93441       	93.97248       	94.1432        	93.76957       	93.6374        	93.68255       	93.434685      	93.61043       	93.48116       	93.22435       	93.32575       	93.15321       	93.32272       	93.2677        	93.24418       	92.91871       	93.48768       	93.370415      	93.274185      	93.13512       	93.03763       	93.37688       	92.98644       	93.10152       	93.41432       	93.41651       	93.49145       	93.59321       	93.47823       	93.31501       	93.28963       	93.24927       	93.65119       	93.71611       	93.68468       	93.706055      	93.52804       	93.74669       	
94.18472       	93.837036      	93.96182       	94.11494       	93.853134      	93.70752       	93.534454      	93.49338       	93.20369       	92.853836      	92.423546      	92.373085      	92.478195      	92.070404      	92.088104      	92.82361       	92.1789        	92.45724       	92.71752       	92.55268       	92.48734       	93.104965      	93.24513       	92.863235      	93.000946      	93.15243       	93.68189       	93.77037       	93.50086       	93.23537       	93.63588       	93.56954       	93.48659       	93.753914      	93.91675       	93.356636      	93.553986      	93.7388        	93.68412       	94.243126      	93.97782       	93.50188       	93.57764       	94.12155       	93.47009       	93.67732       	93.347725      	92.93885       	93.53015       	93.11134       	93.468216      	94.18472       	93.86986       	93.87001       	93.693924      	93.454056      	94.051605      	93.69185       	93.6472        	93.974236      	93.84129       	93.676186      	93.86751       	94.067764      	93.80208       	93.55848       	93.761925      	93.78914       	94.13915       	93.99243       	93.84997       	93.78263       	93.79016       	93.31493       	93.571365      	93.63615       	93.6488        	94.368         	93.88646       	93.40339       	93.48747       	93.53609       	93.03157       	93.67441       	94.246414      	94.12157       	93.830826      	94.15885       	94.21994       	94.58435       	94.381805      	94.449875      	94.67984       	94.51586       	94.02154       	94.37671       	93.96492       	93.66659       	93.7714        	93.83334       	
94.071815      	94.069916      	94.343704      	94.47596       	94.00471       	93.589554      	94.272835      	94.31451       	93.63013       	93.10998       	93.0254        	93.2498        	92.84574       	93.15195       	93.36927       	93.36044       	93.301796      	93.21472       	93.64445       	93.77051       	94.07912       	93.84889       	93.79651       	94.09094       	93.594604      	93.392624      	93.20002       	93.53382       	93.135605      	93.49761       	93.2647        	93.53528       	93.655525      	93.8224        	93.587494      	94.19791       	93.930145      	94.437584      	94.674126      	94.42985       	94.45131       	94.04499       	94.34245       	94.048996      	93.935905      	93.82056       	93.76352       	93.69257       	93.49423       	93.7202        	93.86675       	93.63339       	93.462654      	93.65315       	93.79476       	93.750435      	93.70969       	93.929634      	93.44154       	93.89106       	93.9836        	94.1781        	93.67133       	93.58801       	93.36192       	93.83695       	93.69727       	93.36407       	93.4566        	93.45494       	93.303055      	93.41895       	93.3259        	93.528435      	93.67888       	93.27607       	93.05588       	93.35665       	93.18754       	93.57264       	93.40534       	93.77034       	93.685455      	94.06292       	93.57099       	93.85273       	94.257416      	94.29588       	94.078575      	94.3916        	93.73099       	93.35029       	93.66542       	93.788994      	93.34456       	93.646935      	93.45378       	93.6047        	94.440796      	94.003105      	
93.46825       	93.792534      	93.88976       	93.77147       	93.844795      	94.14938       	93.70037       	93.43324       	93.279755      	92.93307       	93.50915       	93.55344       	93.0863        	92.757675      	92.88595       	92.59673       	92.53425       	92.57614       	93.282585      	93.13554       	93.212715      	93.79385       	92.900826      	93.12267       	93.2603        	92.840004      	92.99723       	93.0708        	93.41771       	93.970245      	93.23852       	93.845184      	94.39659       	94.25541       	94.362175      	94.51104       	94.353836      	94.18859       	94.40105       	93.82198       	93.69991       	94.20817       	93.635185      	93.74995       	93.692856      	93.46545       	93.424614      	93.88531       	93.83524       	93.72789       	93.7578        	93.299355      	93.5166        	93.65311       	93.81759       	94.00871       	93.88056       	93.380974      	93.65166       	93.630295      	93.22658       	93.33574       	93.35194       	93.070786      	93.035645      	93.22386       	93.21171       	93.9139        	93.50961       	93.48336       	94.178375      	93.57518       	94.247574      	93.92378       	93.61446       	93.45922       	94.065865      	94.101654      	93.66988       	93.68703       	93.6176        	93.2757        	93.61236       	93.39295       	93.38916       	94.1689        	94.120285      	94.06344       	94.14875       	94.08431       	94.060905      	94.6539        	94.68628       	93.95657       	94.32529       	94.39605       	93.937836      	94.259476      	94.37066       	93.82771       	
94.365974      	93.73538       	93.61388       	93.94976       	94.224556      	94.26364       	94.1768        	94.38892       	94.11769       	93.6167        	92.99189       	93.57807       	93.26112       	92.844406      	92.949394      	93.663895      	93.77787       	94.148636      	94.11131       	93.9992        	94.28          	94.388306      	94.99724       	94.561775      	94.49477       	93.972374      	93.84091       	93.8579        	93.59415       	94.10644       	94.47932       	94.03795       	93.87868       	94.233765      	94.13217       	93.627235      	94.19283       	94.0673        	93.92557       	93.89562       	93.642296      	93.24739       	93.62613       	93.352295      	93.2826        	93.026695      	92.94418       	93.264084      	92.92643       	92.57836       	93.09115       	93.612465      	92.90762       	93.10604       	92.93004       	93.03569       	93.624306      	93.806145      	93.56466       	93.61182       	93.67846       	93.39106       	93.35686       	92.90649       	93.332085      	93.60922       	93.28955       	93.207565      	93.47093       	93.39327       	93.101685      	92.92472       	93.079834      	93.08642       	92.770874      	92.90906       	93.28346       	93.2004        	92.864426      	93.77096       	94.211334      	93.64711       	93.534134      	93.55698       	94.00105       	93.82535       	93.62383       	93.84189       	93.34074       	93.510666      	93.44481       	93.52843       	93.75378       	93.81833       	94.11998       	93.61433       	93.676895      	93.90027       	93.82109       	93.83466       	
94.213326      	93.86299       	93.73748       	93.75496       	93.764656      	93.60474       	93.859856      	93.58639       	94.12643       	93.799225      	93.88374       	93.66578       	93.58952       	93.093506      	93.24273       	93.05603       	93.25833       	93.216415      	93.25374       	93.552666      	93.58853       	93.63618       	93.72327       	94.21005       	94.2288        	94.3942        	94.607056      	94.42737       	94.05895       	93.854256      	93.82861       	93.69735       	93.68152       	94.23868       	94.43107       	94.19046       	94.42128       	94.03068       	93.67714       	94.154015      	93.97006       	93.89128       	93.35767       	93.68061       	93.28788       	93.61858       	93.40527       	93.60271       	93.777214      	94.35607       	94.01045       	94.21827       	94.306305      	94.01376       	93.84813       	93.70403       	93.45845       	93.60776       	93.359         	93.60424       	93.355995      	93.888306      	94.091835      	93.575966      	93.69296       	93.72721       	93.81795       	93.37883       	93.516914      	93.71923       	93.56416       	94.2256        	94.086044      	93.88344       	94.0369        	94.1656        	93.5502        	93.971146      	93.56233       	93.658585      	93.80689       	93.26861       	93.118286      	93.157875      	92.98287       	92.78429       	92.98469       	92.681076      	92.985916      	92.96903       	92.80566       	92.875786      	92.9666        	93.30816       	93.41112       	93.09874       	92.70492       	93.13656       	93.30252       	92.721016      	
94.02968       	94.43222       	94.359146      	94.23447       	94.299324      	94.37386       	94.49384       	93.98422       	94.18657       	93.65111       	93.8945        	94.05554       	93.48648       	93.275444      	93.1796        	93.41228       	93.40608       	93.290825      	93.481064      	93.8788        	94.25247       	94.491455      	94.35976       	94.18356       	94.1138        	94.13714       	93.91329       	94.34811       	94.22477       	93.69442       	93.96472       	93.774536      	93.33883       	93.49993       	93.5393        	93.44353       	92.93547       	93.1561        	93.627045      	93.26592       	93.415924      	93.60638       	93.45377       	93.96734       	94.1541        	93.95889       	93.85421       	93.764854      	93.97193       	93.75117       	93.79894       	93.93919       	93.5064        	93.66964       	93.745224      	93.26355       	93.57474       	93.61938       	93.84721       	93.92619       	93.72865       	93.915436      	93.58768       	93.833         	94.01142       	94.0035        	93.473885      	93.52868       	93.569786      	93.49803       	93.151436      	93.75884       	93.953445      	94.01755       	93.56674       	93.96589       	93.822495      	93.78978       	93.69827       	93.923004      	93.63676       	93.67642       	94.11455       	93.8607        	93.560905      	93.67664       	93.769         	93.696045      	93.299065      	93.74154       	93.44526       	93.83226       	93.311066      	93.21501       	93.17555       	93.25024       	93.41353       	94.07625       	93.7854        	93.04028       	
93.68921       	93.32875       	93.26988       	93.2734        	93.52894       	93.529305      	93.40866       	93.828766      	93.78095       	93.42949       	93.86293       	94.2089        	94.128365      	94.32852       	94.3486        	94.12131       	93.8839        	94.26498       	94.04941       	93.63205       	94.07127       	94.00804       	93.8163        	94.173515      	93.429405      	93.432365      	94.02026       	93.50932       	93.46596       	94.21953       	93.705315      	93.425674      	93.86706       	93.80174       	93.899345      	94.37556       	94.22823       	93.944664      	93.48071       	94.203354      	94.41333       	94.162025      	93.85501       	94.0881        	94.00347       	93.45105       	93.817795      	94.26391       	93.97338       	94.28023       	93.85634       	94.199745      	93.59887       	93.85914       	93.50755       	93.869804      	94.09136       	93.68367       	93.46835       	93.659065      	93.4694        	93.76264       	93.5877        	93.60029       	93.604546      	93.99808       	93.56402       	93.745674      	93.59326       	93.227974      	93.19316       	93.47066       	93.20893       	93.669136      	93.78643       	93.29818       	93.50879       	94.287636      	94.092896      	93.84113       	94.2929        	93.978676      	94.08937       	94.109604      	93.84266       	94.27254       	94.61695       	94.290764      	94.105194      	93.63559       	93.19991       	93.870186      	93.98139       	93.65866       	94.000534      	94.166214      	93.70977       	93.78616       	93.659424      	93.54302       	
93.03816       	93.582954      	93.60543       	93.43244       	93.34871       	93.45302       	93.63642       	93.39224       	93.338135      	93.585014      	93.695564      	93.21776       	93.33199       	93.35631       	92.94656       	93.62858       	93.3888        	93.539635      	93.45568       	93.47609       	93.52108       	93.61148       	93.78908       	93.417145      	93.1115        	93.23083       	92.98754       	92.72484       	93.189         	93.09001       	93.387726      	93.02248       	93.1841        	93.24602       	93.01364       	93.18689       	93.64764       	93.66679       	93.057915      	93.0474        	93.36624       	92.88585       	93.16121       	93.34648       	93.029045      	92.970665      	93.434235      	93.3462        	93.75139       	93.527176      	93.147385      	93.35665       	93.51702       	93.93515       	93.7035        	93.7994        	93.56117       	93.44612       	93.71329       	93.127495      	93.14108       	93.25992       	92.56972       	92.896355      	92.98914       	92.87643       	92.84964       	93.217926      	93.19193       	92.961685      	93.07255       	92.774704      	93.63272       	93.346344      	93.47262       	93.79251       	93.44642       	93.636185      	93.556114      	93.47856       	93.48852       	93.636345      	93.45745       	93.50552       	93.49657       	93.28247       	93.43082       	93.298615      	93.902504      	93.630424      	92.87501       	93.22018       	93.04866       	93.567986      	93.89328       	94.06595       	94.22037       	94.28814       	94.308136      	94.07219       	
93.38518       	93.68306       	93.48381       	93.243004      	93.24964       	93.35638       	93.26571       	93.04693       	93.40807       	93.22438       	93.26845       	93.25712       	93.683685      	93.89246       	93.626205      	93.67669       	93.7697        	93.766975      	94.133194      	94.58177       	94.11656       	94.36231       	94.176445      	94.40637       	94.50308       	94.01692       	94.06163       	94.13965       	93.749054      	93.35209       	93.6539        	93.49142       	93.937485      	93.45969       	93.915985      	94.138145      	93.91582       	94.30167       	94.027534      	94.122955      	93.80275       	93.83533       	94.1646        	94.0169        	94.1407        	94.33013       	94.08211       	93.84147       	94.04712       	94.00081       	93.70601       	93.7454        	93.332535      	93.495224      	93.75651       	94.016396      	93.69139       	93.73083       	93.682175      	93.840195      	93.80028       	93.043976      	93.50289       	93.786705      	93.927536      	93.76706       	93.8088        	93.424034      	93.64574       	93.70677       	93.63775       	93.68437       	93.325264      	93.28362       	93.07237       	93.285385      	92.91052       	93.43155       	93.99967       	93.684456      	93.471054      	93.56385       	93.869125      	93.90003       	93.8076        	93.95501       	93.88318       	94.04297       	94.0309        	93.90451       	94.07846       	94.17905       	94.289055      	94.03224       	94.08455       	93.61126       	93.78925       	93.52615       	94.014786      	93.97311       	
93.10656       	93.14254       	93.28089       	93.39261       	93.50037       	93.571625      	93.70362       	93.32763       	93.465576      	93.68071       	93.534706      	93.622116      	93.707924      	93.81977       	93.775764      	94.06944       	93.98969       	94.0997        	94.079956      	93.82751       	93.59614       	93.67204       	93.341965      	93.61077       	93.55183       	93.65963       	93.76746       	94.041855      	94.08085       	93.81111       	94.0356        	94.34113       	94.36308       	93.89871       	93.893974      	93.80547       	94.22067       	93.7035        	93.53441       	93.983604      	93.62938       	93.655876      	93.95763       	93.791145      	93.41808       	93.604095      	93.70079       	93.966965      	93.91954       	93.47536       	93.79562       	93.51112       	93.41422       	93.37303       	93.82951       	93.92807       	93.50355       	93.947685      	93.72411       	93.95627       	93.827385      	93.839165      	93.55631       	93.748886      	93.73197       	93.66361       	93.51083       	93.28          	93.291504      	93.317345      	93.45926       	93.70263       	93.475395      	93.4514        	93.80741       	93.87176       	93.2517        	93.42485       	93.66708       	93.531136      	93.78075       	93.586464      	93.61854       	93.67487       	93.7223        	93.82945       	93.77531       	93.40156       	93.86116       	93.43949       	93.319954      	93.60888       	93.589165      	93.466385      	93.318954      	93.32003       	93.35475       	93.584915      	93.39192       	93.59103       	
93.419815      	93.402596      	93.56974       	93.6678        	93.670975      	93.3976        	93.394806      	93.657486      	93.62169       	93.51884       	93.624664      	93.403984      	93.69393       	93.5574        	93.61403       	93.76465       	93.41005       	93.30922       	93.961334      	94.065475      	93.691734      	93.89006       	93.5244        	93.90482       	93.76299       	93.8071        	93.57198       	93.57807       	93.90611       	94.06855       	94.40067       	93.93951       	93.844795      	93.892494      	94.08699       	93.90773       	93.54098       	93.958015      	94.494576      	94.28275       	93.824455      	94.17329       	94.26726       	93.631035      	93.58216       	93.68995       	94.015785      	94.327385      	94.045204      	93.6834        	93.75554       	94.05897       	94.1057        	94.00987       	93.68591       	93.440926      	93.52502       	93.50546       	93.68248       	94.09566       	93.77321       	94.09961       	93.8212        	93.45016       	93.58831       	93.50209       	93.37861       	93.441826      	93.69364       	93.70497       	93.7516        	94.48027       	93.99991       	93.89216       	94.22545       	93.90408       	93.87934       	93.87907       	93.896805      	93.73937       	93.542915      	93.50473       	93.4028        	93.48952       	93.73951       	93.78357       	93.79016       	93.56949       	93.811066      	94.022415      	94.144         	93.83823       	93.928474      	93.581795      	93.2226        	93.038414      	93.48519       	93.29499       	93.09871       	93.42137       	
93.80275       	93.571014      	93.50777       	93.50253       	93.5199        	93.48735       	93.29046       	93.73844       	93.719315      	93.84604       	93.86518       	93.891266      	93.420616      	93.64897       	93.6095        	93.06032       	93.497505      	93.61797       	93.68818       	93.05082       	93.346725      	93.713066      	93.39748       	93.21263       	93.63667       	93.994514      	93.29835       	93.541176      	93.46284       	93.92282       	93.30542       	93.330154      	92.93371       	93.181435      	93.63673       	93.63166       	93.77977       	93.93673       	93.63956       	93.60355       	93.94791       	93.81242       	93.42144       	93.37634       	93.4586        	93.13033       	93.17398       	93.00058       	93.465485      	93.34188       	93.66818       	93.74181       	93.90097       	93.77954       	93.33796       	94.07366       	93.49996       	93.7926        	94.09441       	93.61185       	93.63386       	93.626396      	93.51252       	93.271286      	93.57374       	93.73127       	94.09339       	93.42977       	93.31341       	93.61674       	93.5127        	93.23056       	93.55554       	94.00905       	93.344765      	93.78874       	94.557076      	94.25631       	94.09257       	93.80888       	93.62822       	93.88016       	93.56512       	93.65128       	93.43449       	93.31966       	93.39452       	93.41676       	93.35822       	93.340126      	93.4002        	93.49677       	93.168045      	93.538574      	93.70674       	93.63924       	93.752975      	93.40092       	93.12379       	93.62233       	
93.81528       	93.74901       	93.653824      	93.397514      	93.46514       	93.5712        	93.366875      	93.73516       	93.54079       	93.40917       	93.61574       	93.67538       	93.645744      	93.84441       	93.850235      	93.65854       	93.3333        	93.39163       	93.40189       	93.03931       	93.743576      	93.844         	93.863686      	94.01342       	94.513336      	94.45136       	94.02823       	93.88768       	94.04369       	94.055786      	93.59325       	93.785904      	94.032745      	93.82856       	93.3096        	93.59993       	93.53779       	92.90773       	92.779335      	93.20179       	92.99935       	93.018684      	93.07994       	93.23506       	93.08137       	93.4427        	94.01644       	93.75762       	93.921135      	93.84471       	94.11696       	93.04046       	93.2624        	93.507706      	93.99927       	93.2861        	93.70306       	93.572395      	93.879814      	94.10567       	93.742584      	93.23766       	93.39007       	93.42547       	93.47298       	93.275314      	93.29792       	93.79602       	93.9651        	93.44561       	93.58878       	93.69614       	94.0658        	94.29292       	94.34876       	94.36279       	94.39238       	94.25988       	93.793465      	93.83329       	93.761215      	93.73641       	93.79943       	93.327225      	93.66224       	93.75507       	93.80668       	93.72295       	93.64713       	94.082085      	93.89826       	94.15042       	93.445076      	93.729935      	93.92623       	93.32284       	94.20035       	94.75609       	94.00844       	93.56808       	
93.3848        	93.40864       	93.491905      	93.26961       	92.91797       	92.86638       	92.94413       	93.40681       	93.22009       	92.917984      	92.798904      	93.18726       	93.362686      	93.51958       	93.54487       	93.37483       	93.72567       	93.91218       	93.7395        	93.91492       	93.68185       	93.29717       	93.35432       	93.245026      	93.72365       	93.92982       	93.25544       	93.263985      	92.914795      	92.83342       	93.05643       	93.299805      	93.44376       	93.78435       	93.609505      	93.533195      	93.51163       	93.04705       	93.11137       	93.88843       	94.06744       	93.47505       	93.40134       	93.23169       	92.83424       	93.74831       	93.552284      	93.08715       	93.21434       	93.17339       	93.02828       	93.308914      	93.13841       	93.407875      	93.39771       	93.4169        	93.03407       	93.51297       	93.32092       	93.56888       	93.31414       	93.20902       	93.19283       	93.28116       	93.5557        	93.29825       	93.09399       	93.66405       	94.07826       	93.81672       	93.659424      	93.32453       	93.137924      	93.15263       	93.01216       	93.16532       	93.468094      	93.509514      	93.533585      	93.37074       	93.14763       	93.43863       	93.656525      	93.643486      	94.102295      	94.181015      	93.67245       	93.76324       	93.87423       	94.420586      	93.9296        	93.84286       	93.333206      	93.78527       	93.451065      	93.094574      	93.30029       	92.66565       	92.57758       	93.029205      	
93.67487       	93.767296      	93.913956      	94.23282       	94.33009       	94.34728       	94.33431       	93.88744       	93.37458       	93.738205      	94.1353        	93.89568       	93.95981       	93.376335      	93.688934      	93.725426      	93.5942        	93.64998       	93.877106      	93.493355      	93.49191       	93.3942        	93.67238       	93.38448       	93.27125       	94.00487       	93.97079       	94.01977       	94.3463        	94.56695       	94.421585      	94.22514       	93.96903       	94.09676       	93.8767        	93.71846       	93.75646       	93.77154       	93.92226       	93.57264       	93.77502       	93.70706       	93.37118       	93.445885      	93.452156      	93.908485      	93.680595      	93.33205       	93.504326      	93.710434      	93.72301       	94.436775      	94.15439       	93.586296      	93.57002       	94.173676      	94.091705      	93.94263       	93.95114       	93.92935       	94.0185        	93.392944      	93.93265       	93.868546      	93.754196      	93.759315      	93.94471       	93.62885       	93.818596      	94.04314       	93.63525       	93.3424        	93.666435      	93.20482       	93.36392       	93.55873       	93.76624       	93.773766      	94.147354      	94.11415       	94.162636      	94.14654       	93.957436      	93.669304      	94.012535      	93.568146      	93.52876       	93.73949       	93.71994       	93.48739       	93.41088       	93.49918       	93.321         	93.23371       	92.765945      	92.568756      	92.979126      	93.3094        	92.923454      	93.209946      	
92.69953       	92.66224       	92.8759        	92.9388        	92.93994       	92.808754      	93.24791       	93.00017       	93.34459       	93.648346      	93.42958       	92.98068       	93.40889       	93.14493       	93.19605       	93.07143       	93.14401       	93.01263       	93.49736       	93.60758       	93.54434       	93.35173       	93.74971       	94.0594        	93.71935       	93.773384      	93.323235      	93.34783       	93.24829       	93.103676      	93.54485       	93.47696       	93.92753       	93.9664        	93.57609       	93.62911       	93.90323       	93.43521       	93.87334       	93.7775        	94.20982       	94.413864      	94.20993       	93.82423       	93.49024       	93.83428       	94.12793       	94.20455       	94.16381       	93.49106       	94.09997       	93.82385       	93.480064      	93.37298       	93.59928       	93.1942        	93.287224      	93.38872       	93.13562       	93.37161       	93.095         	93.420166      	93.665245      	93.99622       	93.732574      	93.47567       	93.73915       	94.04126       	93.86419       	93.69441       	93.86829       	93.795654      	93.52713       	93.71895       	93.85666       	93.4324        	93.54111       	93.23387       	93.06107       	93.07865       	93.27624       	93.55607       	93.21764       	93.54505       	93.85828       	93.3225        	93.19771       	93.00399       	92.91701       	92.94881       	92.68705       	92.58005       	92.91407       	92.79906       	93.028755      	93.04994       	92.77342       	93.26651       	93.49953       	93.20525       	
93.12558       	93.25676       	93.293526      	93.35306       	93.592606      	93.70879       	93.43028       	93.84356       	94.2104        	94.03886       	93.96237       	93.42037       	93.6234        	93.35128       	93.77356       	93.85947       	93.45213       	93.75395       	94.10648       	93.83292       	93.666954      	93.66466       	93.920204      	94.07282       	94.18935       	93.871         	94.27308       	94.42817       	94.166084      	94.21777       	94.72822       	93.98975       	93.78617       	94.11642       	94.21745       	94.01737       	94.11776       	94.00506       	93.921585      	94.07883       	93.67933       	93.77623       	93.7862        	93.92365       	93.783806      	93.72313       	93.57093       	92.97423       	92.842964      	92.91911       	93.17293       	93.35252       	93.36004       	93.16365       	93.28226       	93.294685      	93.37572       	92.92582       	92.87232       	93.285194      	93.25298       	93.575005      	93.12501       	93.55049       	93.62377       	93.2548        	93.40804       	93.22799       	93.177155      	93.67156       	93.299126      	93.19896       	93.04504       	93.26119       	92.93027       	93.759         	93.52347       	93.9872        	94.210815      	93.62562       	94.04919       	94.168625      	93.807465      	92.99234       	93.5221        	93.45841       	93.12679       	93.30244       	93.140465      	93.24658       	92.922516      	92.76412       	92.63071       	92.39637       	92.43924       	93.20456       	92.87601       	92.44678       	92.95775       	93.19807       	
93.930374      	93.64404       	93.649765      	93.65219       	93.87109       	94.251236      	93.94319       	94.01656       	93.97012       	93.78775       	93.731064      	93.96969       	93.760506      	93.82199       	93.75085       	93.48617       	93.06355       	93.67862       	93.5396        	93.81615       	93.46432       	93.80537       	93.75652       	93.59117       	93.13342       	93.46994       	93.63583       	92.93928       	92.83829       	92.90549       	92.917656      	92.92619       	93.27449       	93.04422       	93.506584      	93.37716       	93.793526      	93.93014       	94.05098       	93.55542       	93.86122       	94.01128       	93.65306       	94.23229       	93.82681       	93.668755      	93.86476       	94.38923       	94.35058       	93.84289       	93.83111       	93.356285      	93.5358        	93.40838       	93.62242       	93.715485      	93.64953       	93.188736      	93.66361       	93.79232       	93.53786       	93.60062       	93.500404      	93.46296       	93.48861       	93.94927       	93.631424      	93.359406      	93.15842       	93.31347       	93.1849        	93.387276      	93.22217       	93.51944       	93.661095      	93.34732       	93.66049       	93.32545       	93.08765       	93.01393       	92.76025       	92.510796      	92.74263       	93.097115      	92.42768       	92.42738       	92.71578       	92.94195       	92.76372       	92.85035       	92.87454       	93.356476      	93.067184      	92.850266      	92.93297       	93.2275        	92.95247       	92.99146       	93.39177       	93.49454       	
93.91097       	93.64256       	93.65478       	94.02079       	93.76167       	93.75368       	93.63449       	93.772514      	93.55383       	93.79321       	93.38451       	93.543304      	93.63799       	93.28667       	93.602264      	93.47494       	93.409424      	93.35686       	93.335335      	93.07818       	93.93123       	93.84398       	93.54577       	93.507935      	93.64127       	94.15308       	94.252525      	93.76909       	93.426956      	93.15592       	93.237305      	93.50009       	93.458664      	93.64566       	93.424065      	93.96139       	93.90822       	93.93088       	93.55441       	93.14391       	93.30396       	93.13359       	93.39082       	93.374626      	93.54846       	93.619095      	93.92041       	93.3957        	93.361046      	93.61959       	93.43225       	93.402214      	93.599815      	93.45767       	93.27006       	93.05175       	93.1318        	93.0805        	93.47006       	93.61683       	93.897835      	94.058716      	93.763115      	93.82985       	93.787224      	93.32854       	93.91326       	94.24764       	93.95981       	94.11727       	94.24267       	93.507774      	93.51542       	94.19472       	94.02796       	94.06342       	93.75485       	93.83597       	93.52259       	93.14253       	93.072784      	92.7202        	92.92683       	92.96678       	93.41497       	93.5537        	93.43152       	93.30957       	93.3909        	93.49726       	93.33045       	92.88536       	93.14013       	93.68689       	93.29052       	93.665276      	93.6602        	93.20173       	93.34142       	93.34886       	
93.846115      	93.40386       	93.22539       	93.09862       	93.36006       	93.77635       	93.74815       	93.78723       	94.06325       	94.04799       	93.782906      	94.062546      	94.27723       	94.25306       	94.05828       	93.82669       	93.6569        	93.50137       	93.35404       	93.23231       	93.606064      	93.01854       	92.94935       	93.38627       	92.94994       	93.32724       	93.24049       	93.34683       	93.57899       	93.50228       	93.65531       	93.710396      	93.59372       	93.18363       	93.66915       	93.48658       	93.57593       	93.31971       	93.016914      	92.70234       	92.962875      	93.03626       	93.251274      	93.40655       	93.22616       	93.340126      	93.288994      	94.01024       	94.244705      	93.59139       	93.90845       	94.12162       	94.04278       	93.776886      	94.039764      	93.90434       	93.80769       	93.73701       	93.95267       	94.20909       	94.146416      	94.07569       	93.870445      	93.7611        	93.73835       	93.68112       	93.61988       	93.44067       	93.61242       	93.32311       	93.90864       	93.557205      	93.603676      	94.10582       	93.77391       	93.88402       	93.91286       	93.62041       	93.2551        	92.64254       	93.00385       	92.83617       	92.65245       	92.74815       	92.784744      	92.9642        	93.04385       	92.85104       	93.14421       	93.37254       	93.30488       	93.43726       	93.36923       	93.224174      	93.37717       	93.32049       	93.55324       	93.41139       	93.43128       	93.894966      	
93.667534      	93.69047       	93.480865      	93.7806        	93.94518       	93.6184        	93.54787       	93.49382       	93.641525      	93.35194       	93.453445      	93.510254      	93.79094       	94.208725      	93.980835      	94.21708       	94.05689       	93.721695      	93.40899       	93.59449       	93.126816      	93.11527       	93.21623       	93.23953       	93.241104      	92.99112       	93.5693        	93.39662       	93.52348       	93.601875      	93.371124      	93.745865      	92.91984       	92.59839       	93.23121       	93.15722       	93.049324      	92.84113       	93.10727       	93.06637       	93.10924       	93.51436       	93.21619       	93.33948       	93.93177       	93.2587        	93.386856      	93.53047       	93.71615       	93.64424       	93.61189       	93.50446       	93.3372        	93.71603       	93.9064        	93.86748       	93.88317       	93.86779       	93.69169       	94.07864       	93.63095       	94.159515      	94.439285      	94.39425       	94.60217       	94.04351       	94.03582       	94.05998       	93.75612       	93.66169       	93.86607       	93.89808       	93.45356       	93.21053       	93.79255       	93.632095      	93.35595       	93.30523       	93.34923       	92.89327       	93.09664       	92.763916      	92.778435      	92.961716      	92.92762       	93.13754       	93.34342       	93.45515       	93.01591       	93.63642       	93.76399       	93.96557       	94.484695      	94.54635       	94.294525      	94.470695      	93.9998        	93.71231       	94.210625      	93.73227       	
93.02971       	92.72462       	92.92408       	93.09683       	93.19085       	93.03633       	92.7044        	92.89364       	93.14039       	92.74977       	92.93354       	92.721344      	92.67606       	92.70364       	92.51115       	92.41164       	92.829254      	93.04139       	93.31829       	93.37367       	93.27204       	93.34813       	93.46894       	93.61009       	93.49104       	93.79247       	93.771965      	93.93173       	93.898056      	93.423096      	93.67548       	93.196075      	93.44613       	93.5265        	93.954025      	94.19568       	93.337204      	93.58052       	93.766045      	94.097946      	93.74874       	93.62981       	93.82445       	93.7838        	93.68396       	93.68172       	93.39344       	93.44353       	93.91525       	94.2997        	94.16164       	94.32685       	93.739044      	93.296875      	93.788315      	93.92227       	93.6367        	93.23721       	93.24427       	93.52365       	93.91093       	93.74287       	93.41256       	93.25121       	93.49517       	93.319595      	93.23079       	93.35664       	93.42951       	92.949615      	93.428085      	92.91865       	93.23797       	93.32514       	93.35904       	92.81218       	93.81315       	93.59466       	93.24044       	93.19328       	92.632866      	92.871124      	93.1581        	92.98753       	93.46138       	92.957695      	93.18367       	93.36909       	93.37688       	93.23827       	93.42233       	93.202515      	93.122734      	93.25288       	93.457115      	93.79992       	93.90856       	93.811295      	94.09295       	94.07516       	
93.529175      	93.69522       	93.86417       	93.92831       	93.828255      	93.678375      	93.943115      	93.75708       	93.663246      	93.96518       	94.12962       	93.9509        	93.96491       	94.150185      	93.6608        	93.56224       	93.5013        	93.491776      	93.09899       	93.4654        	93.66629       	94.05748       	93.88486       	93.82342       	93.60936       	93.669975      	93.75281       	94.08714       	93.62182       	93.58277       	93.65034       	93.37879       	93.53641       	93.90748       	93.997925      	93.881905      	93.3712        	93.121506      	93.29388       	93.189835      	93.40843       	93.37219       	93.385025      	93.30696       	93.44018       	93.81967       	93.76795       	93.83005       	94.07483       	94.21383       	93.93199       	93.58853       	93.67333       	93.97072       	94.02402       	93.79231       	94.112274      	93.852         	93.59821       	93.576935      	93.34464       	93.15888       	93.60221       	93.969246      	93.82912       	93.5576        	93.72998       	94.38449       	94.33575       	94.02348       	94.340546      	94.105354      	94.13797       	93.756714      	93.769455      	93.98272       	93.87648       	93.60226       	93.88713       	93.93967       	93.40471       	92.920074      	93.467285      	93.16132       	93.31157       	93.32967       	92.86431       	92.81408       	93.43056       	92.82873       	93.22628       	93.02242       	92.98658       	93.00599       	92.94343       	92.6762        	93.11333       	93.10429       	93.16596       	93.435074      	
93.84134       	93.78015       	93.755745      	93.89033       	94.27892       	94.353935      	94.867645      	94.47981       	93.67945       	93.64053       	94.04489       	94.05838       	94.07922       	93.69656       	93.775505      	93.96099       	93.92313       	93.74154       	93.58577       	93.52363       	93.631996      	93.68987       	93.6818        	93.706245      	94.09579       	94.249756      	94.20448       	93.80992       	93.8868        	93.746895      	94.019005      	93.94233       	93.74372       	93.929405      	93.59234       	93.62414       	93.9789        	93.975624      	94.0415        	94.224815      	94.32366       	94.385544      	94.00844       	94.25862       	93.91336       	93.344086      	93.49947       	93.92113       	93.57985       	93.54163       	93.4865        	93.58361       	93.30205       	93.511795      	93.43977       	93.72168       	93.07293       	93.40068       	93.17691       	93.426994      	93.23054       	93.578316      	93.8884        	93.88335       	93.592         	93.969635      	94.10348       	93.711266      	93.34748       	93.69622       	93.99231       	93.99763       	93.50546       	93.443596      	93.70787       	93.36439       	93.41179       	93.69377       	93.47183       	92.79227       	92.45517       	92.78613       	92.79805       	92.92574       	93.27098       	93.1891        	93.40425       	92.96048       	92.98029       	93.09884       	93.3568        	93.136406      	93.81178       	93.573616      	93.58405       	93.26069       	93.31046       	93.42596       	93.42408       	93.273186      	
94.30668       	94.27882       	94.3944        	94.15585       	94.17017       	94.15777       	94.638664      	93.96878       	94.276535      	94.35375       	94.44798       	94.65771       	93.856766      	94.20448       	94.0455        	94.25025       	94.3777        	93.807785      	93.74037       	93.75654       	93.88398       	93.33239       	93.66334       	93.49175       	93.30437       	93.34655       	93.62975       	93.53078       	93.6502        	93.76591       	94.354324      	94.10639       	93.37389       	93.55234       	93.81387       	93.63733       	93.37088       	93.727875      	93.67177       	93.911064      	93.44833       	93.50598       	93.679825      	93.119705      	92.96384       	93.38875       	93.27276       	93.01802       	93.492516      	93.4493        	93.25666       	94.02619       	93.759315      	93.80725       	94.60643       	93.462395      	93.70085       	94.32548       	93.97984       	93.57073       	93.39453       	93.57614       	93.73072       	93.90162       	93.58693       	93.19844       	93.37435       	93.11368       	92.86883       	93.12878       	92.82616       	93.5074        	93.99015       	93.65785       	93.76476       	93.686714      	93.21203       	93.328804      	93.06946       	92.996346      	93.084595      	92.8427        	92.76478       	92.694534      	92.88158       	93.05146       	93.24799       	93.14611       	92.63471       	92.986015      	92.96081       	93.008125      	93.29848       	93.35637       	93.19643       	93.36193       	93.28813       	93.167         	92.94982       	92.97958       	
93.374016      	93.17596       	93.34085       	93.56032       	93.781075      	93.65427       	93.56082       	93.409134      	93.405914      	93.4638        	93.45949       	93.451126      	93.96175       	93.236         	93.63184       	93.60359       	93.472374      	93.363785      	93.41127       	93.489105      	93.12512       	93.185776      	93.1763        	93.41722       	93.48674       	93.18527       	93.127304      	93.37606       	93.01344       	93.35684       	93.43359       	92.57397       	93.25355       	93.508575      	93.61617       	93.93026       	94.03015       	93.95464       	94.07524       	93.94226       	93.33025       	94.17058       	93.99946       	94.07103       	93.746025      	93.12443       	93.141106      	93.1359        	92.752594      	92.80692       	92.97819       	93.09232       	93.47001       	93.97352       	93.73288       	94.44613       	94.0579        	93.86788       	93.912186      	94.02246       	93.890915      	93.95708       	93.53121       	93.40744       	93.78381       	93.89115       	93.67702       	93.421875      	93.42555       	93.466545      	93.94697       	93.99814       	94.18935       	93.917915      	93.84245       	93.81855       	93.7972        	93.902115      	93.79713       	93.132576      	93.21888       	92.881485      	93.037994      	93.11935       	93.08864       	93.28959       	93.628975      	93.53435       	93.08947       	93.409424      	93.73247       	93.56914       	93.91226       	94.06483       	94.39436       	94.30624       	94.29489       	94.22871       	93.793785      	93.88424       	
93.36429       	93.23082       	93.02277       	92.92628       	93.194145      	93.75487       	93.59663       	93.288216      	93.795334      	94.00639       	93.85898       	94.17501       	94.137764      	94.06766       	93.69137       	93.60926       	93.514534      	93.71748       	93.24617       	93.60843       	93.9391        	93.649895      	93.18499       	93.69463       	93.8204        	93.46448       	94.013504      	93.83391       	93.74541       	93.740364      	93.67937       	93.65816       	93.2823        	92.93602       	93.822174      	94.20665       	93.55177       	93.70109       	93.980835      	93.17934       	92.90195       	93.64665       	93.42465       	93.00264       	93.22421       	93.52218       	93.40939       	93.04593       	92.734604      	92.99341       	92.78685       	92.52295       	93.212456      	93.82535       	94.50513       	94.81348       	94.781204      	94.8633        	94.41801       	94.73881       	94.57032       	94.07765       	93.82881       	93.84431       	94.0118        	94.17548       	93.89608       	93.59669       	93.59547       	94.23886       	93.92742       	93.990654      	93.77079       	93.52919       	93.65726       	93.99116       	93.507065      	93.806915      	93.68412       	93.585655      	93.22484       	93.21744       	92.872734      	92.884926      	93.04682       	93.08879       	93.014534      	92.96293       	93.22332       	93.543144      	93.49491       	93.098274      	93.17044       	93.21308       	92.88805       	93.021965      	93.36422       	93.25865       	92.96819       	93.66167       	
93.47545       	93.62849       	93.63917       	93.759186      	94.07527       	94.11152       	93.972534      	93.305954      	94.11647       	94.213455      	93.558426      	94.003654      	93.700714      	93.4854        	93.45257       	93.50428       	93.70778       	93.64399       	93.486855      	94.0486        	93.689644      	93.5094        	93.50427       	93.66579       	93.73023       	93.60296       	93.71638       	93.811554      	93.88478       	93.43787       	93.56426       	93.43183       	93.6243        	93.85547       	93.61809       	93.04564       	92.832016      	92.76543       	92.7104        	92.60892       	92.56841       	92.4672        	92.79924       	92.60884       	92.855194      	93.018745      	93.019356      	93.67512       	93.344536      	93.492355      	93.38248       	93.75302       	93.28631       	93.15711       	93.81119       	93.92065       	94.250725      	94.334755      	94.237465      	94.16165       	94.09681       	93.53015       	93.85835       	93.87348       	93.7179        	93.98013       	93.989975      	93.3654        	93.791695      	94.04054       	93.692955      	93.96296       	93.94205       	94.07373       	94.02733       	93.65348       	94.063896      	94.05834       	93.78784       	93.79056       	94.01578       	93.54431       	93.277596      	93.34431       	92.96178       	93.24788       	93.58764       	93.71769       	93.73853       	93.8753        	93.592735      	94.208084      	93.46486       	93.82145       	93.797935      	93.771965      	93.88623       	93.3581        	93.75733       	93.336174      	
94.02048       	93.76465       	93.63952       	93.744194      	93.89659       	94.19154       	94.17986       	94.056854      	93.8781        	93.76512       	94.23819       	94.3097        	94.44847       	94.524         	94.714615      	94.51749       	94.32177       	93.87472       	93.84558       	93.788124      	93.81027       	93.774864      	93.659706      	94.261314      	94.35247       	94.06406       	94.28374       	93.55188       	93.1747        	92.63115       	92.87941       	93.13708       	92.68926       	92.81981       	92.48206       	92.3986        	92.62215       	92.50041       	92.96767       	93.25164       	93.47496       	93.6562        	93.859245      	93.32799       	93.6281        	93.92545       	93.99477       	93.16472       	93.20585       	92.716805      	93.0378        	92.68997       	93.33534       	93.61513       	94.037056      	94.62215       	94.67392       	94.35832       	94.02066       	94.10332       	94.48011       	93.85123       	94.296196      	94.431435      	94.49338       	94.13079       	94.806854      	94.34492       	94.581474      	94.167         	93.68517       	93.67409       	93.99747       	93.46997       	93.76521       	93.94234       	94.16973       	93.97724       	94.25353       	93.88079       	93.43962       	93.35697       	93.330925      	93.2342        	93.17725       	93.44515       	93.59558       	94.06634       	93.4001        	93.497696      	93.55057       	93.48152       	93.215645      	93.10897       	92.99552       	93.2462        	93.041306      	93.031136      	93.17674       	93.35132       	
93.78911       	93.487724      	93.50839       	93.67199       	94.19078       	94.094734      	94.150665      	94.10546       	93.923355      	93.688614      	94.293976      	94.308464      	93.846886      	94.08729       	94.36712       	94.18556       	94.1783        	94.44982       	94.17252       	93.86141       	93.69414       	93.39627       	93.54728       	93.7294        	93.43694       	93.431435      	93.67673       	93.23588       	93.19225       	93.43314       	92.77494       	92.75146       	93.381584      	93.0976        	92.99171       	93.11901       	92.59672       	92.78711       	92.789986      	92.50883       	92.38717       	92.299194      	92.31759       	92.68466       	92.70659       	92.84653       	93.02025       	92.975746      	92.95739       	92.9484        	92.900345      	92.947334      	93.249664      	93.54943       	93.69292       	94.15047       	94.651855      	94.143745      	94.05705       	94.34595       	94.19376       	93.61405       	93.97224       	93.75451       	93.69544       	93.98999       	94.218376      	93.39015       	93.54218       	94.18037       	93.85167       	94.3577        	94.32228       	93.95201       	94.45726       	94.24421       	93.96301       	94.33749       	94.83644       	94.131744      	93.867744      	93.93185       	93.45935       	93.49515       	93.34946       	93.377335      	93.25358       	93.036064      	93.50357       	93.27007       	93.164276      	92.70222       	93.21913       	93.58589       	93.85177       	93.61234       	94.01388       	94.157265      	94.180756      	93.93583       	
93.367035      	93.24723       	93.24179       	93.267975      	93.43944       	92.91712       	93.19658       	93.35665       	93.29052       	93.34947       	93.17558       	93.02889       	92.59965       	92.9834        	93.221855      	93.74663       	93.56757       	93.72209       	93.38863       	93.97624       	93.87573       	94.01424       	94.09136       	93.698395      	93.56141       	93.045456      	93.229576      	93.32124       	93.54715       	93.436035      	93.26657       	93.21789       	92.79369       	93.07225       	92.94796       	92.68114       	93.05366       	93.06237       	93.22794       	93.34874       	93.279526      	94.079025      	94.04216       	93.528366      	93.574104      	93.21828       	93.59802       	93.813705      	93.654335      	93.51158       	94.15156       	93.84755       	93.5799        	93.38628       	93.525566      	93.532364      	93.61987       	93.89782       	93.62261       	93.894035      	93.27675       	93.826416      	93.957855      	94.197945      	93.80134       	94.00391       	94.14116       	94.178925      	93.59637       	93.49437       	93.330086      	93.49726       	93.46181       	93.81562       	93.69443       	93.5665        	94.03822       	93.88487       	94.02011       	93.53995       	93.21347       	93.01613       	93.14896       	93.38414       	93.374596      	93.015656      	92.99047       	93.24862       	93.190544      	93.165634      	93.32194       	93.29489       	93.366585      	93.04738       	93.35318       	93.10917       	92.73124       	93.003525      	93.05619       	93.42882       	
93.54634       	93.648796      	93.69079       	93.8376        	93.63639       	93.704605      	93.359604      	93.411575      	93.349236      	94.03243       	94.02448       	94.3044        	93.409615      	93.765854      	94.02953       	93.879974      	94.29618       	94.52896       	93.8651        	93.732635      	93.26074       	93.269516      	92.97799       	92.898964      	93.089424      	92.957504      	93.25378       	93.35981       	93.82945       	93.45096       	93.15036       	93.06124       	93.624985      	93.69191       	93.3623        	93.8003        	93.378716      	94.0385        	94.56196       	94.010345      	94.63561       	94.07194       	94.1805        	93.90007       	93.514565      	93.25517       	93.42419       	93.048836      	93.47675       	93.5277        	93.831085      	93.42831       	93.55359       	93.708855      	93.97328       	94.05995       	94.54855       	94.18505       	94.05704       	94.34059       	94.1032        	94.45949       	94.93885       	94.56503       	94.46345       	94.41228       	94.00302       	93.680374      	93.81478       	94.18083       	94.16702       	93.75163       	93.677284      	94.02703       	94.19638       	93.907524      	93.91291       	94.36961       	94.19986       	94.51777       	94.25577       	93.73216       	93.24374       	93.43839       	93.470825      	93.38162       	93.646645      	93.46756       	93.87074       	93.686516      	93.574234      	93.44177       	93.13852       	93.42333       	93.54586       	93.63166       	93.68567       	93.81444       	94.0682        	93.516716      	
93.91533       	93.65658       	93.557945      	94.06851       	94.25872       	93.82328       	93.99763       	93.73024       	93.63306       	93.709305      	94.42503       	93.86007       	93.73279       	93.99666       	93.78925       	93.66192       	93.827034      	93.8765        	93.12484       	92.757515      	92.88905       	93.07496       	93.04676       	92.547905      	92.8045        	92.97441       	93.171196      	93.31164       	93.52184       	93.5169        	93.31572       	93.840195      	93.86142       	93.61366       	93.72624       	93.65132       	92.85457       	93.06259       	93.46658       	93.439255      	93.33188       	93.66408       	93.55431       	93.05325       	92.95246       	93.25494       	93.255325      	93.34842       	93.732315      	93.7539        	93.71183       	93.49145       	93.52857       	94.3206        	93.86604       	94.39025       	94.90816       	95.05415       	94.773384      	94.57942       	94.19949       	94.00907       	93.62331       	93.988144      	94.25614       	94.0962        	93.90046       	93.70484       	93.64347       	93.50014       	93.88852       	93.96833       	94.39515       	94.32243       	93.95097       	94.361336      	94.44417       	93.9742        	94.140045      	94.16906       	93.79145       	93.86808       	93.51819       	93.95564       	93.27604       	93.74247       	94.08589       	93.669         	94.1081        	94.15365       	94.08723       	93.93951       	93.64043       	93.40602       	94.17103       	93.8463        	93.64947       	93.614296      	93.40832       	93.48731       	
93.58769       	93.61506       	93.53341       	93.4545        	93.45109       	93.527534      	93.594284      	93.58257       	93.77986       	93.0699        	93.29984       	93.19263       	93.23123       	94.224625      	93.93511       	93.51653       	93.68767       	93.280685      	93.099594      	93.15736       	93.15772       	92.37224       	92.76416       	93.17082       	93.40689       	93.54442       	92.916336      	92.86302       	92.938805      	93.4071        	93.306206      	93.543976      	93.39714       	93.44075       	93.80401       	93.622955      	93.63376       	93.66303       	93.22449       	93.57629       	93.447426      	93.498276      	94.10783       	94.45814       	94.1134        	93.886314      	93.77214       	93.67357       	93.85404       	93.83757       	93.78364       	93.12862       	93.07263       	92.8176        	92.98897       	93.43314       	93.304115      	93.84903       	94.44674       	94.23026       	93.92928       	93.980606      	94.00976       	93.90519       	93.95845       	94.04691       	93.915245      	94.274994      	94.086044      	94.01735       	93.786865      	93.52071       	93.537445      	93.22726       	93.17512       	93.076546      	93.35164       	93.32928       	93.70167       	94.35243       	94.11344       	93.40138       	93.386154      	93.51834       	93.96382       	93.806404      	93.394844      	93.783615      	93.424736      	93.70812       	94.24553       	93.60741       	94.06225       	94.48644       	93.69344       	93.508385      	93.307625      	93.48802       	93.35713       	93.11344       	
93.88836       	93.99695       	93.81625       	93.74715       	93.801315      	93.878525      	93.50412       	93.64007       	93.50777       	93.55873       	93.72215       	92.92919       	92.77882       	93.36655       	93.81625       	93.76651       	93.3936        	93.29616       	92.36595       	92.958466      	92.95573       	92.72215       	93.21111       	93.02774       	93.37439       	93.43356       	93.36639       	93.292595      	93.29049       	93.09073       	92.62114       	92.78406       	92.82483       	92.731445      	92.30884       	92.5872        	93.083305      	93.248566      	92.47909       	92.80074       	92.60334       	92.705864      	93.36507       	93.31298       	93.02028       	92.789566      	92.96078       	92.82556       	93.008064      	93.31148       	93.32197       	93.46767       	93.81996       	93.69641       	94.0952        	94.054184      	94.15933       	94.18924       	94.41961       	94.52828       	94.15624       	94.163216      	94.011826      	93.95093       	94.61649       	94.4192        	93.9364        	93.27774       	93.630615      	93.64115       	93.36202       	93.43729       	93.64925       	93.61098       	93.761154      	94.22877       	94.0839        	94.47018       	94.39807       	94.32369       	94.3564        	94.09286       	93.54196       	93.48781       	92.887436      	92.86346       	93.28415       	93.35672       	92.981476      	93.558105      	94.04984       	93.89779       	93.72798       	93.68937       	93.844246      	93.95981       	93.83126       	93.916275      	94.10152       	93.71627       	
93.498566      	93.76684       	93.807         	94.19017       	93.97855       	94.297966      	94.41572       	94.12416       	93.87587       	93.77498       	93.946815      	93.431114      	93.60131       	93.8922        	94.21639       	94.143845      	94.201454      	93.8927        	93.60304       	93.48942       	93.19198       	93.10629       	93.03121       	92.972664      	93.287186      	93.493515      	93.24771       	93.56994       	93.59553       	92.864624      	93.38953       	94.12392       	93.87146       	93.837654      	93.77077       	93.46343       	93.39127       	93.54113       	93.14656       	93.45588       	93.24041       	93.510796      	93.15027       	93.18232       	92.82868       	93.11302       	93.0949        	92.9696        	93.33183       	93.41496       	93.425095      	93.42011       	93.26643       	93.69868       	93.395584      	93.84183       	93.82947       	93.95275       	93.89777       	93.62631       	94.1633        	93.96102       	93.85375       	93.82703       	93.420074      	93.89009       	93.81513       	93.703156      	93.94012       	93.55052       	93.50349       	93.59679       	93.83508       	94.005646      	93.566216      	93.80077       	94.048996      	93.908195      	94.01118       	93.93397       	93.71937       	93.60576       	93.50024       	93.59583       	93.4464        	93.29318       	93.283905      	93.25865       	93.03373       	93.54786       	93.593124      	93.199295      	93.22623       	92.92482       	92.902824      	93.53987       	93.64794       	92.97779       	93.25569       	93.41822       	
93.268         	93.067535      	93.08582       	93.47639       	93.56112       	93.47255       	93.4086        	93.319824      	93.769         	93.28739       	93.685616      	93.54744       	93.279854      	93.793526      	93.84565       	93.52169       	93.84192       	93.97159       	93.53111       	93.399055      	93.08533       	92.92713       	92.96371       	92.75134       	93.34249       	93.27857       	93.191086      	93.19505       	93.69984       	93.23943       	93.06065       	93.468544      	93.34362       	93.25733       	93.277725      	93.00987       	92.80806       	92.97006       	93.21159       	93.28917       	92.83724       	92.451385      	93.134575      	93.42744       	92.48506       	92.974075      	93.15681       	92.87851       	93.04456       	93.30863       	93.32647       	93.50333       	93.348305      	93.48906       	94.111015      	93.740234      	93.67615       	94.285126      	94.485146      	94.16109       	94.57707       	94.34826       	94.03319       	93.621216      	93.939896      	93.974         	94.082954      	94.024895      	93.78377       	93.88758       	93.98581       	94.10097       	94.20098       	93.947914      	93.82734       	93.87638       	93.38189       	93.813156      	93.51868       	93.717766      	94.473015      	93.788574      	93.69035       	93.41989       	92.7334        	92.45154       	93.4004        	93.17916       	93.28796       	92.97249       	92.86716       	92.98197       	93.16827       	93.01972       	93.305405      	93.462326      	93.59805       	93.81203       	93.56437       	93.8827        	
94.26224       	94.19625       	94.148285      	93.81644       	93.60917       	93.61776       	93.69842       	93.81727       	93.63257       	93.797066      	93.58227       	93.73952       	93.88606       	93.475426      	93.32926       	93.74864       	93.73711       	94.23596       	93.90522       	93.17232       	93.02845       	92.6706        	93.05903       	93.56629       	93.63072       	93.749825      	93.85726       	93.210335      	93.27216       	93.15467       	93.365364      	93.26596       	93.879524      	93.812836      	93.13844       	93.33316       	93.45433       	93.17862       	93.07897       	93.81152       	93.99012       	93.30155       	93.17642       	93.36439       	93.56039       	92.70082       	92.72902       	93.55921       	92.92404       	92.981094      	93.34028       	92.85053       	92.86822       	92.88832       	92.97238       	93.391266      	93.857635      	94.05919       	94.32563       	94.24818       	94.04422       	93.74708       	93.90494       	94.38742       	94.47615       	94.21258       	94.16442       	94.33435       	94.580734      	94.6405        	94.344894      	94.594574      	94.33005       	94.15044       	94.203         	94.3445        	94.24003       	94.57792       	94.246994      	94.19392       	94.15748       	93.97697       	93.59159       	93.57113       	93.53584       	93.70065       	93.765305      	93.86498       	93.48893       	93.6604        	93.78111       	93.36556       	93.34413       	93.422295      	93.8861        	94.08763       	94.103516      	94.27579       	94.05439       	94.31034       	
93.31457       	93.32116       	93.656075      	93.82585       	93.46998       	93.0182        	93.42591       	93.49635       	93.52706       	93.31226       	93.169174      	93.20421       	93.43047       	93.167274      	93.23898       	93.48719       	93.49016       	93.18027       	92.73957       	92.57973       	92.50563       	92.959435      	92.3094        	92.21139       	92.74214       	93.274376      	93.096275      	93.05148       	93.5938        	93.72688       	93.29359       	93.19707       	93.492096      	93.21451       	93.4048        	93.30645       	93.67094       	93.6107        	93.23406       	93.61014       	93.08236       	93.149994      	93.42672       	93.24406       	93.15241       	93.05547       	92.84082       	92.89769       	93.082115      	92.740845      	92.503654      	92.81715       	92.81955       	92.382256      	92.67464       	93.1601        	93.32874       	93.360054      	94.17886       	94.09767       	94.00447       	94.38283       	93.923935      	93.843666      	94.08983       	94.0537        	94.28814       	93.94099       	94.10367       	93.87928       	93.61964       	94.11089       	93.93139       	94.053116      	94.098404      	94.30818       	93.748665      	93.845894      	93.75117       	93.32486       	93.13799       	93.161         	93.57742       	93.18539       	92.95016       	92.776115      	92.881744      	93.061455      	92.939766      	93.11882       	93.02546       	93.376884      	93.17038       	93.39388       	93.20354       	92.546196      	93.17787       	93.25509       	93.252304      	92.863785      	
94.11776       	93.99549       	93.97095       	94.0252        	94.14791       	94.09468       	93.81479       	93.6253        	93.81462       	93.8064        	93.58499       	93.34265       	93.27646       	94.0444        	93.71687       	93.70634       	93.730675      	93.26665       	93.11757       	92.7774        	92.2524        	92.084755      	92.30694       	92.382645      	92.46559       	92.71148       	92.68149       	92.771515      	92.72294       	92.7206        	92.73992       	93.00966       	92.98393       	93.00462       	92.5819        	92.61862       	92.70463       	92.38041       	92.4383        	93.20018       	93.52532       	93.113         	93.10807       	93.231705      	93.31343       	92.89169       	92.961586      	92.75391       	92.73492       	93.00755       	93.21522       	93.216385      	92.88066       	93.05287       	93.06962       	93.2836        	93.84531       	93.840836      	94.22941       	93.95277       	94.483604      	94.588005      	94.0034        	94.40313       	94.48907       	94.458755      	93.84721       	94.20316       	93.89466       	93.77572       	93.95655       	94.60698       	94.40874       	94.118904      	94.11241       	94.15022       	93.89096       	93.778564      	94.05208       	93.688484      	93.87655       	93.78609       	93.691025      	93.69202       	93.396194      	93.39214       	93.22492       	93.362335      	93.50774       	93.60559       	93.33553       	93.44768       	93.56395       	93.91155       	93.70997       	93.73748       	93.668045      	94.16268       	93.80352       	93.21831       	
93.63114       	93.9557        	93.73035       	93.67752       	93.82933       	93.68187       	93.682945      	93.82905       	93.53576       	93.70155       	93.58261       	93.626595      	93.30035       	93.52885       	93.41646       	93.55073       	93.14716       	93.64631       	93.48595       	93.2941        	93.038445      	92.93827       	92.91043       	92.92036       	93.245766      	93.42186       	93.746346      	93.48516       	93.17073       	93.22447       	93.62435       	93.40102       	93.18869       	92.318         	92.56613       	92.709854      	92.96831       	92.990486      	93.177444      	93.337326      	92.97258       	92.96062       	92.6772        	92.78455       	92.80766       	92.86219       	93.27888       	92.96142       	93.211754      	93.22657       	93.382095      	92.86681       	93.02538       	92.66468       	92.60751       	92.64301       	93.21889       	93.53374       	93.92789       	94.22096       	94.42364       	93.89143       	93.5149        	93.726524      	93.856804      	93.84167       	93.47804       	93.759224      	93.89889       	94.202965      	93.88364       	93.841995      	93.72375       	93.53832       	93.68086       	93.94917       	94.03373       	93.89897       	93.86377       	93.47278       	93.93994       	93.84942       	93.47201       	93.37176       	93.13273       	92.89892       	93.09077       	93.12077       	93.24234       	93.43861       	93.08036       	92.68985       	93.40978       	93.373215      	92.7097        	92.934364      	92.8844        	93.1016        	93.24865       	92.69161       	
93.74123       	93.988266      	94.03633       	93.57877       	93.42807       	93.74327       	93.71326       	93.426765      	93.26962       	93.362236      	93.823         	93.52774       	93.97691       	94.1623        	93.61317       	93.65321       	93.67057       	93.565834      	93.72246       	93.29907       	93.46364       	93.62363       	93.51185       	93.32057       	93.489716      	93.33578       	93.6573        	93.44571       	93.35604       	93.429756      	93.05677       	93.022125      	93.5994        	93.72845       	93.645584      	93.975914      	93.32893       	93.010666      	92.87995       	93.338455      	93.530975      	93.686005      	93.09218       	92.6822        	92.91534       	93.23873       	93.351494      	93.44487       	93.18908       	93.37634       	93.350395      	92.90257       	93.271576      	93.86992       	93.2386        	93.49572       	94.020294      	93.94257       	94.22692       	94.33098       	94.18717       	94.566986      	93.95295       	93.78349       	94.24602       	93.917496      	93.19008       	93.47932       	93.47983       	93.58781       	93.74908       	93.568405      	93.27321       	93.3448        	93.396805      	93.67665       	93.558624      	93.63614       	93.29431       	93.628105      	93.668785      	93.41281       	93.27092       	92.7704        	92.871544      	92.97676       	92.940796      	93.05611       	92.86238       	92.829414      	93.034294      	93.09804       	93.37354       	93.07834       	93.11735       	93.42163       	93.399506      	92.94593       	92.8399        	93.039505      	
93.416504      	93.51584       	93.746994      	94.14788       	94.168686      	94.06239       	93.676056      	93.57698       	93.74543       	93.4857        	93.98278       	93.93311       	94.33587       	94.489365      	93.94612       	94.10383       	94.2398        	93.724815      	94.16059       	93.898384      	93.80029       	93.41581       	93.45467       	93.45744       	93.34322       	93.635735      	93.22351       	93.26641       	93.3283        	93.441696      	93.3482        	93.35528       	93.24433       	93.53959       	93.285904      	93.26078       	93.555244      	93.572105      	93.7377        	93.7695        	93.67548       	93.46852       	93.85429       	93.6335        	93.89254       	93.8088        	93.5674        	93.67229       	93.42586       	92.990654      	93.614044      	93.41617       	93.49244       	93.20844       	93.18134       	93.15327       	93.270294      	93.788155      	93.734116      	94.18774       	94.0415        	93.670525      	93.42957       	93.87242       	93.96985       	93.83798       	94.40797       	94.23244       	94.1941        	93.66102       	93.77132       	94.30716       	93.94377       	93.75265       	93.816895      	93.68173       	94.22529       	94.14204       	94.50186       	94.27943       	94.04025       	93.91975       	93.90609       	93.48367       	93.13526       	93.49056       	93.11649       	92.81839       	92.865425      	92.96495       	93.08874       	93.04301       	93.1742        	93.46352       	93.280594      	93.47175       	93.6258        	93.62995       	93.485405      	93.357994      	
93.59573       	93.738716      	93.69616       	93.47877       	93.46925       	93.38598       	93.73054       	93.06529       	93.43941       	93.40882       	93.702286      	93.8487        	94.130486      	94.32108       	93.885735      	94.213326      	93.924576      	93.652016      	93.362564      	92.737114      	92.5236        	92.59123       	92.61255       	92.88223       	92.79393       	93.43038       	93.18053       	93.14312       	93.50013       	93.21036       	92.886795      	93.26796       	93.53234       	93.672485      	93.612564      	93.31119       	93.43339       	93.440155      	93.34209       	93.61915       	93.56246       	93.34614       	93.68548       	94.197464      	94.07011       	94.07511       	94.08725       	93.43214       	93.1993        	93.31456       	93.0885        	93.21655       	93.5455        	93.532394      	93.28596       	93.094986      	92.728546      	93.311295      	93.564095      	93.99315       	94.281425      	94.02867       	93.68318       	94.23267       	93.91682       	93.68954       	93.52327       	93.61745       	93.36498       	92.949936      	93.03952       	93.01506       	93.17179       	93.25874       	93.57455       	93.53178       	93.86149       	93.86157       	94.03664       	94.04918       	93.86342       	93.86607       	94.33048       	93.69315       	93.20394       	93.59828       	93.54627       	93.557755      	93.19566       	92.97067       	93.32405       	93.84009       	93.68288       	93.74397       	93.632126      	93.38875       	93.39842       	93.262215      	93.202835      	93.1315        	
93.38301       	93.776115      	93.98054       	94.30102       	94.54717       	94.56513       	94.60082       	94.29577       	94.58095       	94.27214       	94.18171       	94.54819       	94.01562       	94.15503       	93.83015       	94.071         	93.84298       	94.29312       	93.85566       	93.88463       	93.45259       	93.117035      	93.00085       	92.799675      	93.34427       	92.58324       	93.12879       	93.41851       	93.745804      	93.809975      	93.69515       	93.65246       	93.87025       	94.316765      	93.9215        	93.77442       	93.50203       	93.35883       	93.60844       	93.46522       	94.164024      	93.6159        	93.32075       	93.47168       	93.89216       	93.351395      	93.690636      	93.266655      	92.88669       	92.70611       	92.927574      	93.13261       	93.68855       	92.97651       	93.27804       	93.56914       	93.17825       	93.14609       	93.29908       	93.88124       	94.02077       	93.92708       	93.75572       	93.670135      	93.85204       	93.79537       	93.77791       	93.784805      	93.85319       	93.68065       	93.507675      	93.49065       	93.32548       	93.70822       	93.796295      	93.59926       	94.1867        	94.113396      	94.08823       	94.358475      	94.35638       	94.38924       	93.72896       	93.29085       	93.00902       	92.84443       	92.74236       	92.76155       	93.253746      	92.78069       	92.948944      	93.05155       	93.07262       	92.85129       	92.67595       	93.03793       	92.90531       	92.79857       	93.28433       	93.33707       	
94.06449       	94.019356      	93.97025       	93.947716      	93.88142       	93.62088       	94.13374       	94.1466        	94.10519       	94.13773       	93.87709       	93.589584      	93.82195       	93.85312       	93.763985      	94.1589        	94.24775       	94.19203       	94.4537        	94.16173       	93.50551       	93.40721       	92.55124       	92.90042       	93.0642        	92.824905      	92.80942       	93.139565      	93.25777       	92.67334       	93.22102       	93.18859       	92.37979       	92.34391       	92.647545      	92.998535      	92.70053       	92.80058       	93.49799       	93.48561       	93.52961       	93.387215      	93.69054       	93.32008       	93.65437       	93.611885      	93.20363       	93.2611        	94.041176      	93.95004       	93.96384       	93.92148       	93.40545       	93.49886       	93.68619       	92.95411       	92.87055       	93.58107       	93.833336      	93.99846       	94.174995      	94.03199       	93.714096      	93.92658       	93.94103       	94.04489       	93.89832       	93.65173       	94.07399       	93.849556      	93.65321       	94.04344       	93.94459       	93.63492       	93.85006       	93.5524        	93.33166       	93.36602       	93.28671       	93.44687       	93.50078       	93.54906       	93.313324      	93.37517       	92.899376      	92.99084       	92.95356       	92.785736      	92.97811       	93.259964      	93.24007       	93.246666      	92.7751        	93.2439        	93.6954        	93.45796       	93.20658       	93.53296       	93.49909       	93.948204      	
93.19095       	93.26927       	93.73223       	93.60843       	93.51867       	93.51002       	93.440315      	93.79672       	94.29405       	93.66045       	93.72032       	93.67704       	93.5942        	94.07202       	93.99406       	93.85002       	93.48542       	93.74449       	93.80394       	93.38398       	93.19141       	92.91972       	92.828316      	92.78476       	92.541756      	92.54448       	92.87598       	93.04747       	93.295204      	93.80888       	93.62181       	93.56236       	93.67196       	93.3726        	93.56989       	93.77538       	94.10083       	93.70407       	94.02493       	93.44222       	93.41202       	93.43239       	93.26927       	93.674385      	93.23756       	93.536125      	94.063995      	93.94811       	93.9336        	94.00461       	94.068924      	93.923965      	93.99409       	94.121735      	94.0603        	93.98006       	93.85057       	94.06064       	94.31974       	94.346664      	94.57598       	94.73283       	94.68277       	94.57991       	94.54316       	94.25769       	93.73111       	93.45375       	94.26618       	93.590385      	93.54171       	93.73394       	94.039566      	94.04497       	93.86099       	94.01433       	94.24039       	93.74451       	93.61239       	93.613144      	93.82482       	93.36803       	93.43763       	93.59232       	93.21298       	93.75426       	93.18701       	92.94665       	92.95846       	92.98201       	93.136505      	92.45429       	93.00533       	93.343796      	93.27287       	93.44461       	93.52991       	93.700424      	93.560585      	94.02117       	
94.157555      	93.99796       	93.873726      	93.94455       	93.957954      	93.61396       	93.36983       	93.12284       	93.50566       	93.73442       	93.980415      	93.55595       	93.853645      	93.59852       	93.594315      	93.24409       	93.974396      	93.667725      	93.225945      	93.324844      	93.25902       	93.04725       	93.55305       	93.64152       	93.217316      	93.57504       	93.3068        	93.34673       	93.816986      	93.72722       	93.705154      	93.891106      	93.77013       	93.43669       	93.31269       	93.92957       	93.62971       	93.18798       	93.37008       	92.86422       	93.171745      	93.35234       	93.63093       	93.29001       	93.58061       	93.64235       	93.61358       	93.743         	93.486404      	93.60014       	93.6167        	93.57997       	93.89809       	94.02635       	93.64465       	93.69852       	93.76055       	93.72203       	93.751785      	93.77735       	93.751465      	94.4403        	94.223595      	94.22566       	94.09933       	94.28814       	94.22427       	94.584335      	94.62995       	94.5855        	94.28358       	94.54742       	94.535995      	94.301704      	94.740204      	94.67028       	94.590904      	94.57563       	94.761795      	94.55823       	94.455475      	94.557945      	94.19522       	93.85149       	93.0271        	93.596054      	93.142975      	93.08564       	93.695694      	93.74847       	93.81023       	94.26976       	94.26376       	94.33573       	93.54538       	93.85331       	94.55415       	94.31306       	94.02232       	93.952255      	
93.511925      	93.551476      	93.579155      	93.94015       	93.84688       	93.57719       	93.29556       	93.31136       	93.040474      	92.93547       	92.83065       	93.10892       	93.31402       	93.6598        	93.64889       	93.58098       	93.67841       	93.20614       	92.93478       	93.5754        	93.69139       	93.26039       	93.54831       	93.436485      	93.31342       	93.336555      	93.71693       	93.51884       	93.40278       	92.97318       	92.92718       	93.64134       	93.18824       	93.308395      	93.66064       	93.59046       	93.59928       	93.591095      	93.33736       	93.657974      	93.35989       	93.54215       	93.33294       	93.30745       	93.23036       	93.2623        	93.055214      	93.49245       	93.778114      	93.40459       	92.994         	93.12273       	93.329056      	93.4491        	93.66284       	93.915115      	94.06664       	93.92128       	93.475624      	93.33765       	93.756996      	94.32764       	94.63976       	94.39246       	94.675064      	94.59246       	94.30834       	94.398994      	94.47613       	93.997025      	93.99626       	94.58111       	94.04349       	93.78112       	94.20077       	93.92006       	94.10412       	94.430824      	94.34422       	94.292305      	94.39913       	94.66549       	94.74203       	94.699165      	94.29361       	94.05943       	93.8745        	93.808784      	94.02002       	93.69212       	93.26949       	93.468025      	93.66402       	93.54216       	93.063324      	92.88747       	93.13779       	93.234344      	93.07787       	93.36527       	
93.161064      	93.57354       	93.57455       	93.37143       	93.21046       	93.66117       	93.29088       	93.28368       	93.840294      	93.958664      	93.6545        	93.7893        	93.70912       	93.51808       	94.31706       	94.07807       	93.633736      	93.95965       	94.04982       	93.28669       	93.965324      	93.43841       	93.14697       	92.96263       	92.256645      	92.472565      	92.811516      	92.669266      	93.27569       	93.54061       	93.56686       	93.597664      	94.001205      	93.23595       	93.54566       	93.71007       	93.31304       	93.14395       	93.323814      	93.34099       	93.549         	93.451096      	93.89989       	93.70561       	93.24515       	93.131966      	93.07313       	93.0861        	92.51662       	92.886475      	93.25487       	93.1491        	93.131195      	93.40328       	93.185165      	93.06819       	93.301186      	93.39277       	93.33658       	93.640144      	94.052765      	94.079025      	94.31581       	93.94055       	94.10071       	93.88098       	93.946526      	93.7955        	94.0315        	93.77623       	94.18417       	94.09851       	93.94884       	94.055916      	94.21557       	94.23333       	93.966156      	94.36743       	93.917564      	93.76771       	93.395424      	93.35494       	93.78739       	94.00187       	93.67967       	93.78053       	93.742325      	93.0121        	93.39067       	93.62857       	93.62584       	93.54924       	93.93537       	93.384605      	93.47962       	93.9701        	93.38919       	94.01584       	94.08751       	92.55807       	
94.22956       	94.222275      	94.06255       	94.02241       	93.92744       	94.20397       	93.702194      	93.511215      	93.40956       	93.596886      	93.103516      	93.17504       	93.57519       	93.33826       	93.33215       	93.582         	93.78262       	92.9944        	93.43129       	93.35979       	93.52161       	93.389496      	93.19075       	93.43685       	93.294266      	92.85631       	93.53833       	93.437454      	92.85168       	92.68673       	92.9655        	92.91963       	93.19345       	93.369255      	93.24974       	93.250595      	92.95899       	93.31939       	93.33654       	93.53386       	93.15064       	93.21012       	93.85814       	93.08727       	93.51756       	93.95292       	93.59388       	93.57327       	93.927124      	93.74171       	93.70783       	93.84822       	93.52519       	93.51526       	93.4744        	93.00468       	93.486176      	93.47271       	93.227         	93.79942       	94.29236       	94.31447       	94.14745       	94.57667       	93.94345       	94.40939       	94.29339       	94.235115      	94.33113       	94.14301       	93.88897       	94.24202       	93.98247       	93.825165      	94.07083       	93.95258       	93.50261       	94.03841       	94.17667       	93.740204      	93.89957       	94.440475      	94.357544      	93.80501       	93.80214       	94.05684       	93.78299       	93.97414       	93.83472       	93.78145       	93.40077       	93.89908       	94.05085       	94.05516       	93.55174       	93.588486      	93.382034      	93.846405      	93.42774       	93.49769       	
93.67728       	93.418785      	93.1581        	93.27874       	93.885124      	93.915245      	93.22278       	93.92931       	94.39548       	94.05997       	93.821396      	93.65933       	93.61651       	93.49676       	93.56902       	93.232414      	94.145645      	94.05412       	93.899796      	94.0445        	94.09382       	93.31615       	93.23214       	93.4201        	93.062164      	93.257774      	93.15409       	93.48979       	93.13277       	93.09004       	93.467575      	93.39421       	93.63956       	93.09532       	93.293304      	93.53043       	93.47568       	93.76606       	94.012         	93.60548       	93.52678       	93.81051       	93.84576       	93.98459       	93.622505      	93.55953       	93.238365      	93.26728       	93.222786      	93.55641       	93.811         	93.34947       	93.437775      	93.86537       	93.596596      	94.129745      	94.13407       	93.66098       	93.801315      	94.40878       	94.563705      	94.58232       	94.44762       	94.30204       	94.18917       	94.00192       	94.22478       	94.01956       	94.05177       	93.64237       	93.27278       	93.892296      	93.76965       	94.47183       	94.571465      	94.90324       	94.24108       	94.07817       	93.722046      	93.59958       	93.566536      	93.41276       	93.61315       	93.534004      	93.836624      	94.033615      	94.17843       	94.297516      	94.28162       	94.32647       	93.87746       	93.26371       	93.35176       	93.53545       	93.25223       	93.80378       	93.94948       	93.73431       	93.76076       	93.70002       	
94.10453       	94.07821       	94.391495      	94.545525      	93.91535       	93.70545       	93.98511       	94.30202       	93.72191       	93.61783       	94.20711       	93.604324      	93.77806       	93.33585       	93.569664      	93.02653       	93.778496      	93.85548       	93.707695      	93.87102       	93.308426      	93.52922       	93.816246      	93.69278       	93.35226       	93.38246       	93.49696       	93.0527        	93.62675       	94.401276      	93.31215       	93.680016      	93.81768       	93.70208       	93.37725       	93.321945      	93.26308       	93.51697       	93.722466      	93.685074      	93.77239       	94.10989       	94.00019       	93.71928       	93.9537        	94.066284      	93.91051       	94.087524      	94.25977       	94.29796       	94.368355      	93.72075       	93.93893       	93.87708       	93.34331       	92.7982        	92.48405       	92.76828       	93.35027       	93.713005      	93.84965       	94.291245      	94.29367       	94.1001        	93.93934       	93.83975       	93.647224      	93.7112        	93.623955      	93.741264      	93.58241       	93.72583       	93.55657       	93.99988       	93.83589       	93.48571       	93.97881       	93.48454       	93.93799       	93.59668       	92.96799       	93.206055      	93.49964       	93.194626      	93.03647       	93.51403       	93.0826        	93.1304        	93.1325        	93.407364      	93.61263       	93.43007       	93.26266       	93.506966      	93.65815       	93.14283       	93.50711       	93.569046      	93.13721       	93.65832       	
93.59998       	94.148636      	94.28954       	94.17958       	93.928024      	94.036865      	94.11809       	94.00937       	93.992134      	93.49864       	93.518715      	93.61639       	93.89338       	93.58057       	93.691055      	94.12634       	94.32236       	94.03327       	93.64537       	93.465836      	93.21508       	92.957085      	93.404         	93.17671       	92.69556       	92.70997       	92.9745        	92.56397       	92.94864       	93.511024      	93.75829       	93.98021       	93.89301       	93.40646       	93.83464       	93.402145      	93.2872        	93.68604       	93.83781       	93.489426      	93.21541       	93.86707       	93.83282       	93.68534       	94.12479       	93.59804       	93.305916      	93.445724      	93.30054       	92.928635      	92.853134      	93.06646       	93.178085      	93.28554       	93.29274       	93.84689       	93.766655      	93.394684      	92.81573       	93.169395      	93.066666      	93.2181        	93.96819       	93.506874      	93.488434      	93.87963       	93.577644      	93.652306      	93.932         	93.62134       	93.56375       	93.51207       	93.06916       	93.1124        	93.83821       	93.09787       	93.149666      	93.488045      	93.09359       	92.84566       	93.4066        	93.38879       	93.38545       	94.10335       	93.870026      	94.32237       	94.041306      	93.9059        	94.175095      	93.924995      	94.55545       	93.95597       	94.06886       	93.70068       	93.6826        	93.90245       	93.54979       	93.700485      	93.33029       	93.70303       	
93.02806       	93.45227       	93.35182       	93.0693        	93.09542       	93.506386      	93.53617       	93.90637       	93.60683       	93.915054      	93.75593       	93.929794      	93.68886       	93.4345        	93.90364       	93.65724       	93.22337       	93.37923       	93.48499       	93.312744      	93.25574       	93.51203       	93.55712       	92.8271        	92.90699       	92.34643       	92.74916       	93.13367       	93.01348       	93.357635      	93.03707       	92.91015       	93.366005      	93.43239       	93.54781       	93.61632       	94.004776      	93.8456        	94.25968       	93.877686      	94.25831       	93.90364       	93.522385      	93.21484       	93.239494      	93.8142        	93.63912       	93.461296      	93.58029       	93.791046      	93.993195      	93.81962       	94.29593       	93.897736      	93.92188       	93.86787       	94.00053       	94.481735      	93.76828       	93.69369       	94.18876       	93.86316       	94.01374       	94.705215      	94.16394       	93.94434       	94.156815      	94.16132       	94.65808       	94.499214      	94.73544       	94.62924       	94.57448       	94.73156       	94.30623       	94.36129       	94.1513        	94.12085       	93.93373       	93.737335      	93.46301       	93.61635       	93.860596      	93.672165      	93.92428       	93.50233       	93.64242       	93.577515      	93.63911       	93.56713       	93.32341       	93.267044      	93.03846       	93.28931       	93.50379       	93.60729       	93.43311       	93.459724      	93.9737        	93.42668       	
93.450714      	93.282875      	93.19995       	93.3252        	93.4032        	93.298256      	93.333626      	93.399734      	93.375694      	93.07619       	93.10863       	93.242226      	93.15553       	93.397255      	93.49523       	93.24731       	93.939644      	93.90026       	93.928764      	94.11034       	94.2264        	93.93323       	94.0972        	94.323616      	93.86991       	93.48803       	93.05751       	92.44339       	92.85823       	93.22731       	92.90654       	93.01183       	92.81235       	92.638535      	92.49322       	93.083         	92.91992       	93.5316        	93.7743        	93.095085      	93.28076       	93.55432       	93.2323        	93.59269       	93.504875      	93.76024       	93.78092       	93.22832       	93.19076       	93.71667       	93.69268       	93.3065        	93.20324       	93.09317       	92.94289       	93.581635      	93.08252       	93.044685      	93.13111       	93.393974      	93.573006      	93.745285      	94.01184       	94.4091        	94.49645       	94.27878       	94.16133       	94.17439       	93.81979       	93.80092       	93.811325      	93.683266      	93.65547       	93.47029       	93.38781       	93.446465      	93.12462       	92.87353       	93.115875      	93.22049       	93.111664      	93.240685      	93.89693       	93.89497       	93.88775       	94.03972       	93.83863       	93.842354      	93.67512       	94.036415      	94.17969       	93.81078       	93.71081       	94.24622       	93.638466      	93.58066       	93.16716       	93.635994      	93.599174      	93.764534      	
92.82356       	92.85588       	92.60772       	92.89168       	93.229034      	93.38673       	93.60422       	93.46179       	93.48909       	93.54668       	93.15046       	93.40777       	93.788704      	93.65385       	93.60357       	93.77836       	93.25784       	93.3852        	93.397         	93.60669       	93.58395       	93.34997       	92.8361        	92.87987       	92.985344      	92.78903       	92.69125       	92.81087       	92.76839       	92.64925       	92.99322       	93.13334       	92.74716       	93.09239       	93.14413       	93.37114       	92.48929       	92.830574      	93.53727       	93.6122        	93.806145      	93.36757       	93.656044      	93.90364       	93.40888       	93.12533       	93.201775      	93.22795       	93.136795      	93.26606       	93.44707       	93.74974       	93.982254      	94.26017       	94.13703       	94.19257       	93.809555      	94.08769       	94.240616      	94.08582       	94.005264      	93.57789       	93.88829       	94.77372       	94.2127        	94.35357       	94.405975      	94.48225       	93.79296       	94.24102       	94.52868       	93.94518       	93.734344      	94.3086        	93.79965       	93.51907       	93.27412       	93.39684       	93.6525        	93.950386      	93.767334      	93.83778       	93.547104      	93.35727       	93.80223       	93.57015       	93.40702       	93.62829       	93.76188       	94.014565      	94.01618       	93.638435      	93.961945      	93.47569       	93.49379       	93.460495      	93.73319       	93.45037       	93.534996      	93.919556      	
93.648186      	93.61258       	93.71579       	93.55451       	93.72229       	93.86131       	93.64669       	93.28553       	94.16167       	93.81538       	93.776375      	94.05358       	93.87866       	93.56386       	93.5179        	93.591354      	93.085075      	93.22856       	93.47734       	93.40626       	93.70673       	93.524155      	93.67955       	93.9581        	93.6172        	93.38109       	93.59864       	93.0008        	92.94289       	93.27074       	93.40965       	92.94925       	92.68908       	93.41003       	93.562164      	93.58106       	93.019585      	92.64666       	93.20257       	93.47016       	93.23183       	93.3674        	93.23217       	93.539116      	93.511505      	93.41702       	93.64217       	94.01631       	93.6561        	93.5536        	93.86333       	93.63715       	93.67381       	93.62383       	93.867355      	94.17653       	94.52311       	94.19001       	93.712166      	94.1739        	94.041306      	94.30795       	94.57103       	94.26498       	94.143974      	94.23681       	93.75643       	94.11408       	94.32332       	93.86226       	93.62027       	94.02984       	93.86679       	93.69968       	94.05291       	93.79094       	93.419716      	93.38346       	93.84337       	93.40123       	93.33379       	94.11077       	94.01624       	93.611336      	93.80284       	93.75998       	93.6634        	93.9356        	93.96669       	93.72599       	93.85864       	93.76041       	93.90919       	93.98244       	93.97499       	93.79122       	93.52493       	93.42598       	93.33163       	93.181885      	
93.94988       	93.72619       	93.50065       	93.422165      	93.82872       	93.98767       	93.909004      	93.75288       	93.50456       	93.53666       	93.419205      	93.43922       	93.63797       	93.74718       	93.851715      	93.91987       	93.36091       	93.64245       	93.96065       	93.654335      	93.56021       	93.73217       	94.34025       	93.144905      	93.02211       	93.1137        	93.038994      	92.607346      	92.59708       	93.00263       	92.62464       	92.93136       	93.28509       	93.0974        	93.085526      	92.7978        	93.10401       	93.30343       	93.18473       	92.608765      	93.43903       	93.45895       	93.67071       	94.11701       	93.523926      	93.802765      	93.74181       	93.94552       	93.88614       	93.618355      	93.36058       	93.6462        	93.491325      	93.028755      	93.55989       	93.645035      	93.31265       	93.272934      	93.7498        	93.566765      	94.08985       	93.941696      	93.69063       	94.17986       	93.85442       	93.76612       	93.68477       	93.94495       	93.45219       	93.52148       	93.332146      	93.60129       	94.171455      	93.8534        	93.8296        	93.352165      	93.08109       	93.63948       	93.5507        	93.61149       	93.866196      	93.625206      	93.27893       	93.66824       	94.0316        	94.088066      	93.9141        	93.43029       	93.77323       	93.79797       	93.632         	93.43884       	93.89385       	93.84103       	94.0382        	93.9601        	93.86621       	93.36868       	93.274994      	93.26123       	
92.958534      	93.0577        	93.41056       	93.618645      	93.34636       	92.939415      	93.09953       	93.28804       	93.232925      	93.723564      	93.17484       	93.37283       	93.957085      	93.940796      	93.79881       	93.663704      	93.70149       	94.036606      	94.07279       	93.97191       	93.57584       	93.55628       	93.87578       	93.794426      	93.55912       	93.733925      	93.45837       	93.46891       	93.4288        	93.09624       	93.0227        	93.22031       	92.924995      	92.77068       	93.232544      	92.93584       	93.2419        	92.92226       	93.23144       	93.698         	93.93945       	93.541885      	93.78848       	93.95031       	93.650055      	93.38347       	93.67713       	93.872154      	94.02619       	94.4917        	94.1035        	94.14616       	94.15938       	94.23347       	94.33062       	94.22557       	93.901726      	94.39816       	94.135284      	94.14018       	93.76285       	93.8689        	93.597115      	93.41065       	94.0315        	93.7495        	94.27869       	94.383545      	93.726974      	93.73321       	94.113594      	94.34877       	93.70105       	93.75539       	94.18763       	94.22907       	93.84134       	93.54002       	93.64945       	93.55815       	93.20922       	93.572464      	93.774704      	93.891266      	93.92297       	93.47391       	93.47908       	93.28478       	93.213875      	93.19257       	93.53535       	93.462364      	93.45821       	93.374054      	93.48168       	93.64964       	93.68339       	93.72271       	93.881355      	94.324234      	
93.25635       	93.11239       	93.03421       	93.15954       	93.13134       	92.86656       	92.884224      	93.26201       	93.01057       	92.68218       	92.50212       	93.111374      	93.34933       	93.17237       	93.36239       	93.6781        	93.518684      	93.48038       	93.55554       	93.716034      	93.673546      	93.744255      	93.713585      	93.176285      	93.21691       	93.167366      	93.166016      	93.41792       	93.48597       	93.59033       	93.57678       	92.94686       	92.79597       	93.30636       	93.39892       	93.2869        	93.745445      	93.59368       	93.28577       	93.16965       	93.89595       	93.74814       	94.050545      	93.63127       	93.9455        	93.91507       	94.299324      	94.37463       	94.44621       	94.09805       	94.38799       	94.09433       	94.055916      	94.31616       	94.068756      	93.503006      	93.28282       	93.71903       	93.620964      	93.76927       	93.87574       	93.955475      	94.48803       	94.36185       	94.57061       	94.53615       	94.47372       	94.31287       	94.390305      	94.26374       	94.267494      	93.71117       	93.87839       	94.0126        	93.79096       	93.342125      	93.89917       	93.44355       	93.276         	93.97018       	94.03312       	93.26767       	93.52345       	92.91944       	93.207184      	93.456985      	93.12662       	93.47835       	93.29552       	93.22572       	92.74278       	93.45999       	93.97596       	93.31274       	93.48035       	93.45916       	93.054855      	93.23064       	93.371864      	93.47661       	
93.50819       	93.732025      	93.83531       	93.79986       	93.54305       	93.89162       	94.17667       	94.14997       	94.10114       	94.204315      	93.98475       	93.98148       	94.21932       	93.575165      	93.82128       	94.06747       	94.16823       	93.99421       	93.49097       	93.79062       	94.39849       	94.771034      	94.5358        	94.20384       	93.54792       	93.342476      	93.52231       	93.45797       	93.394646      	93.40959       	93.30929       	93.9244        	94.00961       	93.72822       	94.061325      	93.98565       	93.87514       	94.24427       	93.93846       	94.39178       	94.24606       	94.02189       	94.39139       	94.55372       	94.47309       	94.36116       	94.765854      	94.14388       	93.8475        	93.79046       	93.66914       	93.62941       	93.495926      	93.486694      	93.69652       	94.160194      	93.9501        	94.17357       	94.04542       	93.729546      	94.35345       	94.000595      	93.600914      	93.88648       	94.36795       	93.82289       	93.71508       	93.67174       	93.76294       	94.00297       	93.44865       	93.90903       	93.60438       	93.811195      	93.89359       	93.53688       	93.54235       	93.54134       	93.98846       	94.25475       	94.20089       	93.989174      	94.10918       	94.52422       	94.17613       	93.974556      	93.78584       	93.6569        	93.64845       	93.32336       	93.46827       	93.838135      	93.52479       	93.42033       	93.69453       	93.50894       	93.89188       	93.93567       	93.52299       	93.78631       	
94.295364      	94.16481       	93.83224       	93.7481        	93.72587       	93.78846       	94.09533       	94.19711       	93.93598       	93.96225       	93.79396       	93.622795      	93.43532       	93.27922       	93.83852       	93.686844      	93.746895      	93.88643       	93.59586       	93.8669        	93.62066       	93.90832       	93.91177       	93.96843       	93.339355      	93.92653       	94.100586      	93.724976      	93.83131       	93.21581       	93.32406       	92.99883       	93.4976        	93.38375       	93.77493       	93.98687       	94.045586      	94.01291       	93.77602       	93.624565      	93.513885      	93.26322       	93.4655        	93.64234       	93.97623       	94.00948       	94.00799       	94.014366      	93.66272       	93.68304       	93.830086      	93.90329       	94.08947       	93.60306       	93.61096       	93.7876        	93.36101       	93.09262       	93.56315       	93.13829       	93.39701       	93.59822       	94.132484      	93.80728       	93.62312       	93.58782       	93.62499       	93.40074       	93.76973       	94.33822       	94.118576      	94.1582        	93.88689       	94.29892       	94.078476      	94.12862       	94.52176       	94.27951       	93.846794      	93.72277       	94.01648       	93.612114      	93.379715      	93.71507       	94.020515      	94.243935      	93.66068       	94.41964       	94.38593       	94.03995       	94.13252       	93.91068       	93.73584       	93.74223       	93.44707       	93.787636      	93.70505       	93.88228       	93.860016      	94.068985      	
93.04345       	92.907684      	93.01075       	93.14949       	93.51092       	93.4763        	93.53145       	93.37849       	93.5413        	93.73177       	93.216965      	93.510445      	93.68806       	93.78938       	93.82453       	93.85526       	93.54831       	93.69195       	94.19186       	93.836754      	93.864555      	93.92801       	94.14415       	93.80374       	93.42952       	93.62263       	93.25502       	92.960495      	92.72147       	92.44861       	92.81233       	92.70761       	92.98489       	93.87589       	93.634605      	94.23418       	94.31604       	94.43613       	94.23939       	94.01781       	94.32746       	94.26631       	94.07327       	93.832405      	93.80327       	93.51762       	93.268875      	93.24923       	93.316246      	93.57088       	93.44405       	93.78198       	93.66606       	93.54118       	93.42627       	93.833725      	93.49512       	93.41568       	93.62309       	93.45767       	94.00261       	93.879326      	93.607346      	93.71064       	93.33273       	93.46241       	93.62782       	93.359535      	93.295074      	93.50235       	93.154655      	92.934814      	92.90471       	92.88692       	92.95306       	92.9435        	93.06583       	93.01892       	93.03598       	93.32765       	93.280266      	93.09349       	93.22154       	93.3582        	93.73001       	93.81967       	93.08575       	93.30021       	93.84389       	93.48146       	93.48267       	93.27166       	93.64901       	93.56579       	93.52705       	93.47514       	93.43997       	93.4036        	93.41778       	93.515335      	
93.333855      	93.48199       	93.52984       	93.800545      	93.88217       	93.96498       	93.968956      	94.279106      	93.85339       	93.34403       	93.29357       	94.19332       	93.7484        	93.66844       	93.816475      	93.77945       	93.71626       	93.84994       	93.78389       	94.0527        	93.85047       	93.65963       	93.57878       	94.15609       	93.66903       	93.5137        	93.59886       	94.058395      	93.572266      	93.62778       	93.66711       	93.843735      	93.98216       	94.26942       	94.002975      	93.79316       	93.77522       	93.938705      	93.46411       	93.62553       	94.14763       	93.92036       	93.814445      	94.26263       	94.052895      	93.97851       	93.77178       	93.91395       	94.05172       	93.78983       	93.68697       	93.79355       	93.96957       	93.40949       	93.42756       	93.54141       	93.28608       	93.25765       	93.450516      	93.35336       	93.15807       	93.37053       	92.86797       	92.97543       	92.87633       	92.773994      	92.68529       	92.923065      	93.21673       	93.20596       	93.256676      	93.14624       	93.41955       	93.870346      	93.48852       	93.70175       	93.908905      	93.180595      	93.58904       	93.42487       	93.65473       	94.0996        	93.9113        	93.71221       	94.27405       	94.16947       	93.79234       	93.73847       	93.24379       	93.26257       	93.762535      	93.8701        	94.226074      	93.43958       	93.468666      	93.49145       	93.962814      	94.100204      	93.80059       	94.12493       	
93.54632       	93.5649        	93.25514       	93.3159        	93.41247       	93.239876      	93.08808       	93.0309        	93.35302       	93.437996      	93.61529       	93.534966      	93.43006       	93.41744       	93.39457       	93.22985       	93.76787       	93.54051       	93.73873       	93.37615       	93.80357       	93.8724        	93.769806      	94.11035       	93.931885      	93.94679       	94.11398       	94.475716      	94.382416      	94.113686      	94.16418       	94.10331       	94.16337       	93.85414       	93.81514       	93.973076      	94.15225       	94.09001       	94.47871       	94.54845       	94.086494      	93.830185      	93.87692       	93.79053       	93.66889       	94.22335       	94.268425      	94.2567        	93.98848       	94.17854       	94.13405       	94.43951       	94.27788       	93.803635      	93.63388       	93.528946      	93.63797       	93.77508       	94.16944       	93.460335      	94.07504       	93.612236      	93.61556       	93.81806       	93.894356      	93.547714      	93.70386       	93.42426       	92.9981        	93.71248       	93.91075       	94.1517        	93.792435      	94.06595       	93.95143       	93.80218       	93.75371       	93.47831       	93.535286      	93.58005       	93.09976       	93.33154       	93.15487       	92.94723       	93.30653       	93.19097       	93.460045      	93.12508       	93.05403       	92.85036       	93.02111       	93.14998       	92.88582       	93.00602       	92.765976      	93.104126      	92.90767       	92.64562       	93.06093       	93.35286       	
93.15734       	93.21662       	93.34391       	93.58369       	93.68192       	93.87204       	94.09291       	93.41841       	93.751465      	93.76256       	93.32478       	92.959076      	93.42294       	93.58871       	93.92456       	93.556206      	93.09994       	93.32641       	93.570724      	93.30489       	93.26489       	93.26327       	92.799126      	92.98816       	93.1107        	93.07182       	93.26049       	92.850174      	92.82936       	93.49939       	93.62308       	93.627304      	93.881966      	93.72747       	93.5926        	93.480064      	93.82455       	93.59152       	93.49196       	93.82641       	93.71886       	93.18883       	93.69043       	93.56958       	92.98958       	93.068695      	93.495346      	93.21003       	93.18616       	93.312325      	93.401535      	93.00467       	93.1423        	93.3027        	93.45773       	93.44494       	93.652794      	93.78106       	93.50062       	93.50876       	93.40348       	93.61008       	93.76677       	94.005745      	93.872795      	93.91713       	94.02612       	94.09961       	93.98214       	93.82703       	93.77155       	93.872505      	94.187874      	94.05631       	93.94889       	93.73389       	93.80323       	94.09545       	93.86699       	93.796104      	93.43714       	93.62313       	93.44362       	93.8074        	93.75687       	94.07292       	94.05263       	93.60107       	93.586845      	93.49605       	93.78508       	93.52123       	94.28551       	93.80122       	93.33045       	93.94746       	94.09106       	93.41731       	93.982025      	93.576454      	
93.38834       	93.48134       	93.65837       	93.77515       	93.69725       	93.56937       	93.48168       	93.34433       	93.54663       	93.60278       	93.3263        	93.37118       	93.734604      	93.875885      	93.97321       	93.32024       	93.62623       	93.67841       	93.89174       	93.611565      	93.383286      	93.37365       	93.6196        	93.644485      	93.62988       	94.08451       	93.900444      	93.72029       	93.94837       	93.67465       	93.71754       	93.97885       	94.27208       	93.99212       	93.9054        	93.76237       	93.52368       	93.48059       	93.57823       	93.3838        	93.44532       	93.677124      	93.60507       	93.343         	93.3557        	93.578316      	93.54558       	93.49688       	93.80013       	93.45065       	93.88428       	94.021194      	93.86479       	93.80257       	93.92638       	93.74232       	94.37491       	94.16481       	93.639885      	93.80629       	94.13929       	94.04323       	93.925415      	94.158844      	94.28966       	94.32942       	94.5442        	93.96441       	94.0724        	94.2412        	94.296646      	93.74095       	93.78057       	93.31849       	92.9909        	93.06048       	93.44319       	93.63766       	93.418564      	93.67683       	93.66673       	93.452286      	93.80506       	93.589615      	92.85005       	93.41258       	93.41826       	93.60501       	93.71          	93.48125       	93.411514      	93.75819       	93.71933       	93.800255      	93.62785       	93.52916       	93.88954       	93.589806      	93.119125      	93.29717       	
93.54768       	93.47696       	93.888664      	94.15832       	93.772095      	93.44611       	93.04743       	93.11616       	92.97993       	93.27714       	93.04598       	93.01899       	93.99041       	93.85039       	93.76582       	94.10143       	94.05556       	93.33906       	93.78169       	94.09653       	94.10168       	94.00676       	93.59859       	94.19899       	93.80599       	93.5944        	94.11646       	94.084335      	93.70613       	93.61511       	93.98002       	93.91344       	94.09975       	94.70828       	94.40376       	94.34095       	93.943634      	94.22403       	94.33709       	94.01785       	93.72848       	93.956924      	94.17778       	94.25565       	94.009346      	94.132965      	93.68083       	93.75152       	93.82345       	93.967445      	93.413376      	93.991104      	94.25473       	93.77071       	93.6543        	93.63341       	93.68217       	93.85318       	93.99267       	94.08448       	94.05344       	94.00872       	94.15907       	93.80531       	93.86217       	93.926315      	94.52421       	93.865364      	93.50261       	93.7918        	93.98377       	93.4397        	93.73631       	94.00849       	93.51601       	94.14167       	94.335785      	94.17158       	93.96552       	93.98758       	94.20048       	94.452385      	94.5523        	93.97621       	94.07713       	93.87451       	93.68155       	93.896126      	93.932335      	94.01271       	94.26949       	93.94538       	94.05031       	93.832344      	93.66444       	93.44165       	93.45045       	93.45612       	93.28724       	93.83155       	
93.42111       	93.271065      	93.74727       	94.3697        	94.113075      	94.07321       	93.75054       	93.27746       	93.598015      	93.82742       	93.407745      	93.27523       	92.95206       	92.68179       	93.03771       	93.364296      	93.441246      	93.70324       	93.29549       	93.552414      	94.07938       	93.74525       	93.34398       	93.531334      	93.84384       	93.8624        	93.69849       	93.871346      	93.77469       	93.81546       	93.83918       	93.64301       	93.528564      	93.9897        	93.573204      	93.35573       	93.93147       	94.35783       	93.70855       	93.73031       	93.4675        	93.41638       	93.5038        	93.333405      	93.8046        	93.85383       	93.683876      	93.90556       	93.6525        	93.611565      	93.564255      	93.31585       	93.052986      	93.10582       	93.54675       	93.05595       	93.207695      	93.42931       	93.426834      	93.24379       	93.64425       	93.72941       	93.83076       	93.82793       	93.69968       	93.5737        	93.53724       	93.294136      	93.07918       	93.55432       	93.080925      	93.31367       	93.37252       	93.517426      	93.67976       	93.84096       	93.788155      	93.90238       	93.58635       	93.69608       	93.75123       	93.69856       	93.832016      	93.412186      	93.31428       	93.46042       	93.67403       	93.76857       	93.89342       	93.73296       	93.606186      	93.54213       	93.596146      	93.590866      	93.70035       	93.77974       	93.43359       	93.64271       	94.155716      	93.95247       	
93.93338       	93.67761       	93.963585      	94.262535      	94.121864      	94.35011       	93.98193       	93.56468       	93.704575      	93.82475       	93.93385       	93.48365       	93.580475      	93.41535       	93.333466      	93.096306      	93.43921       	93.38468       	92.75943       	93.303055      	93.109726      	92.942245      	93.5879        	93.68902       	93.86531       	93.63883       	93.79086       	93.7278        	93.85432       	93.53728       	93.6518        	93.48767       	93.64151       	93.87364       	93.83381       	93.433174      	93.28358       	93.25032       	93.7482        	93.79314       	92.9404        	92.8082        	93.0866        	92.754776      	92.57697       	92.84254       	93.39681       	93.433014      	93.650345      	94.05811       	93.80897       	93.50182       	92.9815        	93.427826      	93.82945       	93.74496       	93.94941       	93.70365       	93.71324       	93.50005       	93.173996      	93.240326      	93.081505      	93.032425      	93.819145      	94.024765      	94.00765       	93.49307       	93.59035       	93.53966       	93.9758        	93.348236      	92.825806      	93.168564      	93.64418       	93.55661       	93.41191       	93.573105      	93.59827       	93.41502       	93.527824      	93.33815       	92.98854       	93.26993       	93.16188       	92.83064       	93.04528       	93.00028       	93.01293       	93.15467       	93.471245      	93.67301       	93.60872       	93.653305      	93.25477       	93.49707       	93.74353       	93.78069       	93.89278       	93.29524       	
94.246635      	94.13558       	94.02068       	94.04483       	94.27841       	94.56682       	94.059814      	93.5798        	93.75362       	93.82324       	93.81857       	94.18719       	93.821304      	94.19251       	94.328445      	93.7506        	93.938644      	93.79325       	94.03251       	93.8944        	94.27245       	94.10472       	94.406006      	93.87691       	93.50528       	93.84941       	93.90134       	93.74965       	93.94068       	93.61898       	93.46828       	93.859         	94.42533       	94.23259       	93.78964       	93.96321       	94.213135      	94.65518       	94.50308       	94.43519       	94.03462       	94.36052       	93.678955      	93.453766      	93.24862       	93.32182       	93.34681       	93.51946       	93.37044       	93.26341       	93.30907       	93.2105        	93.188324      	93.29817       	93.29503       	93.8178        	93.66627       	93.50555       	93.26156       	93.708206      	93.604904      	93.46842       	94.07897       	93.83161       	93.566414      	94.165085      	94.543915      	94.09047       	94.192986      	93.7347        	93.54761       	93.86703       	93.55264       	93.60593       	94.42553       	93.82741       	93.38896       	93.809364      	93.252975      	93.47864       	94.0169        	94.31111       	94.15111       	94.19203       	93.952225      	93.86266       	94.05838       	94.03404       	93.79192       	94.0408        	93.57579       	93.89551       	94.0075        	93.52624       	93.56466       	93.78978       	93.77214       	93.462326      	93.16394       	93.042984      	
94.099945      	94.34386       	94.43774       	94.265335      	94.17496       	93.51822       	93.67142       	93.35645       	93.33469       	93.388985      	93.7668        	93.41124       	93.24056       	93.51613       	93.3648        	93.48129       	93.65478       	93.760056      	93.41488       	93.60135       	93.72046       	93.65721       	93.883255      	93.59394       	93.82263       	94.30893       	94.273476      	93.9041        	93.61239       	93.837105      	94.1652        	94.110886      	93.9489        	94.01492       	93.770134      	93.49289       	93.674446      	93.80116       	93.65223       	93.514885      	93.33853       	93.02905       	92.741806      	92.95897       	92.73024       	92.60282       	93.04106       	93.30165       	93.35042       	93.49535       	93.2827        	93.10395       	93.4213        	93.62524       	93.684975      	94.47222       	94.00963       	93.911285      	93.68358       	93.92928       	93.679695      	93.62892       	93.405754      	93.4251        	93.265396      	93.37206       	93.52832       	93.36848       	93.43245       	93.3114        	93.52414       	93.31927       	93.12678       	93.60091       	93.78768       	93.729965      	94.269745      	94.232         	94.04815       	94.280205      	93.869545      	93.30982       	93.20194       	93.331055      	93.646935      	93.64128       	93.3687        	93.5652        	93.729805      	93.740105      	93.82543       	93.83061       	93.34158       	92.85963       	93.22299       	93.86209       	93.279526      	93.572754      	93.5806        	93.48385       	
93.90013       	93.933426      	93.96241       	94.02992       	93.98858       	93.99677       	93.92819       	93.90165       	94.51875       	93.63317       	93.91234       	93.57596       	93.19191       	93.57176       	93.54057       	94.091385      	93.783905      	93.77248       	93.73071       	93.58947       	93.573654      	93.347466      	93.24074       	94.3612        	93.92457       	93.21268       	93.771324      	93.64104       	93.20472       	92.89014       	93.06806       	93.55873       	93.51448       	93.42904       	93.530846      	93.11644       	93.01836       	93.23881       	93.943855      	93.22966       	93.25302       	93.01905       	93.04302       	93.18462       	93.137375      	93.7391        	93.831436      	93.79792       	93.77148       	93.80872       	93.35364       	93.54739       	93.63677       	93.59489       	93.755196      	93.56465       	93.95634       	94.4043        	94.147575      	93.77632       	94.25817       	93.93057       	93.58892       	93.80348       	94.26017       	93.95643       	93.46697       	94.12587       	93.98894       	94.017426      	93.40355       	93.91185       	93.80736       	93.364044      	93.51561       	93.0144        	92.80549       	93.038         	93.6501        	93.5193        	93.72368       	93.5022        	93.17841       	93.06572       	92.95767       	93.23495       	93.524826      	93.568344      	93.673904      	93.53206       	93.64446       	93.49464       	93.862015      	93.523796      	93.425156      	93.41535       	93.89692       	93.57414       	93.39096       	93.87834       	
93.64003       	93.71521       	93.67513       	93.651115      	93.81479       	93.721504      	93.72841       	93.64694       	93.45346       	93.41872       	93.45135       	93.728         	93.222466      	93.78482       	93.86421       	93.691475      	93.70323       	93.41658       	93.31794       	92.9477        	93.00157       	93.291626      	93.333725      	93.20816       	93.25571       	93.392494      	93.19633       	93.13333       	93.69027       	93.6017        	93.40514       	93.334274      	93.51127       	93.737495      	93.77811       	94.042534      	93.70707       	93.78295       	93.52509       	93.912476      	93.665054      	93.76374       	93.795395      	93.40841       	93.584946      	93.31031       	93.186165      	93.615654      	93.388016      	93.208244      	93.18795       	93.66415       	93.56204       	93.46554       	93.5526        	93.8285        	93.38046       	93.82984       	93.97529       	93.918655      	93.53301       	93.7629        	93.94504       	93.65056       	93.726654      	93.59005       	93.61897       	93.58444       	93.489975      	93.48793       	93.03467       	93.53929       	92.96522       	93.3566        	93.28404       	92.9465        	93.54159       	93.45006       	93.210434      	93.39263       	93.99193       	94.10608       	93.84111       	94.260086      	93.59539       	93.576546      	93.834785      	93.557205      	93.84221       	93.64433       	93.544685      	93.84079       	94.30566       	93.86647       	94.033516      	94.53934       	93.54255       	93.185425      	92.97804       	92.99936       	
93.37304       	93.44996       	93.45299       	93.479126      	93.552925      	93.51322       	92.74602       	93.06581       	93.1857        	92.70175       	92.95495       	92.87823       	93.084404      	93.13941       	92.98054       	92.979324      	93.259514      	93.36281       	94.15897       	93.6657        	93.56739       	93.049934      	93.17326       	93.34547       	93.24987       	93.3955        	93.313484      	93.11124       	93.465195      	93.49844       	93.85312       	93.60957       	93.18027       	93.58607       	93.28786       	92.98508       	93.21306       	93.52646       	93.55875       	93.77714       	93.23511       	92.63163       	93.228546      	93.36768       	93.11656       	93.562744      	93.54385       	93.77105       	93.92619       	94.51159       	94.439415      	94.7328        	94.13189       	93.42042       	94.19952       	93.65899       	93.189995      	93.66419       	93.41332       	93.339         	93.56548       	93.87345       	93.54835       	93.92167       	93.47623       	93.88692       	94.117805      	93.439606      	93.8059        	93.216835      	93.37529       	93.241264      	93.4458        	93.67561       	93.73233       	93.78472       	93.72226       	93.626785      	93.931694      	93.20582       	93.67099       	93.53429       	93.34726       	93.0038        	93.58322       	93.67013       	93.22233       	93.59345       	93.994         	93.618904      	93.734566      	93.828896      	93.726944      	93.57149       	93.262405      	93.01567       	92.63581       	92.91783       	93.17952       	92.580696      	
92.66349       	92.77848       	93.15975       	93.48632       	93.6331        	93.612305      	93.89566       	93.95722       	93.834076      	94.080444      	94.448975      	94.117676      	93.79874       	94.003716      	93.7837        	94.01265       	94.2406        	93.79896       	94.17555       	93.93233       	93.940704      	93.62807       	93.97397       	94.07167       	94.654755      	94.94599       	94.600044      	94.219025      	94.42076       	94.51883       	94.62402       	94.54875       	94.16166       	94.00225       	94.44909       	93.81209       	94.08621       	94.48753       	93.74531       	93.613075      	94.06914       	94.45544       	93.95459       	94.24503       	93.95171       	94.54176       	93.86319       	93.742134      	94.44243       	94.41403       	94.12667       	94.237305      	94.66326       	94.596664      	94.1353        	94.1506        	93.810776      	94.02027       	94.0586        	94.48929       	94.375404      	93.49792       	93.5935        	93.75294       	93.45253       	93.484955      	93.631294      	93.799774      	93.90466       	93.88316       	93.477646      	93.43834       	92.99382       	93.538994      	93.80153       	93.709335      	93.63493       	93.630585      	93.718796      	93.6189        	93.32759       	93.773125      	93.69381       	93.49974       	93.58507       	93.572296      	93.51179       	92.96368       	93.08829       	93.79831       	93.658615      	93.72914       	93.427124      	92.63973       	92.56935       	92.4469        	92.69843       	92.801926      	92.56388       	92.25558       	
