# www.neaspec.com
# Scan:	 	Whitelight Imaging
# Project:	 	20251007_PS
# Description:	 	
# Date:	 	10/07/2025 14:41:49
# Scanner Center Position (X, Y):	[µm]	49.66	48.17	 
# Rotation:	[°]	0	 	 
# Scan Area (X, Y, Z):	[µm]	5.000	5.000	0.000
# Pixel Area (X, Y, Z):	[px]	100	100	1
# Interferometer Center/Distance:	[µm]	288.577	0.000	 
# Averaging:	 	1	 	 
# Integration time:	[ms]	5	 	 
# Wavenumber Scaling:	 	1.000000	 	 
# Laser Source:	 	4.5-15 µm nano-FTIR laser
# Detector:	 	R
# Target Wavelength:	[µm]	10.000	 	 
# Demodulation Mode:	 	Fourier
# Tip Frequency:	[Hz]	241,340.500	 	 
# Tip Amplitude:	[mV]	45.700	 	 
# Tapping Amplitude:	[nm]	74.245	 	 
# Modulation Frequency:	[Hz]	0.000	 	 
# Modulation Amplitude:	[mV]	0.000	 	 
# Modulation Offset:	[mV]	0.000	 	 
# Setpoint:	[%]	79.75	 	 
# Regulator (P, I, D):	 	4.206850	8.625812	1.000000
# Tip Potential:	[mV]	0.000	 	 
# M1A Scaling:	[nm/V]	0.426	 	 
# M1A Cantilever Factor:	 	1,000	 	 
# Q-Factor:	 	487.4	 	 
# Version:	 	2.1.11536.0
94.66725       	94.35468       	93.91646       	93.55053       	93.23365       	93.23157       	93.56004       	93.65649       	93.54717       	93.64091       	94.32099       	93.68385       	93.98955       	93.799446      	93.4412        	93.52206       	93.88534       	93.51034       	93.6759        	94.21113       	94.21272       	93.77242       	93.69039       	93.91389       	93.70747       	93.59306       	93.92841       	94.265175      	94.190956      	93.67534       	93.30698       	93.08646       	93.20032       	93.21567       	93.66484       	93.01744       	92.90766       	93.10559       	92.93648       	92.922         	93.29231       	93.18001       	93.630775      	93.45391       	93.16005       	93.603485      	93.36351       	92.88781       	92.95797       	93.021774      	93.46558       	93.154594      	93.0805        	93.10918       	93.36414       	93.25411       	93.33497       	93.33082       	93.42774       	93.84715       	93.97689       	93.67054       	94.16999       	94.45704       	93.514534      	93.88054       	93.84913       	93.04909       	93.12062       	93.15681       	93.20657       	93.210075      	93.409874      	93.87003       	93.69917       	93.68935       	93.59909       	93.792595      	94.32741       	94.13127       	94.2289        	94.481926      	94.091835      	94.60322       	94.03857       	94.3085        	94.27637       	93.75935       	93.931366      	93.8768        	93.59773       	93.729355      	93.797325      	93.63416       	93.786995      	93.72248       	93.40386       	93.50479       	93.62721       	93.519325      	
94.4096        	93.7626        	93.37039       	93.07316       	93.36825       	92.976425      	93.29115       	93.56327       	93.09335       	93.12317       	92.98923       	92.92639       	93.209435      	92.91979       	93.121994      	93.29782       	93.32548       	93.74113       	93.59692       	93.05478       	93.42367       	93.29455       	93.8103        	94.193344      	93.93819       	93.8885        	93.830795      	92.888596      	93.431564      	93.21144       	92.94359       	92.93778       	93.493416      	93.45826       	93.16501       	93.286545      	93.1285        	93.26672       	92.66225       	93.43566       	93.94975       	94.12849       	94.35236       	94.50333       	93.99109       	93.695694      	93.96297       	93.62157       	93.04385       	93.468254      	93.54267       	93.50216       	93.25601       	93.538155      	93.77343       	93.66401       	93.48091       	93.42907       	94.254715      	94.47304       	94.60079       	95.13          	94.75517       	94.72599       	94.716156      	94.04749       	93.45506       	93.28394       	93.39973       	93.229774      	93.465034      	93.20695       	93.92346       	93.58735       	93.57198       	93.57796       	93.73637       	93.84956       	93.45029       	93.83007       	93.30557       	93.30408       	93.39745       	93.603195      	93.503586      	93.84213       	93.58287       	93.540764      	93.7168        	93.776215      	93.78161       	93.69066       	93.52276       	93.70439       	94.15612       	93.6663        	93.23375       	93.67935       	93.72942       	93.77144       	
94.25682       	93.344696      	93.50774       	93.1132        	93.141594      	92.744225      	92.637505      	92.86625       	93.011604      	92.711334      	93.17452       	93.040276      	93.02644       	92.746506      	93.0568        	93.44685       	93.40599       	93.48157       	93.41508       	93.08077       	93.04066       	92.82944       	92.93198       	92.50621       	93.11401       	93.45402       	93.3979        	93.64521       	93.584885      	93.957565      	93.743195      	93.30396       	93.677536      	93.621796      	93.517         	93.91895       	93.113335      	92.894394      	93.49013       	93.97461       	94.245895      	94.809135      	94.365326      	93.94128       	94.08606       	93.65693       	94.01118       	94.154915      	94.043526      	93.91447       	93.96314       	94.00703       	93.95959       	93.67932       	93.54235       	93.42985       	93.74394       	93.70356       	94.10284       	94.01588       	94.05575       	94.17622       	94.18609       	94.46131       	94.389145      	94.03845       	93.77668       	94.00679       	93.21725       	93.17024       	92.98664       	93.44603       	93.68958       	93.600876      	93.63136       	93.823616      	93.888916      	93.37338       	93.525566      	93.724         	93.85287       	94.00891       	93.9987        	94.19087       	93.70235       	94.04949       	94.24499       	94.01539       	93.47074       	93.5939        	93.65223       	93.40503       	93.59745       	94.02726       	93.43403       	93.78922       	94.07802       	94.45013       	94.40892       	94.17013       	
95.059166      	94.14656       	93.55588       	93.532646      	93.13912       	93.2802        	92.79391       	92.75624       	93.394775      	93.2326        	93.26424       	93.5214        	93.66089       	93.32997       	93.14216       	93.68834       	93.51488       	93.163284      	93.2437        	93.12631       	93.350746      	93.21298       	93.075966      	93.3285        	93.73778       	93.32118       	93.45243       	93.58581       	92.95887       	93.02337       	93.327385      	93.03296       	92.87446       	93.06403       	93.09506       	92.91019       	92.7481        	92.62386       	92.583206      	92.48863       	92.83996       	93.42815       	93.621254      	93.14106       	93.23471       	93.365654      	92.92253       	93.77201       	93.5746        	93.80371       	93.5238        	93.18014       	93.781364      	93.60849       	93.563896      	94.0051        	93.74513       	93.04777       	93.906204      	93.99791       	93.87059       	93.89388       	94.11848       	94.31386       	94.274536      	93.8499        	93.90822       	94.00755       	93.649254      	93.311844      	93.17778       	93.09071       	93.35266       	93.516556      	93.366455      	93.03138       	93.132324      	93.15271       	93.62763       	93.97925       	94.27019       	93.60991       	93.434044      	93.6111        	94.09387       	94.01518       	93.31086       	93.06193       	93.53635       	93.54008       	93.35634       	93.42194       	93.216446      	93.11263       	93.2095        	92.96083       	93.10308       	93.17128       	93.10979       	92.98038       	
94.03173       	93.78258       	93.31371       	93.4034        	93.61232       	93.189926      	93.390976      	93.89442       	93.735016      	93.67551       	93.787186      	94.062584      	93.92208       	94.08754       	94.003876      	93.66309       	93.87968       	93.49509       	93.88405       	93.600464      	93.34148       	93.431755      	93.76489       	93.315834      	92.99972       	93.381256      	93.472305      	93.71369       	93.57736       	93.25933       	93.61283       	93.97643       	93.164566      	93.27799       	93.09797       	92.89745       	92.70956       	93.02475       	92.9815        	92.7043        	93.397964      	93.532715      	93.97864       	93.63109       	93.60771       	93.672035      	93.90317       	94.148445      	93.78829       	93.83196       	93.90316       	94.08922       	94.462685      	94.220634      	93.86361       	94.25105       	94.13014       	93.86417       	94.117424      	93.93437       	94.463326      	93.98034       	93.649506      	94.290276      	94.2368        	92.93236       	92.750565      	92.84786       	92.36236       	92.75383       	93.10364       	93.15716       	93.3523        	93.56474       	93.50288       	93.31909       	93.38109       	92.79305       	93.214096      	93.2021        	93.21365       	93.1743        	92.91966       	93.0595        	93.246994      	93.03272       	92.39925       	92.59993       	92.677765      	92.69397       	92.90975       	93.31213       	93.38032       	93.21594       	93.21693       	93.079155      	93.14455       	93.34143       	93.293304      	93.263466      	
94.1526        	94.662094      	94.12158       	93.39554       	93.53596       	93.10241       	93.141045      	93.29715       	93.280556      	93.47183       	93.7977        	92.93839       	93.357124      	93.454834      	93.52201       	93.74435       	93.61789       	93.8796        	93.86788       	93.584366      	93.58078       	93.516304      	93.394646      	93.43769       	93.75926       	93.28493       	93.74677       	93.784004      	93.87008       	93.58945       	93.25411       	93.24681       	93.019356      	93.22343       	93.40543       	93.2683        	92.69198       	92.48298       	92.48547       	92.582756      	93.11479       	93.72661       	93.84742       	93.806274      	93.95991       	94.440475      	93.62697       	93.35821       	93.56888       	93.442184      	93.27629       	93.16338       	93.634964      	93.464775      	93.38255       	93.36098       	94.11944       	93.973785      	93.68734       	94.1122        	93.860245      	93.63948       	94.01917       	94.54024       	94.576385      	94.39033       	93.86747       	93.7637        	93.45617       	92.961395      	93.08606       	93.32467       	93.57387       	93.33979       	93.73453       	93.18684       	93.05212       	93.744064      	93.94831       	93.96524       	94.243286      	94.02011       	93.78377       	93.97276       	93.625565      	93.77177       	93.353195      	93.22429       	93.450325      	93.40677       	93.05189       	92.9657        	93.440544      	93.2001        	93.13416       	93.65901       	93.989105      	94.047646      	93.92529       	93.86374       	
94.32496       	94.74715       	94.427475      	93.79923       	94.09366       	94.378204      	93.60906       	93.81166       	93.45344       	93.23206       	93.7957        	93.5067        	93.91822       	93.61317       	93.32795       	93.4307        	93.47021       	93.65685       	93.55787       	94.07503       	93.694405      	93.52905       	93.8676        	93.0566        	92.89612       	93.1281        	93.367935      	93.446         	93.40071       	93.10633       	93.29281       	93.55877       	93.26806       	93.206055      	92.947716      	92.98656       	92.96996       	93.24953       	93.28755       	93.114044      	92.92871       	92.950485      	93.42529       	94.01782       	93.21925       	93.0413        	93.54679       	93.347374      	93.63194       	93.539314      	93.338615      	93.57118       	93.55474       	93.287025      	94.19955       	94.22069       	93.75646       	94.355804      	94.48571       	94.19782       	94.26806       	94.58346       	94.53034       	94.74052       	95.12431       	94.83145       	94.15132       	93.879166      	93.47079       	93.69606       	93.90568       	93.789986      	93.500626      	93.867035      	93.372086      	93.860825      	93.932175      	93.772064      	93.235405      	93.75078       	93.53104       	93.398735      	93.549225      	93.04343       	93.35442       	93.80927       	94.039116      	94.23239       	94.36971       	93.73399       	93.81513       	93.9406        	93.54688       	93.53076       	93.7491        	93.91809       	93.95862       	94.03211       	93.8853        	93.64188       	
93.96828       	94.06688       	92.90564       	92.8046        	92.92497       	92.73603       	92.94896       	93.2546        	92.84839       	92.432976      	92.856476      	93.18413       	93.40146       	93.34237       	93.39172       	92.7122        	93.35075       	93.01794       	92.842575      	92.8836        	92.63783       	93.096         	93.23837       	93.30848       	93.707954      	93.74504       	93.94427       	93.56572       	93.23284       	93.40483       	93.873344      	93.54483       	93.30643       	93.44856       	93.64953       	93.33428       	93.76189       	93.64412       	93.27471       	93.205734      	93.35198       	93.44934       	93.826385      	93.445404      	93.20018       	93.5328        	93.52656       	94.12663       	93.77449       	93.45623       	93.65681       	94.199715      	93.84884       	93.48958       	93.503876      	93.843124      	93.27694       	93.90385       	94.04882       	94.02363       	93.89056       	93.63266       	93.81376       	93.91048       	94.676544      	94.28007       	93.96361       	93.49902       	93.66102       	93.11205       	93.48176       	93.61056       	93.846176      	93.77869       	94.228386      	93.61063       	93.49782       	93.646675      	93.447716      	93.575226      	93.33088       	93.631485      	93.60112       	93.678696      	93.65442       	93.52121       	93.23454       	93.17101       	92.93138       	93.69353       	93.34909       	93.8341        	93.90581       	93.83338       	93.74397       	94.06368       	94.2795        	94.32059       	94.33647       	94.2373        	
94.371         	94.18515       	94.46085       	94.007774      	93.58892       	93.76271       	93.463875      	93.11591       	92.725784      	93.190956      	93.0706        	93.05594       	93.037094      	93.14238       	93.116         	93.67587       	93.25227       	93.51075       	93.30087       	93.370735      	93.45309       	92.99182       	92.56701       	92.89743       	93.34592       	93.21082       	92.905754      	92.79928       	92.896614      	93.24044       	92.69051       	92.510124      	92.52471       	92.75636       	93.20708       	92.99976       	92.52492       	92.7918        	92.406494      	92.65347       	92.72789       	92.84086       	93.49382       	94.1519        	93.858444      	93.57906       	93.88072       	93.64682       	93.50606       	93.86959       	94.11397       	93.750694      	93.733025      	93.97916       	93.95262       	94.21929       	93.96691       	93.47505       	93.60754       	93.7967        	93.58345       	93.9388        	93.944565      	93.866776      	94.27916       	94.47298       	93.84606       	93.13264       	93.500565      	93.173546      	92.67261       	92.85922       	92.82917       	92.79784       	93.08119       	93.065025      	93.11291       	93.38517       	93.410995      	93.42315       	93.23345       	93.38525       	93.750656      	94.09278       	94.072136      	93.71066       	93.81502       	93.4548        	93.32247       	93.450005      	93.1455        	93.43517       	93.796265      	93.41923       	93.11398       	93.47347       	93.83866       	93.714966      	93.63655       	93.60637       	
93.65538       	93.9222        	93.75324       	93.44614       	93.2586        	93.4936        	92.604485      	93.14945       	92.89586       	93.43488       	93.85379       	93.60167       	93.259605      	93.31342       	93.00646       	92.94229       	93.08654       	93.164154      	93.6492        	93.148         	93.29217       	93.13661       	93.3289        	93.1009        	93.10638       	93.2857        	93.08784       	93.10205       	93.52064       	93.189224      	93.19123       	92.97702       	93.14765       	93.32829       	93.369316      	93.176254      	93.55936       	93.42313       	93.16073       	92.825195      	93.31713       	93.265396      	93.51496       	93.822784      	93.847         	93.95253       	94.42789       	93.61698       	94.015366      	94.41364       	93.82077       	94.140205      	93.98894       	93.847916      	94.137535      	94.11026       	93.654655      	94.26732       	93.90364       	93.23429       	94.36903       	94.44815       	93.91399       	94.46559       	94.65048       	94.313805      	94.06972       	93.436104      	92.61382       	93.00724       	92.91055       	93.445625      	93.56209       	93.60301       	93.629715      	93.94026       	93.561806      	93.13688       	93.35857       	93.16025       	92.93251       	93.370865      	93.58763       	93.11634       	93.39562       	93.73919       	93.57126       	93.59047       	93.24536       	93.56652       	93.56884       	93.35937       	93.79984       	93.6835        	93.644295      	93.6376        	93.97316       	93.84282       	93.88304       	94.08573       	
94.77585       	94.32121       	94.473625      	93.38518       	93.185196      	93.49226       	93.37745       	93.336494      	93.56804       	93.11771       	93.55787       	93.28942       	93.53236       	94.04351       	94.21493       	93.724         	93.85269       	93.5842        	92.957855      	93.13985       	93.5833        	93.33561       	93.44811       	93.10252       	93.502495      	93.617096      	93.68836       	93.801605      	93.9827        	93.4559        	93.07555       	93.071526      	93.38032       	93.21383       	93.413124      	93.36698       	93.12651       	93.33155       	93.254425      	93.11964       	93.48394       	93.28458       	93.60448       	93.7951        	93.80273       	93.94876       	94.05296       	93.78771       	93.845085      	94.03124       	93.712395      	94.01706       	93.83924       	93.59912       	94.16413       	94.0482        	93.87395       	93.938965      	93.84139       	94.001305      	94.13255       	94.022064      	94.010445      	94.52124       	94.02778       	94.361885      	94.24313       	93.417206      	93.55917       	93.8024        	92.8708        	93.25316       	93.53072       	93.06055       	92.9364        	92.95889       	92.87331       	92.7955        	92.75462       	92.80643       	92.58915       	93.29393       	93.21559       	93.22611       	93.79663       	93.312935      	93.483734      	93.71974       	93.54676       	93.838715      	93.92509       	93.5446        	93.91196       	93.596565      	93.426834      	93.88548       	93.828125      	93.78221       	93.6676        	93.65625       	
93.784256      	94.55586       	94.907234      	94.23946       	93.540634      	93.270294      	93.2425        	92.81097       	93.56457       	93.39284       	93.37149       	93.34818       	92.83121       	93.03653       	93.23156       	92.89961       	93.134125      	93.73957       	93.8982        	93.48246       	93.675285      	93.86492       	94.132164      	94.126236      	93.685234      	93.405815      	93.69193       	93.35944       	93.569595      	93.1468        	93.0592        	92.896355      	92.92995       	93.01756       	93.29492       	93.277695      	93.052536      	92.96748       	93.00195       	93.02558       	93.17225       	93.26993       	93.62581       	93.38713       	93.732124      	93.6355        	93.695015      	93.42053       	94.008064      	94.23941       	93.77038       	93.84256       	93.775566      	94.16089       	94.23572       	93.85082       	93.76634       	93.805176      	93.44803       	93.376305      	93.29528       	93.11466       	93.70952       	94.50467       	94.43023       	94.46993       	94.32441       	93.74783       	93.94071       	93.64009       	93.59478       	93.8132        	93.23015       	93.00599       	93.20413       	93.33467       	93.19646       	92.853645      	92.78523       	92.45011       	92.92802       	93.211494      	93.46101       	92.82083       	92.97526       	93.77874       	93.914024      	93.533134      	93.4012        	94.145355      	93.41625       	93.29931       	93.71638       	93.562706      	92.91915       	92.49341       	92.98776       	93.311005      	93.25398       	93.133865      	
93.98976       	93.92533       	94.17868       	94.70365       	94.165115      	93.82291       	94.12029       	93.60503       	93.44831       	93.94343       	93.57988       	93.21016       	93.678955      	93.88127       	93.741714      	93.96317       	93.6256        	93.72547       	93.63778       	93.023834      	93.05437       	93.53462       	93.30285       	93.30924       	93.31517       	93.03136       	92.91796       	93.227165      	93.612076      	93.900826      	93.405914      	93.33267       	93.22807       	93.64069       	93.5888        	93.47629       	93.574104      	92.85815       	92.86405       	92.605576      	92.274376      	92.61529       	93.30724       	93.486725      	93.9077        	94.27756       	93.877716      	93.5308        	93.950645      	93.8522        	94.22611       	94.668686      	94.45206       	93.57292       	93.6762        	93.42469       	93.4652        	93.45843       	93.58564       	93.77556       	93.56234       	93.72546       	93.42219       	93.70259       	94.080376      	93.805595      	94.06306       	93.473564      	93.31274       	92.995514      	92.95905       	93.05127       	92.96461       	93.08269       	92.914604      	92.6476        	92.3804        	92.90726       	92.63734       	92.74722       	92.819786      	92.85018       	93.492294      	93.57014       	93.596436      	93.62386       	94.08707       	93.673676      	93.74027       	93.57204       	93.7015        	93.70865       	93.62297       	93.43201       	94.15405       	94.14499       	93.946526      	94.01895       	94.045296      	94.13563       	
93.981674      	94.08981       	94.03947       	93.72457       	93.13386       	93.34387       	92.70523       	92.70499       	92.87149       	92.857704      	93.06254       	93.36248       	93.70158       	93.5317        	93.512314      	93.50793       	93.190155      	93.93077       	94.10243       	93.92702       	93.80195       	93.597305      	93.442314      	93.58119       	93.2907        	93.672745      	93.71227       	93.316086      	93.45649       	93.574326      	93.57557       	93.73577       	93.65264       	93.46495       	93.4641        	93.04896       	92.67863       	92.88255       	93.03178       	92.655396      	93.119545      	93.19058       	92.65191       	92.747444      	93.913956      	93.57197       	93.193954      	93.3186        	93.60603       	93.79308       	93.72059       	93.976105      	93.77025       	93.37062       	93.51262       	93.80795       	93.56923       	93.42459       	93.1824        	93.551094      	93.78719       	93.73302       	93.571365      	93.836914      	93.87716       	93.7318        	94.312126      	94.52786       	93.905205      	93.91192       	93.66279       	93.337006      	93.666084      	93.6338        	93.27479       	93.26128       	93.4689        	93.64958       	93.9503        	93.641426      	93.34364       	93.59858       	93.619125      	94.0529        	94.086105      	94.351425      	94.069595      	93.98029       	94.07006       	94.22425       	94.07758       	93.92008       	94.19625       	94.09718       	94.401085      	94.12386       	94.07956       	93.922966      	93.82309       	93.73697       	
93.33973       	93.613495      	93.561844      	93.419014      	93.48707       	92.5979        	93.11251       	92.892044      	93.06603       	92.801445      	93.26571       	93.501656      	93.71856       	93.19752       	93.336914      	93.45602       	93.224625      	93.37099       	93.4288        	93.42905       	93.59197       	93.30649       	93.39405       	93.40803       	93.16131       	93.24297       	93.08199       	92.828995      	93.160225      	93.57556       	93.430855      	93.6739        	93.530304      	93.03517       	92.51582       	92.35761       	92.73445       	93.04261       	92.62115       	92.76151       	92.57976       	92.54691       	93.0413        	93.78022       	93.97795       	93.79583       	93.596886      	93.15179       	93.794815      	93.871506      	93.52306       	93.669304      	93.61153       	94.04695       	94.36976       	94.6112        	94.04465       	94.08306       	93.78138       	93.57386       	93.63355       	93.448616      	93.59933       	93.33435       	93.468994      	93.32985       	93.36366       	93.62004       	93.35866       	93.18072       	93.691734      	93.857124      	93.25          	93.46285       	94.00581       	93.84139       	94.19535       	94.11601       	93.43492       	93.226524      	93.840294      	94.42197       	94.32019       	94.16468       	94.29708       	94.072464      	93.810165      	94.19881       	94.2041        	94.218254      	94.00031       	93.98182       	94.37749       	93.919846      	94.316765      	94.17311       	94.00065       	93.59245       	93.34054       	93.49384       	
94.00619       	94.73958       	95.22445       	94.47944       	93.82377       	93.61007       	93.85616       	93.74581       	93.240005      	93.6081        	93.51055       	93.70395       	93.781494      	93.624664      	93.69488       	94.10529       	93.52192       	93.5585        	93.53371       	93.602554      	93.475105      	93.52181       	93.39355       	93.68612       	93.95281       	93.187904      	93.156364      	93.81621       	93.18994       	93.05116       	93.015945      	92.9399        	93.02306       	93.21647       	93.44838       	93.24985       	93.473404      	93.089264      	92.820564      	92.507126      	92.449455      	92.872314      	92.655525      	92.86438       	93.86177       	93.987015      	94.147736      	93.5747        	93.389404      	93.47044       	93.66635       	93.648895      	93.47149       	93.8042        	94.06917       	94.55739       	94.22354       	93.69914       	94.23028       	94.33224       	93.86271       	93.354034      	93.727425      	93.73378       	93.80285       	93.34612       	93.60904       	93.7081        	93.61002       	93.62599       	93.55754       	93.258415      	93.080605      	93.43895       	93.31928       	93.73783       	93.83885       	94.010994      	93.9602        	93.82433       	94.07991       	94.2629        	93.925255      	93.87749       	93.49163       	94.31178       	94.10008       	93.925125      	94.254326      	94.207695      	93.58581       	93.60636       	93.627655      	93.5077        	93.425934      	93.39253       	93.219925      	93.31143       	93.5509        	93.78622       	
94.576324      	94.36867       	94.69766       	94.456085      	94.22881       	94.35693       	93.63402       	93.559006      	93.47305       	93.346146      	93.16269       	93.61046       	93.73756       	93.95854       	93.59521       	93.99572       	93.998375      	93.65454       	93.565605      	94.06033       	93.845505      	93.61734       	93.68322       	93.90067       	93.599365      	93.54313       	93.294174      	93.551186      	93.621254      	93.755974      	93.50514       	94.10933       	93.59466       	93.92162       	93.560165      	93.40994       	93.43348       	93.77272       	93.96745       	93.68426       	93.71838       	93.40409       	93.5116        	93.6581        	93.51362       	93.75743       	93.75818       	93.39682       	93.58458       	93.63946       	93.67956       	93.26973       	93.48036       	93.57947       	93.37959       	93.382614      	93.97444       	93.98499       	93.71628       	94.00549       	94.03079       	93.85877       	93.391464      	93.62489       	93.877426      	93.27218       	93.65743       	93.81506       	93.52524       	93.3307        	93.85237       	93.6494        	93.76065       	93.813286      	93.11911       	93.799385      	93.83428       	94.05046       	93.75014       	93.65495       	93.66602       	93.86132       	94.087395      	93.506134      	93.16288       	92.99415       	93.50921       	93.46359       	93.57316       	93.34504       	93.786125      	93.32194       	93.22659       	93.69519       	93.558235      	93.401596      	93.776405      	93.766815      	93.67567       	93.64033       	
93.968025      	93.89748       	93.95204       	94.9399        	94.38749       	94.348015      	93.57347       	93.32084       	93.21986       	93.20947       	93.45067       	93.58566       	93.09982       	93.05136       	93.1056        	92.76705       	93.14537       	93.09745       	93.792206      	93.2443        	92.95844       	92.61237       	92.95595       	93.31568       	93.1287        	93.48882       	93.53858       	93.870514      	94.04062       	93.613815      	93.38266       	93.45637       	93.21351       	93.50756       	93.133354      	93.02184       	92.63212       	92.470085      	92.432365      	92.35613       	92.34944       	92.756805      	92.47792       	92.69534       	92.885895      	93.21497       	93.67211       	93.4314        	93.45965       	93.404106      	93.49815       	93.57697       	93.28942       	94.07585       	94.06618       	94.32722       	94.034775      	93.88832       	93.78824       	93.77992       	93.637344      	93.658         	93.890945      	94.10353       	94.30976       	93.99747       	94.213425      	94.514595      	94.18465       	94.08298       	94.54727       	94.284065      	94.39239       	94.49423       	94.194374      	93.86588       	93.83345       	93.70307       	93.59093       	93.87531       	93.7915        	93.90116       	93.71795       	93.40091       	93.2817        	93.434204      	93.75223       	94.081375      	93.61893       	92.844986      	93.28289       	93.38465       	93.7674        	94.15816       	93.93867       	93.67734       	93.79712       	93.81966       	93.927826      	94.07307       	
93.8258        	94.55087       	94.40871       	94.28415       	94.18949       	93.35147       	93.70131       	93.725464      	93.852295      	94.00057       	93.59086       	94.0586        	94.16101       	94.10695       	93.76676       	93.78219       	93.67998       	93.71346       	93.670074      	94.048676      	93.9227        	93.20057       	93.69779       	93.415         	92.981026      	93.169174      	93.51381       	93.31448       	93.23233       	93.072525      	93.20855       	93.14427       	93.12992       	92.92123       	92.90512       	93.284355      	93.40463       	92.92949       	92.752594      	92.977264      	93.022575      	92.59736       	92.711914      	93.63841       	93.65858       	93.9412        	93.44307       	93.80509       	93.80286       	93.96984       	94.18163       	93.522026      	93.08361       	93.36732       	93.43839       	93.413994      	93.94264       	93.80531       	93.90833       	93.68348       	93.95364       	93.479004      	94.07547       	93.73487       	93.918594      	94.12447       	93.320366      	93.10971       	93.26039       	93.10406       	93.3346        	94.01823       	93.60985       	93.243355      	93.53402       	93.17718       	93.5212        	93.32817       	93.12863       	92.65817       	92.65187       	93.30771       	93.212494      	93.510796      	92.91186       	92.93689       	93.49532       	93.59559       	93.3238        	93.615875      	93.58444       	94.224884      	93.95322       	93.91718       	93.8337        	93.69881       	93.47684       	93.4003        	93.53767       	93.715614      	
94.69017       	94.68464       	94.321915      	94.50573       	94.76507       	93.975464      	93.82789       	94.34465       	94.104416      	94.010704      	94.01881       	93.855576      	93.29269       	93.45212       	93.29085       	93.733734      	93.7953        	93.498184      	93.41389       	93.3302        	93.04577       	93.01527       	93.65691       	93.43204       	93.749596      	93.692955      	93.41935       	93.604935      	93.32929       	93.10689       	93.47425       	93.972305      	93.402435      	93.737564      	93.49765       	93.544846      	93.838615      	93.46176       	93.158966      	92.93304       	92.9972        	92.97155       	93.3567        	92.85076       	93.18442       	93.58297       	93.48752       	93.29527       	93.78368       	93.61623       	93.47868       	93.4158        	93.477165      	93.04919       	93.19762       	93.946945      	93.70539       	93.155106      	93.649185      	93.69034       	93.47665       	93.672775      	93.49113       	93.53922       	93.88281       	94.11809       	93.72179       	94.015785      	94.159615      	93.5929        	93.44636       	93.609535      	93.52878       	93.30782       	93.51701       	93.60529       	94.10535       	93.79077       	93.258194      	93.836464      	93.55843       	93.713554      	93.53954       	93.812164      	93.54236       	93.69353       	93.681854      	93.6216        	93.55793       	93.90438       	93.71968       	93.9864        	93.70582       	92.929306      	93.45612       	93.23279       	93.715034      	93.75216       	93.79842       	93.825325      	
94.65573       	94.6958        	94.42962       	94.83129       	95.10737       	94.22705       	94.05309       	93.91584       	93.40347       	93.95402       	93.79979       	93.983475      	93.6065        	93.81217       	94.03572       	94.358315      	93.852646      	94.30427       	94.466515      	93.72078       	93.41798       	94.18635       	93.859825      	93.51546       	93.80936       	93.41885       	93.28353       	93.171555      	93.16014       	93.2929        	93.27304       	93.0995        	93.30026       	93.49065       	93.34172       	93.497055      	93.72735       	93.75023       	93.27633       	92.91349       	92.84942       	92.99466       	92.63416       	92.87565       	93.58147       	93.45097       	93.58171       	93.72274       	93.517334      	93.35249       	93.606674      	93.84389       	93.41097       	93.56573       	93.59169       	94.066765      	94.453445      	94.17276       	93.86719       	94.63551       	94.1768        	93.85485       	93.73577       	93.56237       	93.651726      	94.07816       	94.169205      	93.65861       	93.69191       	93.76131       	94.038605      	93.65068       	93.53134       	93.667404      	93.98262       	93.77324       	93.76473       	93.789795      	93.7409        	93.86316       	93.45063       	93.59753       	94.08207       	93.697624      	94.1457        	94.05461       	93.90473       	94.20155       	93.64002       	93.66219       	93.47282       	93.82931       	93.64319       	93.5061        	93.93326       	93.53048       	93.36112       	93.56037       	93.58993       	93.7288        	
94.3304        	94.34921       	94.414764      	94.0148        	94.52099       	94.16078       	93.9246        	94.04105       	93.59476       	93.2032        	93.50915       	93.79875       	93.000404      	93.05066       	92.98244       	93.2102        	93.418465      	93.24227       	93.495476      	93.42333       	93.77071       	93.43665       	93.28155       	93.47985       	93.55293       	93.384995      	93.906624      	93.66965       	93.775444      	93.500885      	93.322266      	93.628586      	93.49671       	93.35291       	93.272354      	93.13349       	93.20678       	93.3083        	93.62181       	93.34529       	93.56825       	93.2138        	93.34246       	93.729965      	93.54768       	93.709404      	93.50399       	93.37374       	93.74924       	93.85652       	93.52386       	93.889         	94.4795        	94.3536        	93.98091       	94.309906      	94.08871       	94.10882       	94.25261       	94.47928       	93.894615      	93.66517       	94.11251       	94.09942       	94.13374       	93.634964      	93.997086      	93.7541        	93.24353       	93.593376      	93.49859       	93.51967       	93.69242       	93.8884        	93.44777       	93.5966        	93.87935       	93.722305      	93.77094       	93.94402       	93.81866       	93.87914       	93.880844      	93.58101       	93.972336      	93.82341       	94.47315       	94.49179       	94.59143       	94.376816      	94.423004      	94.653946      	94.25339       	94.40768       	93.923416      	93.859604      	94.05957       	93.975136      	93.82447       	93.61665       	
93.982475      	93.91241       	94.32836       	93.79973       	93.80974       	93.7804        	93.697586      	93.17553       	93.04855       	93.148384      	93.592514      	93.5832        	93.07618       	92.958374      	93.50036       	92.94294       	93.12389       	93.02555       	92.37569       	92.66682       	92.83951       	93.395294      	92.80702       	93.34289       	93.419914      	93.35106       	93.76782       	93.62175       	93.68237       	93.71131       	93.335625      	93.37039       	93.61686       	93.194374      	93.313         	93.57044       	93.66821       	93.25555       	93.77502       	94.013954      	93.968956      	93.656815      	93.627205      	93.80253       	93.64983       	93.675125      	93.80498       	93.53993       	93.72698       	94.00633       	93.54699       	93.9568        	93.96163       	93.819374      	93.890144      	93.76961       	93.422554      	93.877884      	93.88936       	93.46834       	93.78444       	93.97156       	93.75798       	94.13222       	94.163315      	94.09382       	94.015045      	93.94488       	93.436874      	93.73141       	93.88327       	93.885666      	93.87838       	93.43144       	93.41469       	93.532455      	93.60274       	93.989655      	93.94732       	93.35106       	93.37325       	93.51026       	93.61194       	93.722885      	93.48601       	93.60848       	93.62247       	93.26603       	93.43765       	93.20098       	93.48351       	93.29876       	93.43783       	93.61771       	93.51539       	93.117546      	93.295525      	93.47366       	93.589775      	93.392494      	
94.505356      	94.161095      	94.48238       	94.246025      	94.54642       	94.55877       	94.05557       	93.395004      	93.25371       	92.95857       	93.19876       	93.70024       	93.3868        	93.245605      	93.45253       	93.04312       	92.91764       	93.0445        	92.95532       	92.67453       	92.918686      	92.817345      	93.21443       	93.17392       	93.35835       	93.64552       	93.92575       	93.35148       	92.90787       	93.240685      	93.476395      	93.21825       	93.57966       	93.91536       	93.66833       	93.83461       	93.793594      	93.920425      	94.101105      	94.13655       	94.417755      	94.09569       	94.19637       	94.34741       	94.148285      	93.57769       	93.799805      	94.03758       	93.962875      	94.01885       	93.97738       	93.559235      	93.668625      	93.52527       	94.05268       	94.07006       	93.824875      	93.66401       	93.85517       	93.50373       	93.12866       	93.36431       	93.395874      	92.98848       	93.202545      	93.38453       	93.21485       	93.142685      	93.28389       	93.29415       	93.550385      	93.00966       	93.14428       	93.49506       	93.334236      	93.03293       	93.16493       	93.17287       	92.41114       	92.75335       	93.12122       	92.89929       	93.18477       	93.85963       	93.55538       	93.315926      	93.19858       	93.265755      	93.09411       	93.0711        	93.1703        	93.60902       	93.15245       	93.28325       	93.43117       	93.388794      	93.440445      	94.02956       	94.18912       	93.98588       	
93.63407       	93.659294      	93.50446       	94.142525      	93.899445      	93.653336      	93.80708       	93.4255        	92.75134       	92.60291       	92.110214      	92.469124      	92.691475      	92.594536      	92.39038       	92.707726      	92.41194       	92.29173       	93.106636      	92.70597       	92.65752       	93.19447       	93.19191       	92.972466      	92.80687       	92.89457       	92.76842       	93.02181       	92.95098       	92.714264      	93.12808       	93.07203       	93.49145       	93.673935      	93.062675      	93.64562       	93.7638        	93.73869       	93.74688       	93.380974      	93.46723       	93.54082       	93.32198       	93.23901       	93.74847       	93.91033       	93.65353       	93.70028       	94.29744       	94.13284       	93.513115      	93.377396      	93.70264       	94.004166      	94.01862       	93.6913        	94.06434       	94.048096      	93.48111       	93.34618       	93.30743       	93.17845       	93.1151        	93.52996       	93.39177       	93.144936      	93.57417       	93.790924      	93.63718       	93.41893       	93.659515      	93.729866      	93.35925       	93.59087       	93.562294      	93.64214       	93.541954      	93.8331        	93.72625       	94.10534       	93.89355       	94.241196      	94.02568       	93.85391       	93.15272       	93.419235      	93.4473        	94.406975      	94.58806       	93.91857       	93.88316       	94.22718       	94.15723       	93.70665       	93.95096       	93.88986       	94.24008       	94.326004      	94.128044      	93.99075       	
93.70367       	93.022545      	93.375656      	93.70503       	93.62098       	94.59352       	94.39037       	93.21896       	92.80223       	93.224174      	92.50499       	92.6075        	92.74466       	92.79975       	92.717125      	92.89715       	93.07262       	93.11426       	93.353264      	93.397415      	94.035126      	93.81376       	93.408         	93.868935      	93.56276       	93.07423       	93.18389       	93.628716      	93.15002       	92.90931       	93.52693       	93.63294       	93.696304      	93.49833       	93.81766       	93.65455       	93.57366       	93.65455       	93.26862       	93.44404       	93.42028       	93.5816        	93.32052       	93.641235      	93.83967       	93.839966      	93.96634       	93.73303       	93.75572       	93.44614       	93.548615      	93.007355      	93.47728       	93.621864      	93.41621       	93.31892       	93.5132        	93.927414      	94.104416      	94.032394      	93.77226       	94.293495      	94.43022       	93.93839       	93.719284      	94.00435       	94.23518       	93.89889       	93.58735       	93.87379       	93.78004       	94.04443       	93.79042       	93.52302       	94.01572       	94.20726       	94.28392       	94.27242       	94.67726       	94.83815       	94.086426      	94.393         	94.477615      	94.442986      	94.4461        	94.34767       	94.18196       	94.23841       	93.8885        	93.922516      	93.629814      	93.80275       	93.97246       	94.4723        	93.807945      	93.866905      	93.6381        	93.392426      	93.60057       	93.687614      	
94.05997       	94.07683       	94.16338       	94.02684       	94.47427       	94.32927       	93.80885       	93.37108       	93.32991       	93.00268       	93.2575        	93.12601       	92.62202       	93.01784       	92.87549       	92.72103       	93.27182       	92.69963       	93.09257       	93.5526        	92.82474       	92.71061       	93.73009       	93.40498       	93.34427       	93.45592       	93.70487       	93.70473       	94.42442       	94.441154      	94.346565      	94.4947        	94.25488       	94.5022        	94.46591       	94.114944      	93.88819       	94.06236       	94.08389       	93.65131       	93.814995      	93.97355       	93.715         	93.234085      	93.54389       	94.063545      	94.031456      	93.79841       	94.14485       	94.190506      	94.05993       	93.937386      	94.144035      	94.05113       	93.62971       	93.42741       	93.71331       	93.76314       	93.796616      	94.251305      	94.07265       	93.567505      	93.362434      	93.6649        	93.113045      	93.35173       	93.59138       	93.30774       	93.72507       	93.90306       	93.39828       	93.61539       	93.53138       	93.038826      	93.53255       	93.072586      	93.414024      	93.293         	93.01092       	92.844986      	93.032524      	93.17049       	93.01552       	93.3453        	93.41161       	92.93236       	93.17647       	93.11173       	93.21388       	93.368         	93.61327       	93.64458       	93.973755      	93.7272        	93.4008        	93.98775       	93.88695       	93.61907       	93.63533       	93.43197       	
93.53327       	93.70421       	93.64201       	93.8015        	93.90549       	94.10239       	94.01024       	94.01482       	94.36801       	94.22899       	93.602554      	93.10409       	93.128555      	93.16539       	93.56855       	93.81241       	93.831795      	93.99182       	93.9393        	93.93621       	93.74178       	93.34952       	93.7704        	94.03332       	94.45024       	94.34844       	93.840385      	93.93384       	93.80762       	93.96825       	93.52348       	93.73145       	94.32604       	94.4889        	94.575874      	94.15883       	93.664604      	93.93347       	93.91019       	93.57487       	93.80384       	94.12756       	93.51246       	93.45108       	94.047676      	93.44446       	93.827095      	94.04024       	93.85437       	93.858765      	94.288315      	93.786415      	94.00117       	93.93179       	93.754814      	93.955444      	94.24461       	94.10857       	93.91812       	93.65746       	93.407585      	93.44599       	93.73754       	93.56616       	93.33085       	93.33188       	93.23914       	93.17931       	93.28166       	93.46355       	93.776474      	94.00129       	94.21674       	94.3221        	93.804924      	93.578804      	93.84415       	93.590256      	93.597565      	94.117805      	93.86773       	94.09063       	94.11471       	94.530876      	93.92946       	93.81761       	93.44652       	94.14299       	93.98322       	93.419586      	93.403564      	93.812294      	93.5984        	93.77156       	93.90595       	94.21493       	93.78951       	93.79101       	93.78875       	93.83825       	
93.514404      	93.18669       	93.202805      	93.55334       	93.42163       	93.40149       	93.45322       	93.35828       	93.57237       	93.645226      	93.586494      	93.777336      	93.42127       	93.38045       	93.697845      	93.33808       	93.48674       	93.75037       	93.31862       	93.4726        	93.59932       	93.80987       	93.7657        	93.878784      	93.781624      	93.47446       	93.89668       	93.61031       	93.54992       	93.32          	93.21879       	93.69652       	93.938484      	93.95544       	93.95146       	94.175285      	93.45096       	93.81558       	93.7386        	93.73612       	93.756485      	94.01309       	93.49207       	93.257645      	93.58667       	93.39136       	93.69654       	93.57622       	93.55275       	93.680405      	93.59607       	93.14799       	93.57385       	93.929756      	93.401764      	93.70724       	93.72789       	93.52418       	93.74582       	93.92001       	93.62906       	93.43411       	93.66397       	93.54863       	93.26359       	93.61187       	93.206         	93.57071       	93.84249       	93.19697       	93.55191       	93.519775      	93.527176      	93.35824       	93.375565      	93.03631       	92.94572       	93.34783       	93.40341       	93.57563       	93.465904      	93.56813       	94.23336       	93.83235       	93.226074      	93.75141       	93.24244       	93.085014      	93.89464       	94.21315       	93.43314       	93.34022       	93.107475      	93.22714       	93.82701       	93.71347       	93.305984      	93.60526       	93.675575      	93.613174      	
93.5142        	93.25594       	93.637566      	93.822136      	93.49055       	93.64491       	93.735466      	94.01469       	93.59672       	93.472916      	93.70415       	93.52601       	93.432526      	93.36773       	93.33515       	93.576744      	92.91637       	92.57781       	92.80305       	93.28174       	93.43168       	92.395706      	93.10637       	93.41076       	93.009445      	93.33127       	93.63115       	93.86486       	94.00293       	93.5482        	93.434845      	93.718         	93.42375       	93.75907       	93.76929       	93.42062       	92.71788       	93.0631        	93.243         	92.83581       	92.72376       	93.34024       	93.53472       	93.19999       	93.32296       	93.43354       	93.72725       	93.52706       	93.338936      	93.88761       	93.86333       	93.68856       	94.10929       	94.0572        	93.85744       	94.14235       	93.63638       	93.6355        	94.02101       	93.15781       	93.12676       	93.69615       	93.16985       	93.14825       	93.590485      	93.80926       	93.93413       	93.951645      	93.79448       	94.02947       	94.18843       	93.8212        	93.822136      	94.312416      	93.741974      	93.60486       	94.09277       	93.82811       	93.72857       	94.07617       	94.11414       	94.25374       	94.3538        	94.41082       	94.062294      	93.91286       	93.70284       	94.11368       	94.15834       	93.902054      	93.979294      	93.92482       	93.44949       	93.65536       	93.71022       	94.02311       	93.82315       	93.42596       	93.24836       	93.34391       	
93.14368       	92.973175      	93.10472       	93.289536      	93.25658       	93.05827       	93.2451        	93.577065      	93.7386        	93.33113       	93.17988       	93.34643       	93.76556       	93.44946       	93.362274      	93.673744      	93.69821       	93.8849        	93.49574       	93.583         	92.95375       	92.93151       	93.70649       	93.54111       	93.27736       	93.78218       	93.572266      	93.582436      	93.62306       	93.293015      	93.50556       	93.67055       	93.09659       	93.19198       	93.212776      	93.508194      	93.49649       	93.483894      	93.39776       	93.70568       	93.43708       	93.43603       	93.51061       	93.38374       	93.66163       	93.661545      	93.37723       	93.25178       	93.37936       	93.848724      	93.6706        	93.51453       	93.222664      	93.17172       	93.625084      	93.93782       	93.60947       	93.97778       	93.848495      	93.96717       	94.01088       	93.66361       	94.06006       	93.92896       	93.8299        	93.51554       	93.37459       	93.4819        	93.11761       	93.62344       	93.43167       	93.03999       	93.414375      	93.32889       	93.12218       	93.67137       	93.7862        	94.14762       	94.15646       	93.90805       	94.23584       	93.95825       	94.0601        	94.17131       	93.786         	93.34813       	93.587296      	93.65761       	93.59823       	93.4978        	93.669106      	93.772934      	93.5515        	93.52455       	93.2849        	93.97286       	93.523796      	93.20923       	93.31775       	93.3754        	
93.672806      	93.9874        	93.87885       	93.52093       	93.83532       	93.41467       	93.184654      	93.67989       	93.58383       	93.563934      	93.64991       	93.69824       	93.88554       	93.58092       	93.70073       	94.173355      	93.7076        	93.73682       	94.0164        	93.68969       	93.61512       	93.72918       	93.71476       	93.88822       	93.77902       	93.56348       	94.17159       	93.65052       	93.66564       	94.16363       	93.2205        	93.48152       	93.51193       	93.39774       	93.51461       	93.6628        	93.67827       	93.7612        	93.73363       	93.714005      	93.633354      	93.646866      	93.588615      	93.6399        	93.50567       	93.4967        	93.316086      	93.50207       	94.20839       	93.78148       	93.58505       	93.633705      	93.54162       	93.5802        	93.08855       	92.794205      	92.82333       	92.593864      	92.575516      	92.84268       	93.26476       	92.93416       	93.63066       	93.48866       	93.56758       	93.99698       	93.61595       	93.20345       	93.27223       	93.51925       	93.586296      	93.381134      	93.41747       	93.423256      	93.83145       	93.79849       	93.40529       	93.95112       	94.121574      	93.57105       	93.47598       	93.45223       	93.150475      	92.885254      	93.17367       	93.359116      	93.523605      	93.364265      	93.18486       	92.93242       	93.04011       	93.351074      	93.60066       	93.125206      	92.88526       	93.45338       	93.767654      	93.63941       	93.445206      	93.40758       	
93.657036      	93.398735      	93.69983       	93.4616        	93.76241       	94.17399       	93.99616       	94.34466       	94.406525      	94.130424      	94.21516       	94.553215      	94.24947       	94.36569       	94.423225      	94.527664      	93.76046       	93.94609       	93.551155      	94.293625      	94.40406       	94.255936      	93.73507       	94.12299       	94.035034      	94.09281       	94.25533       	94.57038       	94.06417       	94.01339       	94.00045       	94.04765       	93.927124      	93.69351       	94.255745      	94.4808        	93.76651       	93.92253       	94.04096       	93.878815      	94.00042       	94.211845      	94.28174       	93.7642        	93.57935       	93.332634      	93.049774      	93.11247       	93.18218       	93.177216      	93.245865      	93.20496       	93.39598       	93.13924       	93.118965      	93.236336      	93.86742       	94.04456       	93.77734       	93.561714      	93.57703       	93.674736      	93.562904      	93.49362       	93.552826      	93.37596       	93.73388       	93.94057       	93.37855       	93.625626      	94.189095      	94.03667       	94.10942       	94.47286       	93.66558       	93.83586       	94.06224       	93.74306       	93.68188       	93.99568       	93.65135       	93.65247       	93.83412       	93.311966      	92.89026       	93.28858       	93.35555       	93.55819       	92.96569       	93.49707       	93.24692       	92.60723       	92.85713       	93.27013       	93.26836       	93.40846       	93.61027       	93.60372       	93.69937       	93.992134      	
93.70545       	93.16649       	92.90402       	93.23632       	93.48727       	93.77475       	93.32417       	93.60084       	93.04542       	93.593315      	93.35066       	93.26126       	93.586555      	93.97857       	93.74285       	93.36711       	93.799446      	93.74631       	93.613396      	93.73925       	93.71949       	93.145294      	93.4261        	93.633385      	93.65865       	93.53094       	93.21058       	93.65905       	93.60278       	93.810295      	93.721466      	93.62097       	93.93002       	93.80017       	93.79469       	93.72981       	93.652176      	93.48621       	93.12778       	93.3787        	93.60589       	93.660355      	93.55668       	93.72503       	93.16104       	93.50469       	93.622345      	93.57633       	93.17859       	94.10322       	93.76521       	93.965935      	94.05101       	93.9498        	94.258736      	93.888916      	93.45352       	93.676605      	93.91907       	93.651276      	93.889786      	94.123535      	93.72388       	93.94889       	94.03873       	94.01526       	93.96939       	93.87247       	94.60502       	94.18328       	93.50391       	93.68834       	93.62328       	93.472         	93.790726      	93.65799       	93.854904      	93.40616       	93.11031       	93.31149       	93.54351       	93.65697       	93.57687       	94.09473       	93.8711        	93.84307       	93.475204      	93.54724       	93.26134       	93.42889       	93.59057       	93.56557       	93.67061       	93.6631        	93.609184      	93.254         	93.39457       	93.34154       	93.23216       	93.20247       	
92.98104       	93.248856      	93.293625      	93.23493       	93.19276       	93.23245       	93.55835       	93.79618       	94.10017       	93.92211       	93.63893       	93.35536       	93.74077       	93.73548       	93.90145       	93.18458       	93.057         	92.95851       	92.62287       	92.80821       	92.77404       	92.91382       	92.82784       	92.806625      	93.34111       	93.40877       	93.36023       	93.57409       	93.22302       	93.49064       	93.3291        	93.11876       	93.08619       	93.022995      	93.20712       	92.757454      	93.26163       	93.342026      	93.0606        	93.35893       	93.302414      	93.58928       	93.64102       	93.792366      	94.0445        	93.820435      	93.879585      	93.584435      	93.32362       	93.4733        	93.238525      	93.72023       	93.692345      	93.6187        	93.75494       	93.68332       	93.495674      	93.239044      	93.269424      	93.08782       	93.005745      	93.42998       	93.219444      	93.12253       	93.48215       	93.20686       	93.40937       	93.504196      	93.41898       	93.1576        	92.94404       	93.18795       	93.368515      	93.4434        	92.94889       	93.10543       	93.07392       	92.86453       	93.12239       	93.45834       	93.42929       	93.56616       	93.78232       	93.678665      	93.0891        	93.266266      	93.55506       	93.18017       	93.5243        	93.477005      	93.369514      	93.250854      	93.94229       	93.45552       	93.85074       	93.728165      	94.15275       	94.12655       	93.87637       	93.67493       	
93.386284      	93.95517       	93.63327       	93.65097       	93.89082       	93.82075       	93.66944       	93.337524      	93.590195      	93.59004       	93.8726        	93.87316       	93.43304       	93.49044       	93.316         	93.4335        	93.19355       	93.04008       	93.30805       	93.64997       	93.578         	93.45767       	93.62687       	93.33643       	93.2367        	93.60795       	93.41809       	93.600555      	93.54029       	93.54426       	93.17924       	93.37071       	93.40763       	93.56498       	93.72136       	93.531746      	93.445885      	93.74437       	93.27269       	93.48698       	93.4112        	93.42652       	93.44995       	93.93213       	94.4148        	93.7691        	93.63177       	93.99214       	93.78756       	93.45092       	93.22446       	93.83121       	94.08671       	93.56005       	93.39628       	93.62215       	93.84421       	93.70445       	93.82636       	93.429726      	93.79679       	94.05115       	93.77481       	93.57382       	93.67799       	93.56874       	93.29          	93.70849       	93.80787       	93.80032       	93.75118       	93.74737       	94.04196       	93.47847       	93.575         	93.72321       	93.29534       	93.519615      	93.33178       	93.677505      	93.86546       	93.80313       	94.21147       	93.92664       	93.6163        	93.69758       	94.160805      	94.32973       	94.23726       	94.64417       	94.323235      	94.55746       	94.867714      	94.98162       	94.87821       	94.857254      	94.39295       	93.82816       	93.60485       	93.60452       	
93.922134      	93.47559       	93.57605       	93.70584       	93.669365      	94.120125      	93.5087        	93.70942       	94.13201       	94.27591       	94.027695      	93.43441       	93.40991       	93.494156      	93.69577       	93.37744       	93.51364       	93.63696       	93.74145       	93.67346       	93.90134       	93.784966      	93.360634      	93.72619       	93.8404        	93.73348       	93.33625       	93.38817       	93.622         	93.57857       	93.24057       	93.18715       	93.640366      	93.194214      	93.49088       	93.18712       	93.105385      	93.21233       	93.82164       	93.819786      	93.60045       	93.80195       	93.61543       	93.59392       	93.44425       	93.43014       	93.45114       	93.611244      	93.277275      	93.57075       	93.71844       	93.43051       	94.02677       	93.14367       	92.995224      	93.39411       	93.36484       	93.150345      	93.74107       	93.74649       	93.53548       	93.760864      	93.50544       	93.54973       	93.548134      	93.54408       	93.659065      	93.67719       	93.656975      	93.746216      	93.44296       	94.00359       	93.811874      	93.96203       	94.22458       	93.716934      	93.688065      	93.81021       	93.84362       	93.979614      	94.16271       	93.62517       	93.70766       	93.71182       	94.13065       	94.2706        	94.50815       	94.44019       	94.22326       	94.96073       	94.76533       	94.12685       	94.2777        	93.841606      	93.882416      	94.04672       	93.63719       	93.44756       	93.53885       	93.46651       	
93.239426      	93.26899       	93.43906       	93.34163       	93.778206      	93.69991       	93.67238       	93.76823       	93.57651       	93.54878       	93.5325        	93.53578       	93.665535      	93.45628       	93.453995      	93.45186       	94.0434        	93.82777       	93.62647       	93.61339       	93.30495       	93.7223        	93.92953       	93.32498       	93.86133       	93.72069       	93.43078       	93.83294       	94.130005      	93.55973       	93.942215      	93.68875       	93.33756       	93.49919       	93.27192       	93.65019       	94.02961       	93.65389       	93.75785       	93.842316      	94.05595       	93.742424      	94.23798       	93.96753       	94.02067       	94.03243       	93.65657       	93.83016       	93.79297       	93.89898       	94.35035       	94.48856       	94.05667       	94.00615       	93.95703       	93.88272       	93.71363       	94.04707       	94.16969       	93.7387        	93.84094       	94.24547       	94.19774       	94.2832        	94.06795       	93.53889       	93.46164       	93.50056       	93.687515      	93.922165      	93.72151       	94.20659       	94.22848       	93.87837       	94.15788       	94.170944      	93.90958       	93.91043       	93.843796      	93.685616      	94.16334       	93.96597       	93.91675       	94.439896      	94.5455        	94.09566       	94.2386        	93.78357       	93.40602       	93.162834      	92.8535        	92.434555      	91.986885      	91.89129       	92.34267       	92.842         	92.77634       	92.84339       	92.976524      	93.20866       	
93.15518       	93.88075       	93.65015       	93.69323       	94.18986       	93.72637       	93.69706       	93.6182        	93.29048       	93.55683       	93.69019       	93.54021       	93.70337       	93.40115       	93.73266       	94.17376       	94.17601       	93.979385      	93.78118       	94.262115      	94.243576      	94.09657       	93.88299       	94.18627       	93.88524       	94.18788       	94.41047       	93.47984       	93.34097       	93.478325      	93.85448       	94.0475        	93.875534      	93.91846       	93.92317       	93.76473       	93.82033       	94.397255      	94.337555      	94.15099       	94.20604       	93.680504      	93.82893       	94.051994      	94.02272       	94.1866        	93.914314      	93.89977       	93.828         	93.43025       	93.77098       	93.678764      	93.82568       	93.56539       	93.297646      	93.76372       	93.95077       	94.53784       	94.188225      	93.784996      	93.83483       	93.90874       	93.97999       	93.94421       	94.5203        	94.53282       	94.24801       	94.50085       	94.653305      	94.503654      	94.56717       	94.82451       	94.68433       	94.49413       	94.27675       	94.63518       	94.67614       	94.84155       	94.57531       	93.92455       	94.15645       	94.24208       	94.63258       	94.60787       	94.15262       	93.76652       	93.83737       	94.06174       	93.96011       	93.65073       	93.70593       	93.56727       	93.373505      	93.60643       	93.642914      	93.284676      	93.38236       	93.5518        	93.55616       	93.462494      	
93.40614       	93.52481       	93.472404      	93.52198       	93.19454       	93.26368       	93.12573       	93.5671        	93.4691        	93.62702       	93.007935      	93.10369       	93.18925       	92.89285       	93.20698       	92.78886       	93.128784      	92.88795       	93.06462       	93.21034       	93.05315       	93.00638       	93.012344      	93.49789       	93.35045       	93.49353       	93.51218       	93.677895      	93.45674       	93.2153        	93.5866        	93.57695       	93.466034      	93.84859       	93.62798       	93.7466        	93.709724      	94.050644      	94.213295      	94.143036      	93.73001       	93.31158       	93.40162       	93.351875      	93.68492       	93.78963       	93.902214      	93.7454        	93.80985       	94.12674       	94.11837       	93.86193       	94.393486      	94.21429       	93.81487       	94.20418       	94.18682       	94.19433       	94.14879       	93.77628       	94.12068       	93.97271       	93.4959        	93.78334       	93.72232       	93.640495      	93.920845      	93.634285      	94.24691       	94.50448       	94.28587       	94.520004      	94.15714       	94.39289       	94.142876      	94.55946       	94.53495       	94.43893       	94.26798       	94.11364       	93.23946       	93.28207       	92.95375       	92.53378       	93.178665      	92.862434      	92.54635       	92.63375       	92.74065       	92.80803       	93.33565       	92.75247       	93.13687       	92.83475       	92.87108       	93.39019       	93.628944      	93.44006       	93.37699       	93.38969       	
93.97496       	93.81152       	93.27833       	93.08057       	93.54862       	93.694786      	93.9168        	94.00305       	94.37989       	94.20759       	94.112656      	94.44088       	94.13747       	93.92418       	93.548225      	93.86113       	93.944145      	93.791466      	93.534584      	93.9415        	93.529015      	93.32002       	93.581985      	93.61572       	93.36677       	93.48405       	93.43104       	93.451385      	93.49125       	93.79473       	93.783356      	93.78688       	93.709785      	94.28045       	93.75685       	93.47922       	93.87877       	94.15569       	93.468094      	93.382744      	93.88377       	93.54076       	93.72453       	94.29459       	94.5558        	94.21907       	94.21932       	93.724236      	93.62495       	93.67685       	93.59155       	93.91121       	93.89144       	93.793076      	93.70737       	93.692764      	94.08294       	93.94864       	93.84775       	94.18384       	93.82663       	93.93112       	93.63912       	93.76032       	93.76819       	93.52958       	93.78272       	93.64891       	93.479935      	93.78011       	93.68746       	93.34523       	93.70555       	94.40812       	94.52402       	94.658165      	94.42929       	93.96513       	93.70004       	93.45757       	93.58322       	93.352875      	93.15918       	93.39437       	93.11498       	92.942696      	92.76538       	93.05941       	93.50342       	93.36853       	93.55099       	94.06037       	92.91769       	92.92995       	93.40625       	93.232544      	93.5199        	94.223236      	94.377686      	94.23786       	
94.0308        	94.17702       	94.08606       	94.462326      	94.21284       	94.270065      	94.405685      	94.275986      	94.37758       	94.360306      	94.219894      	94.4557        	94.50899       	94.30543       	94.30185       	94.529144      	94.41641       	94.7417        	94.784584      	94.79928       	94.647835      	94.76127       	94.45342       	94.64791       	94.719765      	94.23736       	93.80516       	94.06723       	94.10931       	93.667595      	93.764175      	93.699394      	93.48743       	93.27925       	93.578156      	93.593376      	93.644585      	93.65058       	93.44478       	93.694595      	93.67172       	93.58173       	93.68616       	93.70695       	93.197525      	93.39942       	94.016365      	93.78883       	93.79616       	93.63415       	94.04489       	94.00395       	93.84404       	94.17587       	94.113525      	93.88155       	94.05153       	93.92017       	93.76319       	93.81424       	93.782845      	93.638054      	93.46835       	93.82063       	93.864136      	93.66816       	93.46148       	93.60494       	94.00506       	93.95661       	94.293976      	94.60159       	94.153404      	94.03465       	94.5896        	94.43026       	93.55091       	93.827835      	93.97804       	93.743355      	93.51344       	93.5549        	93.59961       	93.392784      	92.96019       	93.57547       	93.723076      	93.74695       	93.25734       	93.95053       	94.03651       	93.460625      	93.50899       	93.72103       	93.90455       	93.17531       	92.97812       	93.17494       	93.39682       	93.60379       	
93.722115      	93.41234       	94.126755      	93.69933       	93.77363       	93.81761       	93.79607       	93.64362       	93.59543       	93.60572       	93.388626      	93.080025      	93.25216       	93.52418       	93.19459       	93.21921       	93.325386      	93.49763       	93.27689       	93.16438       	93.2815        	93.5806        	93.61183       	93.70093       	94.07035       	94.438835      	94.19211       	94.1284        	94.17191       	94.26808       	94.13386       	94.36842       	94.303375      	94.657196      	94.96947       	94.630806      	94.97297       	95.04973       	93.99101       	93.7789        	94.052574      	93.79504       	94.04785       	93.99647       	94.01343       	93.72149       	93.70043       	93.89534       	94.24296       	94.198006      	93.92118       	94.45322       	93.93828       	93.767975      	93.8341        	93.85405       	93.4691        	94.2277        	94.51547       	93.90508       	93.670784      	93.94003       	93.881424      	94.31448       	94.4016        	94.188156      	93.76871       	93.78758       	93.51705       	94.200935      	94.58834       	94.58393       	94.81292       	94.39851       	94.29736       	93.75342       	93.60071       	93.423676      	93.092415      	93.28718       	93.72469       	93.633736      	93.540215      	93.59803       	93.25253       	93.327095      	93.648125      	93.66317       	93.10639       	93.18445       	93.35362       	93.48028       	93.421196      	93.331955      	93.85019       	93.473175      	93.496025      	93.693085      	93.85231       	94.09335       	
93.49861       	93.30976       	93.28842       	92.949326      	92.826836      	92.929985      	92.99207       	92.93898       	93.29593       	93.52238       	93.757744      	93.42668       	93.56217       	94.191734      	94.21993       	93.81539       	94.30122       	94.30387       	94.273056      	94.52754       	94.28366       	94.32079       	94.08524       	93.7611        	93.8117        	94.16882       	93.729774      	93.86253       	93.958336      	93.829346      	94.01558       	93.74748       	93.30633       	93.3211        	93.4914        	93.43262       	94.2826        	94.064285      	94.07392       	94.18441       	93.656944      	93.57762       	93.507904      	94.00741       	93.84112       	94.06962       	93.87038       	93.70228       	94.114914      	94.118416      	94.04058       	94.2963        	94.2091        	94.201164      	94.647835      	93.91113       	93.882904      	94.31934       	94.35969       	93.75469       	94.03834       	94.389854      	93.95216       	94.072784      	94.44174       	94.05262       	94.08066       	94.504265      	94.197495      	94.60062       	94.87508       	94.85481       	95.04826       	95.09578       	94.80779       	94.65181       	93.74971       	93.892265      	93.9869        	93.64181       	93.79131       	93.86402       	93.69756       	94.00293       	94.045425      	93.96305       	93.50024       	94.10627       	93.98552       	93.93755       	93.41792       	93.55327       	93.82614       	93.95445       	94.11479       	93.831505      	94.077896      	94.01388       	93.92111       	93.97092       	
93.6779        	94.29687       	94.20147       	94.062         	93.92163       	94.41847       	93.70093       	94.23199       	94.29695       	94.35405       	93.66603       	94.173744      	94.40871       	93.83576       	93.76085       	94.063065      	93.54564       	93.62682       	93.871704      	93.87006       	93.38075       	93.799286      	94.27501       	94.1842        	94.33865       	93.90028       	94.3097        	93.93318       	93.606026      	93.72152       	94.28045       	93.819984      	93.56894       	94.07773       	93.63895       	93.417465      	93.77292       	93.66658       	93.689735      	93.52474       	93.70454       	94.02376       	93.42892       	93.05938       	93.58743       	93.97351       	93.68184       	93.55372       	93.50398       	93.70414       	94.02794       	94.22316       	93.72954       	93.72283       	94.124825      	93.517715      	93.981575      	93.511734      	94.22135       	94.179115      	94.17144       	93.66882       	93.97647       	93.816246      	93.65097       	94.17184       	94.27156       	93.892586      	94.1879        	94.4397        	94.348564      	94.45455       	94.28345       	94.81801       	94.87322       	94.64685       	94.16658       	94.09086       	93.38622       	93.58363       	94.17159       	94.04076       	94.012535      	93.54174       	93.685104      	93.1484        	93.27641       	93.426674      	92.95412       	93.551384      	93.32204       	93.12951       	93.52078       	93.39677       	93.78662       	93.97358       	93.31805       	93.10161       	93.20024       	93.31433       	
93.569244      	93.34107       	93.333855      	93.189415      	93.614136      	93.97465       	93.553505      	93.66561       	94.183556      	94.00943       	93.962906      	94.49313       	94.75695       	94.43977       	94.3008        	94.26228       	94.44134       	94.10637       	93.791954      	93.47238       	93.00925       	93.287895      	93.67468       	93.95954       	93.71095       	93.49869       	93.75431       	93.44792       	93.31719       	93.58069       	93.71447       	93.82582       	93.81282       	93.98969       	93.64169       	94.01701       	93.96521       	94.05188       	94.33012       	94.57454       	94.20403       	94.40698       	94.04053       	93.84096       	94.13876       	93.95141       	93.780365      	93.93002       	93.64845       	93.6801        	93.42718       	93.25788       	93.623856      	93.618515      	93.20413       	93.78863       	94.128944      	94.28108       	94.51176       	93.829384      	94.34783       	94.38001       	94.40136       	94.927376      	94.80791       	94.43517       	94.39265       	94.37047       	94.50109       	94.40975       	94.68903       	94.44559       	94.36467       	94.40935       	94.642586      	93.82924       	93.6219        	93.37243       	92.892         	92.810394      	93.05273       	93.148315      	93.547516      	93.45473       	93.80481       	93.925705      	93.638306      	93.102455      	93.20272       	93.32103       	92.61435       	92.76755       	93.252335      	93.012436      	93.025475      	93.191635      	93.097         	93.20018       	93.35298       	93.55941       	
93.44367       	93.88436       	94.05213       	94.09345       	94.16566       	93.907524      	93.700195      	93.54405       	93.048584      	93.23942       	93.33203       	93.008125      	93.48717       	93.51555       	93.46657       	93.46651       	93.75754       	93.03093       	92.99162       	93.64339       	93.742584      	93.61022       	93.99736       	93.85106       	94.06433       	93.836555      	93.66573       	94.23713       	93.73324       	93.90939       	93.49414       	93.00661       	93.22823       	93.13203       	93.462944      	93.84115       	93.97743       	94.125656      	93.84335       	93.884895      	94.31585       	94.17221       	94.217926      	94.2476        	94.71856       	94.29232       	93.79419       	94.06098       	93.55127       	93.71781       	94.03793       	94.08758       	94.18498       	93.8529        	93.865776      	93.6706        	93.18016       	92.84627       	93.15453       	93.49163       	93.52347       	93.49313       	93.638374      	93.48612       	93.705574      	93.48488       	93.31642       	93.803795      	93.81506       	93.243866      	94.19067       	94.33574       	94.05679       	94.394745      	94.41391       	94.180786      	93.781906      	93.51311       	93.449135      	93.238976      	93.247314      	92.95861       	93.06002       	92.82837       	93.37727       	93.359146      	93.18648       	93.11358       	93.213974      	93.41651       	93.33707       	93.57589       	93.462364      	93.72567       	93.62731       	93.40134       	93.47526       	93.58852       	93.74953       	93.917046      	
93.372765      	93.12416       	93.290596      	92.9909        	92.995735      	93.35364       	93.411285      	93.507866      	93.86321       	93.80844       	93.97812       	93.89261       	93.945694      	94.65409       	94.18466       	93.8709        	94.4591        	93.9832        	93.63492       	93.619545      	93.42657       	93.22403       	93.65947       	93.66043       	93.589424      	93.48544       	93.85167       	93.56071       	93.89778       	93.77613       	94.03696       	94.71248       	94.463394      	94.13663       	93.98527       	93.6256        	93.713615      	93.34554       	93.81336       	93.40511       	94.10257       	94.101845      	94.10428       	93.98675       	93.660385      	92.94447       	93.15991       	92.803764      	93.09671       	93.5348        	93.58517       	94.22464       	94.14364       	93.92143       	93.94482       	93.79186       	93.91944       	94.066666      	94.122345      	93.66077       	93.739716      	93.82524       	93.95013       	93.8933        	93.99138       	93.63115       	94.06507       	93.85438       	93.51578       	94.2248        	94.26865       	94.52077       	94.34102       	94.16446       	94.09608       	94.09991       	94.120964      	94.10452       	93.84981       	93.49406       	93.31042       	93.599785      	93.38036       	92.93787       	93.384735      	93.62304       	93.41055       	93.28194       	93.28801       	92.851036      	93.00655       	93.252266      	93.1047        	93.43133       	93.37557       	93.56493       	93.40296       	93.507065      	93.394424      	93.19599       	
93.772896      	93.99437       	93.69722       	93.90584       	94.68709       	94.56237       	93.94384       	93.733025      	93.37919       	94.313644      	94.02559       	93.53639       	93.762         	93.93594       	93.5298        	93.70684       	94.322395      	94.19908       	94.12249       	93.79567       	94.04015       	93.67235       	93.393555      	93.28581       	93.99295       	93.44725       	93.60887       	93.619156      	93.6212        	93.178055      	93.41117       	93.36331       	93.333725      	93.241905      	93.38538       	93.561714      	93.75789       	93.521194      	94.02657       	94.0891        	93.66806       	93.533485      	93.152336      	92.81125       	93.28052       	93.51696       	93.148796      	92.573555      	92.306206      	92.08632       	91.7851        	92.209946      	93.00471       	93.1757        	93.46318       	93.51913       	94.030365      	93.96097       	93.63317       	93.6254        	93.98736       	93.33118       	93.978065      	93.904526      	94.17433       	93.875595      	93.750854      	93.42709       	93.365776      	94.1132        	93.468834      	93.796646      	93.86532       	94.16828       	94.03817       	94.04428       	93.49349       	94.00343       	93.38053       	93.50524       	93.29996       	93.86718       	93.13106       	92.97327       	93.55889       	93.56037       	93.36707       	93.55724       	93.547844      	93.10051       	93.33934       	93.291916      	93.21475       	93.50826       	93.54754       	93.85055       	93.72746       	93.92258       	94.00655       	93.91614       	
93.208855      	93.8532        	93.442314      	94.1117        	93.903145      	93.87915       	94.595         	94.147         	93.65625       	94.2278        	93.97794       	93.608795      	93.92052       	93.70439       	93.62619       	93.93995       	93.49166       	92.95955       	93.77697       	93.84425       	93.67859       	93.922935      	93.86337       	93.795784      	94.18421       	93.95572       	94.28134       	94.39592       	93.96821       	93.947945      	94.30534       	93.9135        	93.636955      	94.42026       	94.71223       	94.383095      	94.54728       	94.22494       	93.83081       	94.15138       	94.045784      	93.62279       	93.82699       	93.674324      	93.63852       	93.87875       	93.78483       	93.31721       	94.06103       	93.90946       	93.8988        	93.75111       	94.53716       	94.58951       	94.53235       	93.97274       	94.752396      	94.475464      	93.94389       	94.38412       	94.28724       	93.554596      	93.33824       	93.72076       	93.86724       	94.019905      	94.30417       	94.26865       	94.68741       	94.76386       	94.61822       	94.49577       	94.04654       	94.26057       	94.64527       	94.67874       	94.52147       	93.74638       	93.89772       	93.93714       	93.47643       	93.2799        	93.340614      	93.8339        	93.18853       	93.300385      	93.5291        	93.287285      	93.40252       	93.92152       	93.80484       	93.34895       	93.65137       	93.68274       	93.62785       	93.410774      	93.286125      	93.49158       	93.49556       	93.76596       	
93.20334       	93.27723       	93.46384       	93.51531       	93.1234        	93.292114      	93.751884      	93.69411       	94.25538       	94.054855      	93.90864       	94.39034       	94.241005      	93.63949       	93.9409        	93.56852       	93.84152       	93.80143       	93.757965      	93.94038       	94.40101       	94.02245       	93.61255       	93.83895       	93.832565      	93.9536        	93.899765      	94.12765       	94.29367       	94.40622       	94.291466      	94.01489       	93.97663       	93.5746        	93.29349       	93.30617       	93.57472       	93.643555      	93.75972       	93.717415      	93.578125      	93.41359       	93.3615        	92.87378       	93.35838       	93.224236      	93.13342       	93.64796       	93.23799       	93.14794       	92.94991       	92.86028       	93.21746       	93.59276       	93.34185       	94.18415       	94.271904      	94.58096       	94.28083       	94.46321       	94.752335      	94.64224       	94.61116       	94.65146       	94.45367       	94.21566       	94.34512       	94.33031       	94.3675        	94.15136       	93.6711        	93.930466      	94.62039       	93.98343       	94.177605      	94.684746      	94.8626        	94.365036      	94.22466       	93.759964      	93.45228       	93.560425      	93.5134        	93.17447       	94.01057       	92.95314       	93.057365      	93.658806      	93.61877       	93.70253       	94.03812       	93.988106      	93.73477       	93.58509       	93.30004       	93.25118       	93.683975      	93.90043       	94.143524      	94.05773       	
93.94515       	93.88146       	93.73868       	93.77685       	93.69971       	93.52209       	93.44709       	93.5918        	93.843956      	93.549126      	93.77768       	93.38862       	93.422676      	93.42607       	93.53349       	93.492584      	93.30462       	93.336716      	93.639656      	93.84571       	93.22217       	93.13748       	93.382286      	94.10389       	93.95643       	94.34291       	94.32279       	94.37294       	94.19968       	94.11175       	93.38901       	93.42532       	93.12025       	92.6477        	92.73104       	92.71699       	92.74915       	92.93086       	93.09279       	92.65747       	92.93654       	93.15364       	93.0184        	93.47123       	93.17237       	92.677246      	93.4008        	93.69646       	92.92892       	92.59903       	92.87629       	92.83861       	93.582855      	93.847115      	93.86551       	93.916985      	93.50984       	93.68307       	93.35063       	93.78439       	93.770706      	94.01923       	93.949814      	94.088         	93.81883       	94.2733        	94.099075      	94.22664       	93.89876       	94.009155      	94.20451       	94.11954       	94.09462       	94.37193       	94.58659       	94.408134      	94.28918       	94.102455      	93.250786      	93.17386       	92.837364      	92.96884       	93.043655      	93.26848       	93.51644       	93.584755      	93.89574       	93.62959       	93.78552       	93.93959       	93.50753       	93.49498       	93.48662       	93.770996      	93.752945      	93.81281       	93.746254      	93.88872       	94.01617       	94.09961       	
92.86716       	92.922844      	93.30237       	93.47636       	93.612076      	93.78612       	94.27828       	94.1593        	93.84684       	94.14456       	94.29395       	94.116         	94.386665      	94.03543       	93.97506       	94.52325       	93.74486       	93.95057       	94.77815       	94.45639       	94.358025      	95.05062       	94.65206       	94.53875       	94.770515      	94.3424        	94.36461       	93.81346       	93.88355       	94.22222       	93.94113       	93.94563       	94.27294       	93.87515       	93.83302       	93.95135       	94.17699       	93.39734       	93.771835      	93.66272       	93.48763       	93.36658       	93.40495       	93.19409       	92.75953       	92.46632       	92.88022       	92.75602       	92.701294      	92.938         	93.81434       	93.36446       	93.52098       	93.59572       	93.78505       	94.08298       	94.13803       	94.21427       	93.99943       	94.29223       	93.76191       	93.862885      	93.604965      	93.29035       	93.6159        	93.56951       	93.41487       	93.76742       	93.5337        	93.87359       	93.798874      	93.60319       	94.10434       	94.268         	94.016594      	94.25959       	94.20765       	93.55167       	93.6792        	93.10416       	93.01537       	93.249825      	93.24423       	93.08514       	93.07153       	93.275955      	93.38219       	93.76488       	93.88182       	94.06729       	93.92867       	94.11007       	93.79157       	93.79008       	93.9392        	94.04926       	93.934525      	93.63268       	93.539024      	93.534805      	
94.15438       	93.772705      	93.75244       	93.99366       	93.975426      	94.25773       	93.95447       	93.6516        	93.805374      	93.35451       	93.51181       	94.02999       	94.09579       	93.9815        	94.38162       	94.24277       	94.3012        	94.189125      	94.49189       	94.31004       	94.35523       	94.34529       	93.95328       	93.28737       	92.83662       	93.16012       	93.5341        	92.91605       	92.978874      	93.40027       	93.39517       	93.27443       	93.64051       	93.34392       	93.37682       	93.80736       	93.85762       	93.79158       	93.43204       	93.6703        	93.48095       	93.47761       	93.451454      	93.04516       	93.12926       	93.45952       	93.68864       	93.90316       	93.921555      	93.56624       	93.43771       	93.303986      	93.30542       	94.43952       	94.56539       	94.65075       	94.438614      	94.16765       	94.4973        	94.57069       	94.18373       	94.24744       	94.691986      	94.51392       	94.12038       	94.26481       	94.52802       	93.82584       	93.86873       	93.945244      	93.82099       	94.51539       	94.49759       	94.582306      	94.714874      	94.67554       	94.861855      	95.17311       	94.5487        	93.74977       	93.80884       	94.130806      	94.169685      	93.42995       	93.53059       	93.64898       	93.52874       	93.60819       	93.55082       	93.79865       	93.57909       	94.101364      	94.17711       	93.653305      	93.50274       	93.57704       	93.35057       	93.74422       	93.79149       	93.760994      	
94.47909       	94.6827        	94.45027       	94.32108       	94.20478       	94.33212       	93.77513       	94.39076       	94.18952       	94.11777       	94.68506       	94.732086      	94.42838       	94.11836       	94.19304       	94.65665       	94.66858       	93.81383       	93.47697       	93.57696       	93.157524      	93.23653       	93.58466       	93.125435      	92.97404       	93.70189       	93.531746      	93.56219       	93.658844      	93.508316      	93.297295      	93.69095       	93.76115       	93.823784      	93.45898       	93.236465      	93.33939       	93.38726       	93.19435       	93.06881       	93.45395       	93.250984      	92.88841       	92.89074       	92.87833       	93.27528       	93.12406       	93.075         	93.03451       	92.85716       	92.51446       	92.9295        	93.26466       	93.51103       	93.870255      	94.06883       	93.44516       	93.86129       	93.82174       	93.78476       	93.62581       	93.55889       	93.892815      	93.670586      	93.728386      	93.69425       	94.06571       	93.49475       	93.86282       	93.99235       	93.553024      	93.31554       	93.601456      	93.8759        	94.06569       	93.89005       	94.42329       	94.06637       	93.66137       	93.39436       	93.43554       	93.67026       	93.49682       	93.07455       	93.14332       	93.02725       	93.11838       	93.316154      	93.46075       	93.585785      	93.194         	92.96884       	93.275505      	93.608765      	93.18335       	93.36723       	93.55095       	93.81351       	93.784805      	93.848335      	
93.834755      	93.4853        	93.18973       	93.856865      	93.79558       	93.78401       	93.5772        	94.080696      	93.643486      	93.81303       	94.36686       	94.090004      	94.04483       	94.28914       	94.382065      	94.027084      	93.33564       	92.785515      	92.72777       	92.85981       	93.0981        	93.360916      	93.11683       	92.59623       	93.09972       	93.66691       	93.359085      	93.61008       	93.47053       	93.1035        	92.84158       	92.71392       	93.61968       	93.49211       	93.17241       	93.79534       	93.39488       	93.156654      	93.04262       	93.023186      	92.81044       	92.571335      	92.50872       	92.85047       	92.46813       	92.40114       	93.09969       	92.6512        	92.598434      	92.45447       	92.498085      	92.37053       	92.83345       	93.23543       	93.24068       	93.81767       	93.74129       	93.70147       	93.888054      	93.95512       	94.052444      	94.217445      	93.934364      	94.21989       	94.25363       	94.14776       	94.09472       	93.72609       	93.6643        	93.8451        	93.9432        	94.20771       	94.33992       	94.24255       	94.224625      	94.83727       	94.629555      	94.500275      	93.95406       	93.677826      	93.89716       	93.90821       	93.89452       	93.373344      	93.35592       	93.65564       	93.734344      	93.37257       	93.31618       	93.67099       	93.895996      	93.3853        	93.40077       	93.5508        	93.822296      	93.467926      	93.322334      	93.45091       	93.503265      	93.44214       	
94.38262       	94.46506       	94.06841       	94.125946      	94.44655       	94.161415      	93.94343       	94.01238       	94.31159       	93.83757       	94.12892       	93.9515        	94.27991       	93.93119       	93.86301       	93.48837       	93.049065      	93.07929       	92.89902       	92.9974        	93.45703       	93.00202       	93.04466       	92.85527       	93.05466       	93.41532       	93.26119       	93.25114       	93.51348       	93.8784        	93.248985      	93.05783       	93.26163       	93.06055       	93.04487       	92.24547       	92.599556      	92.6148        	92.96322       	93.0177        	93.3087        	93.32165       	93.33632       	93.18808       	93.55677       	93.7119        	93.44616       	93.166306      	93.225296      	93.38116       	93.225296      	93.191666      	93.20332       	93.32979       	94.147545      	94.49959       	94.1797        	94.01511       	93.75798       	93.77823       	93.74447       	93.9974        	94.24979       	94.25639       	94.23707       	94.28499       	94.02162       	94.12041       	94.46098       	94.05884       	94.662346      	94.83773       	94.44488       	93.81543       	94.75023       	93.98891       	93.886246      	93.9684        	93.58834       	93.25028       	93.092705      	92.76786       	92.99034       	93.03487       	93.10068       	93.44364       	93.601524      	93.138336      	93.619576      	93.92378       	93.4288        	93.40522       	93.297966      	93.11622       	93.08885       	92.96184       	93.11114       	93.23026       	93.35579       	93.11841       	
93.9445        	94.732544      	94.56723       	94.15531       	94.42326       	94.44681       	94.01717       	94.14973       	93.7483        	93.82824       	94.10499       	94.20173       	94.47769       	94.231476      	93.738266      	94.090546      	94.038246      	93.543076      	93.63156       	93.61279       	93.01041       	93.15882       	93.213936      	92.847664      	93.4465        	93.38701       	93.49281       	93.54309       	93.27432       	93.29056       	93.415695      	93.12846       	92.89113       	93.182724      	93.413765      	92.50997       	92.93005       	92.962906      	92.71479       	92.77689       	92.79274       	93.16373       	93.03179       	92.86823       	93.43603       	93.47846       	92.816666      	93.223465      	93.01644       	93.40469       	93.49361       	93.53519       	93.52616       	93.607         	93.96952       	94.19411       	93.85047       	93.453964      	93.43258       	93.98498       	93.90943       	93.23607       	93.52347       	93.9095        	93.979935      	93.518906      	93.828896      	93.80465       	93.38715       	93.759636      	93.88703       	93.89812       	94.01739       	94.42317       	94.386826      	94.26043       	94.73744       	94.78111       	94.737274      	94.70153       	94.52754       	94.27306       	93.66861       	94.06744       	94.05545       	94.01427       	93.45717       	93.82463       	93.994064      	93.99047       	93.651245      	93.874725      	94.189995      	93.97049       	93.77467       	94.051895      	94.31489       	94.192245      	94.22343       	94.14865       	
93.922615      	93.4214        	93.790405      	94.18574       	94.31434       	94.2363        	93.710625      	93.85096       	94.00495       	93.584595      	93.83553       	93.453766      	93.29819       	93.91672       	94.54674       	94.03673       	93.63794       	93.805305      	93.28569       	93.23009       	93.04921       	92.8536        	92.91043       	92.91926       	92.86822       	93.20558       	92.98527       	92.83524       	93.15377       	93.163536      	92.85104       	92.51327       	92.9345        	93.27103       	93.445595      	93.41883       	93.0867        	93.09654       	93.243744      	93.186714      	93.70703       	93.25016       	93.501015      	93.43848       	93.22855       	93.24187       	93.28207       	93.712326      	93.40913       	93.40299       	93.203094      	92.778854      	93.218376      	93.44245       	93.63915       	93.82197       	93.92818       	93.560295      	93.61698       	93.725174      	94.02227       	94.28178       	94.07619       	93.754         	94.02051       	94.022514      	93.70584       	93.558624      	93.52989       	93.53267       	93.947105      	93.79184       	93.70837       	93.90348       	94.048096      	94.01202       	94.125114      	94.496445      	94.3528        	94.17561       	93.8262        	93.59448       	93.39746       	93.239716      	93.19206       	93.2211        	93.30248       	93.552826      	93.94865       	93.65443       	93.97421       	93.759964      	93.53932       	93.361336      	93.21561       	93.14957       	93.17559       	93.29171       	93.30057       	93.40563       	
94.05722       	94.52404       	94.01285       	93.80234       	93.405655      	93.63179       	94.02211       	93.65451       	93.18281       	93.80782       	94.190704      	94.20755       	94.07226       	94.48488       	94.63301       	93.675606      	93.65873       	93.2618        	93.148285      	93.04997       	93.41826       	93.430786      	93.5           	93.85823       	93.92943       	93.35943       	93.769196      	93.94496       	94.2966        	94.43466       	94.202866      	94.2044        	93.867294      	93.34221       	93.826004      	93.82462       	93.399155      	93.12683       	93.48885       	93.03072       	93.101524      	92.99788       	93.57881       	93.50076       	93.61682       	93.96156       	93.78358       	93.13056       	92.73489       	92.87691       	92.924644      	92.7588        	92.99649       	93.286606      	93.93523       	94.49711       	94.31674       	94.28295       	93.71818       	93.82002       	93.88799       	94.22869       	94.29505       	93.90125       	93.84022       	93.69933       	94.157646      	94.287674      	93.684944      	93.56604       	94.09506       	93.901085      	93.96899       	94.10787       	94.121956      	93.70129       	93.69057       	94.168365      	94.60877       	93.782074      	93.41012       	93.81059       	93.90482       	93.93135       	93.89477       	93.63732       	93.291626      	93.63703       	93.909004      	93.5909        	93.665825      	94.08849       	93.830635      	94.24723       	93.799545      	93.5113        	93.141685      	93.20006       	93.28932       	93.342705      	
93.82802       	93.52169       	93.42309       	93.07768       	92.40862       	93.15686       	93.344955      	93.41823       	93.43643       	93.35047       	93.47078       	93.93411       	93.68488       	93.57521       	93.76435       	93.87451       	93.897934      	93.786         	93.01878       	92.69186       	92.85643       	92.9172        	93.25847       	93.32665       	93.19698       	93.171585      	93.48543       	93.683105      	93.38209       	93.579834      	93.45812       	93.2715        	92.92738       	93.458305      	93.6578        	93.439316      	93.04635       	93.33199       	93.59035       	93.40526       	92.89998       	93.347         	93.424385      	93.71781       	93.49846       	93.788246      	93.40193       	93.49902       	93.11679       	93.31855       	93.009605      	92.91102       	92.949905      	93.38708       	93.10113       	93.0367        	94.07985       	93.738716      	93.73597       	94.055176      	93.611984      	93.90077       	94.24681       	94.266754      	94.17253       	93.95305       	94.126434      	94.613785      	94.00755       	93.4883        	93.60339       	94.00544       	93.974106      	93.56636       	94.0618        	93.99487       	93.9099        	93.88077       	94.626465      	93.86783       	94.360405      	94.213905      	94.05384       	93.54327       	93.42296       	93.34352       	93.384674      	92.93055       	93.11633       	93.172295      	93.471306      	93.67895       	93.72465       	93.50087       	94.058014      	93.60201       	93.43033       	93.41722       	93.61597       	93.83406       	
93.83051       	93.74986       	94.06479       	94.08338       	94.21184       	94.38079       	94.14554       	94.00102       	93.9227        	93.841255      	93.97907       	94.233284      	93.666466      	94.079865      	94.71844       	94.99608       	94.6993        	94.3746        	93.66228       	94.16082       	94.30798       	94.267914      	94.23096       	94.13439       	93.55834       	93.56274       	93.68678       	93.50227       	93.76151       	93.62178       	93.34315       	93.611244      	93.45934       	93.30999       	93.63484       	93.55823       	93.23764       	93.11368       	93.20531       	93.60986       	93.427086      	93.45108       	92.84839       	92.87389       	93.28023       	93.413284      	93.54001       	93.38763       	92.90837       	93.43119       	93.4917        	93.12333       	93.015366      	93.37635       	93.42052       	94.176704      	93.93384       	93.51692       	93.813545      	93.56068       	94.06943       	93.785934      	93.50843       	93.922516      	94.136635      	94.0099        	94.238174      	94.41557       	94.09325       	93.73889       	93.86288       	94.12116       	94.19425       	93.55046       	94.193596      	94.15063       	93.86726       	93.57417       	93.77412       	93.751465      	93.48592       	93.52279       	93.37387       	93.1357        	93.10666       	93.144585      	93.41032       	93.272964      	93.17634       	93.13008       	93.11253       	93.49828       	93.49838       	93.76624       	93.26016       	93.664505      	93.61484       	94.134926      	94.158485      	93.96547       	
93.62887       	94.38299       	94.35878       	93.83365       	94.09616       	93.94664       	93.90024       	94.12025       	94.497475      	93.92406       	93.92408       	94.404594      	93.86669       	94.47674       	94.35235       	94.07101       	93.55351       	92.87727       	93.7437        	93.587         	93.143486      	93.4353        	93.1743        	93.550545      	93.7177        	93.16736       	92.85943       	93.43684       	93.75516       	93.575775      	93.119804      	92.924675      	93.53581       	93.43717       	93.051056      	93.28495       	93.19029       	93.00599       	93.1209        	93.16098       	93.23268       	93.321526      	93.00923       	93.140366      	93.423355      	93.61694       	93.238754      	93.37892       	93.50148       	93.11214       	93.054825      	93.0889        	93.12786       	93.435616      	93.62312       	93.55102       	94.00952       	93.47497       	93.438194      	93.28106       	93.098404      	93.21554       	93.26884       	92.81056       	92.86183       	93.20923       	93.050835      	92.76665       	92.88956       	92.85875       	93.255455      	93.65655       	93.67294       	93.681114      	93.82964       	92.900566      	92.99334       	93.35805       	93.645454      	93.627884      	93.700005      	93.25333       	93.32818       	92.94402       	93.09421       	93.07865       	93.24555       	93.62805       	93.492325      	93.486626      	93.34898       	93.15132       	93.637115      	93.601494      	93.391815      	93.421234      	93.35616       	93.67334       	93.705185      	93.33178       	
94.28275       	93.76451       	93.68289       	93.80952       	93.84508       	93.88302       	93.27003       	93.55387       	93.68727       	93.511665      	93.97348       	94.1606        	94.12106       	94.12941       	94.19575       	94.88504       	94.121796      	93.99623       	93.69516       	93.34295       	93.7986        	94.04668       	93.9262        	93.97322       	93.870445      	93.831474      	94.07438       	93.885544      	94.03952       	93.990555      	94.3809        	94.251656      	94.131485      	93.9067        	93.49498       	93.82811       	94.063484      	93.71302       	93.50996       	93.88831       	93.62253       	93.80318       	93.77935       	93.49769       	93.315186      	93.19457       	92.93851       	93.07238       	93.1558        	92.73357       	92.6851        	92.923546      	92.51885       	92.3919        	92.97228       	93.21014       	93.56939       	93.574394      	93.39355       	93.55798       	93.395676      	93.432846      	93.30054       	93.67643       	93.56356       	93.39985       	93.75225       	93.330605      	93.98987       	93.769646      	93.415535      	93.57804       	93.57378       	93.54229       	93.39552       	93.70967       	93.25823       	92.918976      	93.50301       	93.46046       	93.07991       	92.70954       	93.07218       	93.23371       	92.81813       	93.34872       	93.275826      	92.974815      	93.38953       	93.64427       	93.21449       	93.25871       	93.32366       	93.30024       	93.53077       	93.544106      	93.43619       	93.19975       	93.43629       	93.758804      	
93.648476      	93.476845      	93.958725      	93.69008       	93.8528        	93.75678       	94.203896      	94.210205      	94.36202       	94.08006       	94.14777       	94.46919       	94.32734       	94.284904      	94.3344        	94.60838       	94.07982       	93.55701       	93.25278       	92.99291       	93.222664      	93.330025      	93.147125      	93.42455       	93.6461        	93.49301       	93.95424       	93.50839       	93.48017       	93.22686       	93.01209       	93.42036       	93.866714      	93.361946      	93.80446       	93.99874       	93.73661       	93.56152       	94.123856      	93.74023       	93.839554      	93.39906       	93.8833        	93.774216      	93.47896       	93.353134      	93.817986      	93.87013       	94.06788       	94.07134       	93.693985      	93.59281       	93.50858       	93.94092       	93.72893       	94.17086       	94.15503       	94.11119       	93.81719       	93.8221        	93.701225      	93.436104      	93.29334       	93.48237       	93.51784       	93.69999       	93.43431       	93.6186        	94.239746      	94.321846      	94.19563       	94.28743       	94.01906       	93.88313       	94.34213       	94.19624       	93.92321       	93.996216      	94.14552       	94.611885      	94.15222       	93.879486      	93.315765      	92.71382       	92.77132       	93.126305      	93.45525       	93.44935       	93.308754      	93.623764      	93.3645        	93.29544       	93.728226      	93.466965      	93.54516       	93.291306      	93.11349       	93.02758       	93.21274       	93.64391       	
93.61791       	93.67362       	93.9442        	93.80932       	94.050896      	94.14934       	94.24606       	93.9898        	94.03941       	94.19184       	94.22445       	94.30469       	94.471245      	94.7561        	94.72884       	94.54268       	94.51681       	94.40394       	94.03764       	93.99449       	94.0525        	93.46978       	93.61889       	93.60693       	93.735504      	93.36588       	93.37261       	93.77962       	93.58096       	94.05326       	93.56668       	93.945595      	93.26591       	93.37284       	93.724884      	94.01473       	94.181305      	93.962         	93.52544       	93.19367       	93.28905       	93.76107       	94.052444      	93.54011       	93.39624       	93.26765       	93.31604       	93.25971       	93.13311       	93.221         	92.97835       	92.715866      	93.05082       	93.19736       	93.29853       	93.16718       	93.54597       	94.1754        	94.06204       	94.299614      	94.17944       	93.61182       	93.78979       	94.03787       	93.748764      	93.769684      	94.04704       	93.806145      	93.83332       	93.85301       	93.89608       	93.53018       	93.67468       	93.90109       	93.783165      	94.2426        	93.89639       	94.196815      	94.61087       	94.464035      	93.70912       	93.53805       	93.217026      	92.89396       	92.59455       	93.03459       	93.41607       	93.443085      	93.448616      	93.529976      	93.818695      	93.85041       	93.43776       	93.594696      	93.788315      	93.832954      	93.822014      	94.07101       	93.996216      	93.98553       	
93.759575      	93.73516       	93.441635      	93.93224       	93.85739       	94.209         	94.43804       	94.02577       	94.09334       	94.084015      	94.26554       	94.085724      	94.075325      	94.164185      	94.06513       	94.412346      	94.580414      	94.303604      	93.97974       	93.843864      	94.14481       	94.042534      	93.43005       	94.000534      	93.6591        	93.72049       	93.569244      	93.707504      	93.395256      	93.18326       	93.34421       	93.07885       	93.079155      	93.8013        	93.58864       	93.33275       	93.803825      	93.60795       	93.254425      	93.26046       	93.38729       	93.67675       	93.81524       	93.74597       	93.67486       	93.48858       	93.948326      	93.80249       	93.89294       	93.93595       	94.02589       	93.451584      	93.3826        	93.25732       	92.884895      	93.19193       	93.402626      	93.447586      	93.56429       	93.45809       	93.18568       	93.30286       	93.52759       	93.59606       	93.615654      	93.57443       	93.253525      	93.57311       	93.34705       	93.514725      	93.83009       	93.96773       	93.52879       	93.62733       	93.85201       	94.058685      	94.26782       	94.0264        	94.14936       	94.40134       	94.08902       	93.67791       	93.90833       	93.72778       	93.08204       	93.403915      	93.59508       	93.59142       	93.08764       	93.19279       	92.914276      	93.43221       	93.54367       	93.70052       	93.664955      	93.67379       	93.44519       	93.43546       	93.58772       	93.68705       	
93.78879       	93.92427       	94.13907       	94.08827       	94.24027       	94.06444       	93.61103       	93.90568       	93.5096        	93.69426       	93.42817       	93.754364      	93.985054      	94.3768        	93.878624      	94.116005      	93.980354      	93.68929       	93.455696      	93.337296      	93.38236       	93.05684       	93.08353       	93.35719       	93.10697       	93.24627       	93.50028       	93.678955      	93.503136      	93.65369       	93.10418       	93.21986       	93.78658       	93.96013       	93.740105      	93.75098       	93.59322       	94.06837       	94.2269        	94.18168       	93.55602       	93.94256       	93.52588       	93.38576       	93.58226       	92.766754      	92.96192       	93.36236       	92.728645      	92.57258       	93.48527       	93.45429       	92.49981       	92.81169       	93.32116       	93.33571       	93.49809       	93.57675       	93.883675      	94.200005      	93.665474      	93.909805      	94.067085      	93.91562       	94.04768       	94.47912       	94.176315      	93.74283       	94.37956       	94.0287        	93.66281       	93.70866       	93.93835       	94.073784      	93.58621       	93.759125      	93.8788        	94.43136       	94.45885       	94.63608       	94.600914      	94.118774      	93.423904      	93.58592       	92.83873       	93.215775      	93.287315      	93.51344       	93.37847       	93.48927       	93.04663       	93.66398       	93.78          	93.43598       	93.274254      	93.78385       	93.86728       	93.53746       	93.66188       	93.78842       	
93.44563       	93.98351       	93.89523       	94.184944      	94.23332       	94.57325       	94.44474       	94.51269       	94.384575      	94.50973       	93.894005      	93.83312       	94.35896       	94.45848       	94.493965      	94.58187       	95.00496       	94.52483       	94.25988       	93.99118       	93.9121        	94.380035      	94.15937       	94.15711       	93.82866       	93.82387       	93.26741       	93.47476       	93.45537       	93.216644      	92.926956      	92.83068       	93.17102       	93.2106        	93.221405      	93.360504      	93.05357       	93.098404      	93.67811       	93.23284       	92.99633       	93.364204      	93.07752       	93.03535       	93.33257       	92.5719        	92.72161       	92.977005      	93.01802       	93.18083       	93.0525        	92.83142       	92.51738       	92.71171       	92.981155      	93.196526      	93.72779       	94.194176      	94.370476      	94.256096      	94.15036       	93.791916      	94.04404       	94.060905      	93.96352       	94.258514      	94.16235       	93.69882       	94.19736       	94.30728       	94.14099       	94.56784       	94.72106       	95.010666      	94.94927       	94.365974      	94.3995        	94.97163       	95.01823       	94.33676       	95.08171       	94.36471       	94.24853       	94.51587       	94.24609       	93.79163       	93.68304       	93.47558       	93.562225      	93.5359        	93.09572       	92.99931       	93.49901       	93.766         	93.60329       	93.96235       	93.932014      	93.79143       	93.548134      	93.48567       	
93.66983       	94.25847       	94.06898       	94.228874      	94.48239       	94.23539       	94.1975        	94.32675       	94.10367       	94.14791       	94.12139       	93.79745       	94.09201       	94.22096       	94.19799       	94.37703       	94.27539       	94.0456        	93.555664      	93.53512       	92.82238       	92.76106       	93.39131       	92.83623       	92.63734       	93.16129       	93.06023       	92.998375      	92.93564       	93.01587       	93.02177       	93.13824       	93.09543       	93.51298       	94.03329       	93.20004       	92.7591        	92.837456      	93.35396       	93.29199       	93.430466      	93.429436      	93.343735      	92.68087       	92.763466      	93.479744      	93.15754       	93.25243       	93.431625      	93.454185      	93.7945        	94.08735       	93.59399       	93.056564      	93.13712       	93.24981       	93.651436      	93.58789       	93.67569       	93.80826       	93.739136      	93.59779       	93.52056       	93.678215      	93.68389       	93.80466       	93.5157        	94.057976      	94.15658       	94.171745      	94.392105      	93.93719       	93.20694       	93.53792       	93.64481       	93.93021       	94.05358       	94.21618       	94.58379       	94.60262       	94.23322       	94.02702       	93.3189        	92.9276        	93.029434      	93.36882       	93.22836       	92.87524       	93.110214      	92.71962       	93.25464       	93.28817       	93.28586       	93.35054       	93.05047       	92.911545      	93.263336      	93.84676       	94.150635      	94.08215       	
93.61205       	93.55296       	93.37768       	93.59388       	93.503624      	93.73872       	93.39781       	93.788216      	93.93396       	94.09065       	94.142746      	93.99634       	94.21066       	94.188774      	93.43956       	93.80427       	94.167274      	94.06233       	93.47042       	93.43099       	93.00752       	92.926186      	93.73642       	93.95361       	93.80773       	93.542496      	93.51983       	94.0249        	94.20207       	93.88449       	93.80904       	94.04131       	93.50839       	93.05958       	93.58228       	93.35534       	93.517075      	93.50642       	93.013176      	93.35814       	93.711784      	93.13013       	93.42187       	93.434326      	93.463066      	92.88379       	93.154175      	92.78079       	92.9413        	93.13207       	93.19626       	93.10974       	93.066315      	92.609985      	92.5746        	93.025185      	92.99374       	93.521194      	94.31402       	94.32386       	93.86506       	94.07359       	94.05113       	93.649155      	93.99199       	94.16634       	94.098145      	94.020966      	93.9187        	93.66072       	93.822754      	94.097046      	94.46485       	94.82324       	94.49805       	94.0004        	94.04973       	94.607086      	94.963326      	94.87036       	95.11626       	94.914024      	94.37199       	93.87081       	94.17514       	94.10641       	93.706795      	93.60946       	93.88563       	93.568695      	93.68068       	93.82443       	93.66443       	93.793106      	93.820854      	93.95223       	93.95039       	94.02086       	93.96861       	93.977104      	
94.14193       	94.125336      	93.80555       	94.51851       	94.732         	94.21997       	94.45314       	94.62247       	94.29227       	94.08693       	94.41664       	94.36792       	94.13648       	93.86145       	94.47972       	94.100815      	94.564285      	95.07987       	94.4453        	94.10054       	94.30525       	93.88486       	93.53777       	93.24887       	93.64912       	93.9593        	93.83794       	93.65858       	93.61073       	94.09167       	93.578735      	93.759964      	93.69927       	93.45984       	93.467964      	93.34703       	93.27356       	93.236404      	93.569695      	93.56719       	93.9932        	93.275955      	93.552536      	93.7787        	93.641075      	93.78664       	93.56371       	93.685234      	93.57762       	93.54902       	93.67501       	93.565186      	93.40077       	93.307236      	93.28787       	93.01779       	93.21522       	93.801704      	93.51061       	93.42428       	93.83979       	93.84936       	94.331345      	94.13037       	93.964386      	93.90853       	94.19897       	94.06752       	93.73563       	93.76765       	93.4818        	93.64173       	94.237564      	93.66696       	94.104195      	94.12032       	93.27199       	92.82154       	93.50005       	93.400505      	93.46605       	94.03254       	93.513626      	93.59762       	93.56467       	92.74498       	92.857216      	92.83681       	92.77002       	92.77164       	93.49185       	92.969734      	93.07373       	93.417595      	93.56404       	93.725494      	93.545944      	93.44807       	93.31923       	93.25957       	
94.27668       	94.33939       	94.84946       	95.05926       	94.5819        	94.09587       	94.07483       	94.09047       	94.22708       	94.27264       	93.81412       	93.958244      	94.425         	94.38683       	93.81828       	94.24158       	94.08302       	93.94319       	94.13529       	93.52772       	93.62576       	93.44664       	93.283394      	92.99196       	93.056854      	93.32555       	93.33076       	93.78923       	93.153496      	93.56757       	93.46679       	93.61967       	93.94821       	93.75371       	93.64865       	93.886154      	93.89617       	93.7273        	93.660965      	93.21704       	93.52531       	93.36311       	93.188065      	93.42098       	93.17311       	93.0349        	93.13372       	92.69489       	92.59474       	92.44162       	93.04058       	92.51245       	92.724945      	92.68861       	92.65112       	92.68056       	92.980835      	92.391846      	93.18009       	93.122955      	93.284584      	93.25682       	93.129074      	92.77858       	92.94408       	93.00146       	93.10239       	93.28663       	92.88162       	92.88439       	93.2636        	93.03918       	93.238976      	93.73613       	93.473495      	93.30085       	94.16463       	93.70947       	94.21513       	94.36405       	93.72446       	93.96681       	94.01672       	93.49669       	93.16478       	93.32912       	92.82458       	92.54002       	92.59639       	92.99284       	93.70865       	93.40039       	92.85601       	93.264885      	93.7672        	93.05656       	93.10418       	93.572914      	93.80968       	93.76972       	
93.53781       	93.38316       	93.36332       	93.58597       	93.30065       	93.44554       	93.711624      	93.714836      	93.387886      	93.63089       	93.93095       	93.51643       	93.31799       	93.74737       	93.633835      	93.38349       	93.8197        	94.46966       	94.580894      	93.921684      	93.363884      	93.42064       	93.355484      	93.17221       	93.28972       	93.810905      	93.60857       	93.40495       	93.24226       	92.78861       	92.3616        	92.79724       	93.11571       	93.12446       	92.88671       	92.9435        	93.01461       	93.1634        	93.035194      	93.46941       	93.50612       	93.22369       	92.82567       	92.940956      	93.41118       	92.96322       	92.98136       	93.125824      	93.010025      	93.254395      	92.901215      	92.9194        	92.72957       	92.78647       	92.179146      	92.807335      	93.04513       	92.761765      	93.38135       	93.54574       	93.62732       	93.464836      	93.87833       	93.61975       	93.60607       	93.793495      	93.43038       	93.23259       	93.83753       	94.223595      	94.02123       	93.950966      	93.7504        	94.18954       	93.65673       	93.4443        	93.62032       	93.27275       	93.36956       	93.673996      	93.46032       	93.386894      	93.931114      	94.09144       	93.70094       	93.75102       	93.42473       	93.95384       	93.98852       	93.95979       	93.79872       	93.757126      	93.615814      	93.25491       	93.597         	93.778046      	93.40006       	93.34624       	93.57695       	93.62727       	
93.108         	93.47128       	93.542305      	93.85635       	94.21282       	94.02923       	94.21928       	93.81653       	93.551605      	93.56385       	93.54721       	93.5079        	93.39506       	93.576324      	93.4262        	93.33029       	93.293076      	93.69445       	93.65001       	93.451         	93.70446       	93.21842       	92.81462       	92.79267       	92.648506      	93.10519       	93.000084      	92.94593       	93.14389       	93.22107       	93.359184      	93.52143       	93.654976      	93.16132       	93.25262       	92.9904        	93.23885       	93.60542       	93.23982       	93.13121       	93.123764      	92.43749       	92.79431       	93.45257       	93.016396      	93.06902       	92.95417       	93.396454      	93.121216      	93.044136      	93.28686       	93.461655      	93.348564      	92.80179       	92.659615      	93.05175       	92.72291       	92.93981       	94.0725        	93.71485       	94.02563       	93.504585      	93.06141       	93.56266       	93.56609       	93.47372       	93.613884      	93.53388       	93.62364       	93.59383       	93.661865      	93.79676       	93.39123       	93.74218       	93.42652       	93.393555      	93.47319       	94.05112       	93.435135      	92.98984       	93.506676      	93.51953       	93.42268       	93.33819       	93.48249       	93.66501       	93.94705       	93.46269       	93.02455       	93.35579       	93.358795      	92.92147       	93.5266        	93.44614       	93.03344       	93.16577       	94.07769       	94.14111       	93.916534      	93.838455      	
93.692955      	93.82458       	93.550705      	93.48703       	93.71986       	93.93499       	94.09709       	94.44259       	94.220184      	94.07728       	94.02311       	94.11889       	93.96866       	94.1777        	93.83522       	94.51723       	94.82849       	94.65126       	94.78427       	94.51199       	93.895706      	93.78315       	93.24503       	93.04292       	93.40477       	93.510506      	93.33571       	93.63616       	93.228134      	93.0581        	93.69614       	94.18095       	93.99562       	94.126816      	94.566765      	94.53614       	94.2492        	94.54037       	94.49406       	94.15622       	93.85414       	93.85863       	93.39556       	93.39548       	93.7767        	94.094444      	94.17113       	93.95829       	94.19069       	94.22771       	93.870804      	93.42453       	94.06771       	93.812164      	93.54326       	93.71467       	93.57887       	93.50487       	93.6484        	93.70661       	94.00896       	94.00719       	93.86841       	93.837555      	93.867         	94.01875       	94.27231       	94.7124        	94.54573       	94.009285      	94.25228       	94.18837       	93.96626       	93.767876      	93.943         	93.56231       	94.07403       	94.21317       	93.85243       	94.22271       	93.77535       	93.88042       	94.26453       	94.37271       	94.454094      	94.32803       	94.2565        	93.81174       	93.832794      	93.776566      	93.91774       	94.3586        	94.4983        	93.713905      	93.70321       	93.89301       	93.88588       	93.7638        	93.603325      	93.8484        	
94.07406       	93.6663        	93.49442       	93.60332       	93.29534       	93.40347       	93.75546       	94.08613       	93.62008       	94.002144      	94.097275      	93.719955      	94.00115       	93.95159       	94.028534      	94.22147       	94.41755       	94.499985      	94.507095      	95.03361       	94.46712       	94.315674      	94.22567       	93.85265       	93.75908       	94.01238       	93.72118       	93.296005      	93.48182       	93.22686       	92.97228       	93.57637       	93.4266        	93.19983       	93.460655      	93.086624      	93.14583       	93.24694       	92.996284      	93.3053        	93.46357       	93.27154       	93.02249       	93.52082       	92.93255       	92.53483       	93.248215      	93.19567       	93.30871       	93.10347       	93.12331       	92.90502       	92.74297       	92.29436       	92.69774       	92.38071       	91.742546      	92.55348       	92.40303       	92.691444      	92.65363       	93.18715       	93.13513       	92.69355       	93.42769       	93.78342       	93.89804       	93.79227       	93.75549       	93.36856       	93.85055       	93.20732       	93.28451       	93.70775       	93.47081       	93.99773       	93.77839       	93.03726       	93.222694      	93.758545      	93.57952       	93.35791       	93.902794      	94.29264       	93.89405       	93.60412       	93.727036      	93.697105      	93.70241       	93.50475       	93.64413       	93.38956       	93.48909       	93.22861       	94.0501        	93.6587        	93.38864       	93.47031       	93.34544       	93.60835       	
93.4669        	93.45464       	93.28145       	93.774605      	93.82712       	93.88912       	93.363945      	93.77766       	94.01893       	93.98683       	94.06154       	94.19686       	94.28444       	94.29654       	94.32954       	94.52086       	94.7106        	94.676254      	94.946815      	94.95748       	94.2707        	93.90636       	93.97168       	93.42685       	93.387085      	93.72944       	93.683716      	93.54827       	93.79588       	93.61792       	93.67334       	93.59047       	93.441864      	94.23123       	94.488396      	94.22276       	93.990265      	94.57347       	93.98798       	93.85402       	93.64395       	93.63221       	93.36272       	93.719185      	93.516846      	94.04294       	93.76762       	93.66012       	94.22401       	93.88752       	93.604546      	93.666275      	93.47795       	93.5826        	93.51628       	93.51542       	93.954216      	93.78951       	93.33355       	93.508385      	93.97714       	93.64526       	93.49755       	93.76739       	93.622284      	93.545364      	93.69801       	93.41846       	93.18099       	93.32171       	93.43293       	93.23111       	93.53401       	93.254974      	93.43818       	94.08256       	93.6231        	93.27605       	93.099846      	93.33542       	93.40511       	93.2974        	93.23918       	93.42599       	93.31102       	93.46896       	93.34461       	92.77806       	93.30395       	93.67968       	93.43625       	93.69428       	94.092155      	93.8295        	93.70446       	93.70623       	93.527176      	93.43461       	93.37892       	93.471695      	
94.07712       	93.98935       	94.161736      	94.22111       	94.2506        	93.64179       	94.242546      	94.42903       	94.28582       	94.49981       	94.05013       	94.786446      	94.81662       	94.62597       	94.71049       	94.733315      	94.57642       	94.58717       	93.97861       	94.67595       	94.86081       	94.25402       	93.94081       	93.77359       	93.391655      	93.797195      	93.72354       	93.972206      	93.64399       	93.36467       	93.491035      	93.5732        	93.90792       	93.852486      	93.05291       	93.3468        	93.52147       	93.224724      	93.286385      	93.55309       	93.61056       	93.7052        	93.64275       	93.2106        	93.20812       	93.61255       	93.27835       	93.38396       	93.01971       	92.76376       	92.80592       	93.26967       	92.80488       	93.02913       	93.17642       	93.06522       	93.17608       	93.24013       	93.35103       	93.90967       	94.40419       	94.15271       	94.32947       	94.461555      	93.66521       	93.684364      	93.83385       	93.45342       	93.532524      	93.54988       	93.22877       	93.67264       	93.48109       	93.221954      	93.760216      	93.74203       	93.33595       	93.12552       	93.220955      	93.65161       	93.77736       	93.3168        	93.51442       	93.92102       	94.35021       	93.63587       	93.57525       	93.70659       	93.36837       	93.51861       	93.82559       	93.53943       	93.9954        	94.18632       	93.739334      	93.65206       	93.81803       	93.93478       	94.04172       	94.0631        	
94.27618       	93.740685      	93.66197       	94.11919       	93.9991        	93.88782       	94.32673       	93.6612        	93.76233       	94.37523       	93.80956       	94.02513       	94.44465       	94.208855      	94.20068       	94.13274       	94.35292       	94.588455      	94.63154       	94.88835       	94.27245       	93.86937       	93.661224      	94.00178       	94.01946       	93.35576       	93.51447       	93.65744       	93.4606        	93.43449       	93.68755       	93.83013       	93.75206       	93.26844       	93.576004      	93.58257       	92.96943       	92.99594       	93.175415      	93.373795      	93.034966      	93.44823       	93.44119       	93.090164      	93.34526       	93.85173       	93.24332       	93.42671       	93.81285       	93.66548       	93.65301       	93.56726       	93.16646       	93.3911        	93.73837       	93.24935       	93.810135      	93.59518       	93.1842        	93.1655        	93.497795      	93.3474        	93.18343       	93.67412       	93.63372       	93.63095       	94.05985       	93.80814       	93.396255      	93.79272       	93.20927       	93.14864       	93.18511       	93.51629       	93.72442       	93.34421       	93.08886       	93.28909       	93.62001       	93.68603       	93.53084       	93.31945       	93.66829       	93.737755      	93.34721       	93.290665      	93.048294      	93.29234       	93.637924      	93.69565       	93.4392        	93.78564       	93.83161       	93.89577       	93.81119       	93.835785      	94.276085      	93.7097        	93.21657       	93.22062       	
93.661064      	93.98184       	93.799644      	93.42224       	93.82535       	93.727455      	93.30202       	93.54546       	93.59529       	93.670044      	93.5347        	93.22175       	93.93705       	94.62459       	94.43297       	94.56898       	94.45389       	94.71922       	94.97154       	94.94767       	94.501495      	93.77169       	93.59155       	93.21522       	92.908615      	93.29591       	93.568695      	93.4077        	93.628654      	93.45561       	93.000854      	92.96306       	92.68841       	92.64564       	93.03234       	93.12715       	93.19854       	93.376656      	93.46545       	92.82126       	92.999275      	93.020294      	92.77271       	93.1482        	93.69353       	93.43599       	93.521225      	93.71074       	93.989586      	93.65784       	93.812416      	93.296906      	94.01762       	93.88123       	93.44571       	93.73774       	94.15966       	93.36482       	93.54916       	94.29813       	94.04842       	94.18974       	94.023026      	93.57142       	93.83674       	94.03136       	93.62575       	94.69289       	93.83062       	93.66106       	93.61134       	93.39078       	93.18189       	93.603096      	93.52623       	93.49897       	94.16474       	93.68009       	93.72973       	94.32659       	93.84785       	93.81782       	93.96447       	93.37354       	93.03034       	93.38856       	93.13455       	92.88595       	93.146774      	93.50529       	93.47285       	93.65811       	93.53824       	93.247246      	93.1457        	92.67929       	92.87674       	93.10139       	93.53638       	93.75371       	
93.90516       	93.28334       	93.60823       	93.76356       	93.68726       	93.022835      	93.35067       	93.42181       	93.55235       	93.79579       	93.4164        	93.97724       	94.1257        	94.1696        	93.97498       	94.02475       	94.016365      	93.96333       	93.8702        	94.58695       	94.71          	94.11864       	93.65527       	93.29616       	92.97412       	92.62056       	92.85118       	92.85275       	93.10868       	93.521965      	93.22271       	93.403534      	93.559395      	93.09103       	93.39761       	94.23811       	93.33834       	93.13089       	93.42688       	93.36424       	93.40465       	93.74582       	93.72313       	93.37161       	94.03544       	93.61571       	93.81821       	94.19179       	93.796616      	93.928925      	93.78868       	93.385895      	93.783806      	94.16495       	94.14075       	93.89308       	93.62887       	93.20893       	93.10079       	93.82901       	93.43286       	93.37424       	93.780594      	93.10808       	93.605545      	93.38293       	93.038414      	93.67518       	93.37202       	93.40296       	93.405205      	93.32361       	93.61053       	93.50895       	93.45558       	93.29797       	93.18507       	93.03864       	93.21175       	93.60445       	93.6134        	93.48348       	93.89179       	93.80745       	93.54854       	93.449394      	93.69075       	93.74434       	93.807014      	93.45961       	93.87292       	93.97785       	93.38055       	93.10381       	93.78446       	94.21036       	94.02148       	93.77949       	93.426056      	93.52664       	
92.856575      	93.56043       	93.24429       	93.96175       	93.7025        	93.50789       	93.9154        	93.72245       	93.71761       	94.060295      	93.63185       	93.7373        	93.86537       	93.827156      	93.986         	94.16605       	94.11569       	94.289116      	94.20494       	94.373985      	94.47184       	93.80226       	93.08879       	93.17923       	93.09682       	93.2519        	93.293785      	93.25738       	92.93844       	93.40777       	93.0445        	93.21575       	93.14074       	92.637924      	93.087326      	93.52559       	93.18129       	92.820595      	92.79972       	92.42448       	92.439095      	93.23152       	93.04406       	92.81569       	92.698456      	93.03804       	93.011566      	93.64132       	93.73709       	93.42482       	93.0976        	93.726524      	93.569         	93.33092       	93.13435       	93.26632       	93.37181       	93.458244      	93.11283       	93.59355       	93.905045      	93.72276       	93.511406      	93.53608       	93.4215        	93.449394      	93.65929       	93.21144       	93.20411       	93.1775        	93.125565      	93.03451       	93.283806      	93.76899       	93.494354      	93.49614       	93.409225      	93.723335      	93.80685       	93.720795      	94.11699       	94.18596       	94.14169       	93.996735      	93.957695      	94.036736      	94.013306      	93.783325      	93.57479       	93.50461       	93.49987       	93.72327       	94.12901       	94.38634       	94.25553       	94.44734       	94.72611       	94.66652       	94.65878       	94.79198       	
94.12293       	94.23302       	94.22534       	94.38822       	94.57944       	94.24002       	94.139336      	93.92667       	93.89049       	93.63763       	93.43597       	93.26615       	94.16247       	93.897415      	94.13687       	94.431366      	94.354454      	94.04011       	94.36408       	94.34136       	94.73702       	93.8429        	94.00154       	93.7233        	93.51672       	93.33016       	93.43747       	93.026924      	92.697914      	92.94565       	92.660194      	92.83023       	92.8886        	93.2251        	92.964195      	93.11789       	93.46892       	93.5489        	93.67784       	93.75572       	93.53736       	93.385796      	93.56056       	94.35743       	94.52465       	94.601105      	94.15154       	94.37531       	93.97          	93.7448        	94.40502       	94.327866      	93.897675      	93.89116       	93.463974      	93.82323       	94.03162       	93.99301       	93.722786      	93.86302       	94.12993       	93.505684      	94.71806       	94.461494      	94.08348       	93.82777       	93.93953       	93.71126       	93.509155      	93.616005      	93.81319       	93.46385       	93.755165      	93.8068        	94.00354       	93.415146      	93.20926       	93.51558       	93.00339       	93.0024        	93.70781       	93.628624      	93.44052       	93.4491        	93.68041       	93.44367       	93.128136      	93.5938        	93.42518       	93.15636       	93.769775      	93.909546      	93.74745       	93.7437        	93.597824      	93.81408       	93.69014       	93.51332       	93.21638       	93.15052       	
93.37399       	93.391495      	93.14625       	93.27893       	93.671455      	93.69074       	93.697014      	93.71728       	93.62509       	93.67485       	93.001434      	93.40929       	93.50936       	93.63006       	93.741585      	93.64161       	93.64173       	93.5736        	93.41629       	93.72326       	94.33764       	93.710495      	93.39718       	93.5157        	93.500206      	93.341156      	93.028145      	93.025665      	92.98234       	93.3641        	93.26761       	93.45003       	93.51863       	93.161995      	93.455826      	93.31206       	93.23896       	93.31754       	93.41153       	93.216934      	93.898994      	94.00766       	93.5291        	93.808         	94.2675        	93.82083       	93.640594      	93.896805      	93.6805        	93.60047       	93.19642       	93.250786      	93.36427       	93.52746       	93.33074       	93.54683       	93.355064      	92.71688       	92.85778       	93.212074      	93.046684      	93.19341       	93.36232       	93.025604      	93.473335      	93.39194       	93.13799       	93.25506       	93.64613       	93.62032       	93.565506      	93.336754      	93.223274      	93.593056      	93.44127       	93.77623       	93.717094      	93.55889       	93.304405      	93.33698       	93.72218       	93.80209       	93.70508       	93.4311        	93.248764      	93.15854       	93.23802       	93.37308       	93.47914       	93.55329       	93.708115      	93.60263       	93.61564       	93.558235      	93.20105       	94.13039       	93.78626       	93.6743        	93.71809       	93.705536      	
93.1066        	93.01636       	92.94657       	93.15218       	92.87753       	93.268486      	93.31906       	92.6722        	93.43376       	93.312744      	92.881386      	93.56181       	93.35018       	93.22914       	93.46408       	93.879074      	93.834785      	93.71788       	93.834175      	93.92033       	94.07964       	94.16324       	93.11746       	93.14239       	93.37923       	92.79968       	92.85094       	92.19938       	92.88574       	92.963615      	93.09607       	93.21188       	93.492935      	93.251724      	93.958176      	94.31094       	93.82239       	93.739815      	93.80543       	93.90812       	93.84383       	93.7959        	93.68876       	93.39619       	93.723595      	93.68497       	93.60804       	93.407875      	93.262         	93.15904       	93.11075       	92.96496       	93.41127       	93.27879       	93.82707       	93.88785       	93.858795      	93.8787        	93.92951       	94.11659       	93.81512       	93.83343       	93.8564        	93.936005      	93.5971        	93.50117       	93.7752        	93.22869       	93.830376      	93.83522       	93.87956       	93.07675       	93.3376        	93.48298       	93.172745      	93.302216      	93.97952       	93.783936      	94.225426      	94.12137       	94.17724       	94.30846       	93.80127       	93.34898       	93.85041       	93.40795       	93.269516      	93.60517       	93.47981       	93.96301       	93.988815      	93.4004        	93.45157       	93.19706       	93.00096       	93.17456       	93.46601       	93.58952       	93.30249       	93.20471       	
93.86131       	93.90262       	93.2952        	93.7043        	93.92237       	93.45507       	93.70985       	94.077545      	93.811386      	93.711105      	93.600235      	93.46242       	93.2892        	93.206696      	92.69069       	93.04147       	93.40723       	93.31485       	93.645836      	93.56674       	93.47023       	93.74543       	94.267746      	94.16768       	93.880035      	93.91136       	93.47013       	93.59954       	93.48135       	93.45069       	93.63581       	93.80498       	93.67562       	93.83737       	94.105705      	93.64275       	93.38286       	93.17139       	93.132645      	92.92182       	93.66828       	93.80497       	93.66353       	93.335014      	93.3403        	93.86327       	94.040215      	93.756195      	93.81209       	93.88653       	93.728745      	94.01909       	93.88946       	93.649826      	93.85445       	93.47551       	93.1434        	93.847496      	93.62371       	93.523384      	93.819305      	94.04491       	93.93702       	94.06514       	94.36762       	93.722786      	94.043304      	93.97899       	93.94723       	93.9501        	93.70102       	93.85683       	94.18361       	93.989624      	93.574814      	93.90892       	93.92826       	93.70106       	94.354774      	93.401215      	93.62989       	93.44645       	93.36081       	93.37146       	93.37359       	93.438446      	93.464226      	93.23489       	93.41617       	93.78816       	93.32353       	93.2825        	93.82051       	94.043076      	94.0773        	94.02754       	94.05461       	93.79253       	93.27377       	93.00467       	
93.872154      	93.87374       	93.851456      	93.990395      	93.75212       	93.74974       	93.64031       	93.81823       	93.86087       	93.60493       	93.63988       	93.63223       	93.71151       	93.6414        	93.66622       	93.411514      	93.43289       	93.24328       	93.43685       	93.28978       	92.86042       	93.107216      	93.22127       	93.49217       	93.38729       	93.19902       	93.44161       	93.60986       	93.30583       	93.55739       	93.65109       	93.760956      	93.81359       	93.87618       	94.07448       	93.82284       	93.61992       	93.4106        	93.44394       	94.15905       	93.80238       	93.91005       	93.82842       	93.399086      	93.79097       	93.95145       	93.75563       	93.58116       	93.91942       	93.90368       	93.54045       	94.22522       	93.95401       	93.53662       	93.78055       	93.57574       	93.76207       	93.8245        	93.49285       	93.88498       	93.97431       	93.139         	93.09604       	93.1916        	92.86181       	93.00985       	93.46732       	93.86412       	93.52937       	93.69146       	93.58927       	93.78756       	93.72086       	93.83647       	94.103485      	94.03655       	93.9018        	94.561905      	94.45679       	93.9654        	93.68857       	93.80432       	93.99468       	94.37073       	93.9779        	94.402596      	94.10731       	94.219185      	93.81038       	93.94917       	93.57736       	93.73937       	94.02937       	93.895256      	94.0039        	93.77165       	93.900024      	94.07376       	94.19988       	94.20569       	
94.163605      	94.140495      	93.69526       	93.788055      	93.68002       	93.760056      	93.627045      	92.94591       	92.985344      	93.18849       	93.21327       	93.602325      	93.807076      	93.90778       	93.88591       	94.04675       	93.84635       	93.87519       	93.38261       	93.577354      	93.87013       	93.9706        	93.788124      	93.659386      	93.78706       	94.17437       	93.97021       	93.84997       	93.13135       	93.409836      	93.794075      	93.556725      	93.60555       	93.72415       	93.682076      	93.734695      	94.083755      	93.96683       	94.13838       	94.09815       	93.84557       	93.921196      	94.04166       	93.92224       	93.7048        	93.83285       	93.63781       	93.54663       	93.62845       	93.30451       	93.17443       	93.30261       	93.5231        	93.40319       	92.944466      	92.847015      	92.83406       	92.6119        	92.7387        	92.770424      	92.68115       	93.40622       	93.31056       	93.42179       	93.51413       	93.622696      	93.31648       	93.84985       	93.39696       	93.73359       	93.72104       	93.71105       	93.37401       	93.65174       	93.522675      	93.36524       	93.108315      	92.79781       	92.72131       	92.994064      	93.14844       	93.38255       	93.35434       	93.51474       	93.36335       	93.24694       	93.55157       	93.62385       	93.64454       	93.857346      	93.43737       	93.29947       	92.91052       	93.079544      	92.880035      	93.020744      	93.059555      	93.15468       	93.34837       	93.48939       	
93.92768       	93.74744       	93.73182       	93.53043       	93.708755      	93.9796        	93.42131       	93.64733       	93.728226      	93.790535      	93.53971       	93.67425       	93.59209       	93.60198       	93.3523        	93.4783        	93.220085      	93.07734       	93.30394       	93.56062       	93.54182       	93.6534        	93.469154      	93.358925      	93.33614       	93.43248       	93.517105      	93.40402       	93.476326      	93.416885      	93.41473       	93.91965       	93.71557       	93.39533       	93.77743       	93.61755       	93.6066        	94.28151       	94.17847       	94.011314      	94.07204       	93.754875      	93.23047       	93.3838        	93.20507       	93.54455       	93.524155      	93.46845       	93.33947       	93.99232       	93.87737       	94.06845       	94.26855       	94.09081       	93.759155      	93.26065       	93.15679       	93.542534      	93.16802       	93.11373       	93.24403       	92.96403       	93.03761       	93.005585      	93.124214      	92.824936      	93.27975       	93.07602       	93.35705       	93.50719       	93.0284        	93.09655       	94.00256       	93.567535      	93.44414       	93.38753       	93.910194      	93.72693       	93.86067       	93.78739       	93.73779       	93.18857       	93.29219       	93.60567       	93.91536       	93.13968       	93.26468       	93.44571       	92.87988       	93.56092       	94.091995      	93.333015      	93.68937       	93.43533       	93.39338       	93.45598       	93.57715       	93.81902       	93.87833       	93.65724       	
93.81241       	93.08536       	93.79074       	93.79385       	93.28268       	93.32137       	93.37765       	93.528206      	93.249794      	93.49836       	92.91906       	92.96373       	93.68544       	93.41931       	93.4743        	94.18497       	94.25359       	94.355156      	94.35744       	94.84859       	94.35329       	94.325424      	94.11544       	94.23926       	93.863716      	93.624886      	93.06462       	93.68395       	93.68188       	93.66659       	93.92118       	93.78615       	93.69088       	93.42465       	93.916695      	94.25678       	94.30709       	94.02571       	94.18587       	94.329384      	94.12825       	94.19988       	94.21705       	93.89486       	93.92545       	94.35167       	93.79118       	93.749016      	93.998726      	93.29759       	93.39143       	93.56251       	93.532135      	93.83361       	93.61939       	93.15365       	93.621216      	94.078384      	93.96449       	94.1744        	94.42346       	94.019585      	94.01187       	93.66931       	93.73675       	93.54919       	93.725555      	93.57338       	93.56538       	93.12902       	93.49291       	93.48652       	93.3221        	93.36691       	93.523926      	93.41011       	93.37423       	94.003914      	94.097466      	93.32216       	93.331825      	93.97046       	93.44414       	93.20231       	93.273384      	93.16304       	93.15507       	93.544426      	93.01652       	93.0905        	93.494675      	93.457504      	93.614174      	93.45732       	92.83249       	93.27792       	93.51643       	93.46415       	93.42099       	93.44763       	
94.51712       	94.061356      	93.575775      	93.98901       	94.12892       	93.35169       	94.06883       	93.782295      	93.78694       	93.85615       	93.86511       	93.65043       	93.80467       	93.3976        	93.57679       	93.49879       	93.61897       	93.23488       	93.47944       	93.30916       	93.6174        	94.185295      	94.086494      	94.053276      	94.096054      	93.66778       	93.31239       	93.426765      	93.91258       	93.57708       	93.59358       	93.67278       	93.427124      	93.8481        	93.7714        	93.29601       	93.372505      	93.426094      	93.6246        	93.27829       	93.388054      	93.09628       	93.615105      	93.60446       	93.53919       	93.810135      	93.69325       	93.53842       	93.532265      	93.36796       	93.68529       	93.63778       	93.4617        	93.21968       	93.51244       	93.34569       	93.03023       	92.9172        	93.1056        	93.30619       	93.26006       	93.12422       	93.63713       	93.648285      	93.27199       	93.79819       	94.016045      	93.50794       	94.03638       	93.92376       	94.054214      	93.6788        	93.65358       	93.30096       	93.43314       	93.80669       	93.479385      	93.13234       	93.006836      	93.054436      	93.66829       	93.733185      	94.00139       	94.2941        	94.349556      	93.46266       	93.905685      	94.05319       	93.969765      	93.83077       	93.80282       	93.57204       	93.70814       	93.441216      	93.185265      	93.57985       	93.74407       	93.760376      	93.47319       	93.24043       	
93.2481        	93.853874      	93.318924      	93.861725      	94.23466       	93.61734       	93.96871       	93.745834      	93.92789       	93.74555       	93.764854      	93.88054       	93.76824       	93.97301       	93.913864      	94.36702       	93.75169       	93.51221       	93.89305       	93.765945      	93.90611       	94.15894       	93.74796       	93.84865       	94.12331       	94.29616       	93.697876      	94.20557       	93.98474       	93.56304       	93.64263       	93.78779       	93.64269       	93.74977       	93.61272       	93.83173       	93.71239       	93.37336       	93.61886       	93.75978       	94.07328       	93.90409       	94.236         	93.89258       	93.658325      	94.346405      	94.32237       	94.479355      	94.426895      	94.3261        	94.4043        	94.168945      	93.879745      	93.99277       	94.72192       	93.88737       	93.97596       	94.294525      	93.80624       	94.06881       	93.891884      	93.70086       	93.798676      	93.94047       	93.98266       	93.82409       	93.64521       	93.7305        	94.15454       	94.18776       	93.29935       	93.531906      	93.77969       	93.63591       	93.686264      	93.8994        	93.487564      	93.57703       	93.355194      	93.633224      	93.45628       	93.265465      	93.40827       	93.56296       	93.61858       	93.620926      	93.49395       	93.32671       	93.156494      	93.22554       	93.29068       	93.496704      	93.013626      	93.26724       	93.286026      	93.4172        	93.652756      	93.69301       	93.73607       	93.7509        	
93.28679       	93.43797       	93.19024       	93.400314      	93.75768       	93.51403       	93.37082       	93.61659       	93.19518       	92.98266       	93.13063       	93.03301       	93.510254      	93.33268       	93.539566      	94.259995      	94.00461       	93.557625      	93.65568       	93.70691       	93.58546       	93.54963       	93.533         	93.476456      	93.94109       	94.22693       	93.767166      	94.30289       	94.0945        	94.12133       	94.12838       	93.950455      	93.708534      	93.73266       	94.08885       	94.04517       	94.42354       	95.000336      	94.82824       	94.483604      	94.70445       	94.70961       	94.34701       	94.562744      	94.17521       	94.05412       	94.17326       	94.11358       	94.45311       	94.508026      	93.90594       	94.08843       	94.242096      	93.393814      	93.91236       	94.34981       	93.90792       	93.94918       	93.7707        	93.99406       	94.13465       	93.90153       	93.579475      	93.84432       	93.59513       	93.26538       	93.43949       	93.82513       	93.49194       	93.241974      	93.186005      	92.92497       	93.31035       	93.54044       	93.85948       	93.838165      	93.54106       	93.49925       	93.349686      	93.23626       	93.94413       	93.47938       	93.3783        	93.484795      	93.259575      	93.108         	93.43692       	93.573296      	93.06642       	93.34578       	93.23421       	93.27292       	93.90205       	94.14373       	93.5918        	93.5144        	93.66096       	93.208176      	93.28482       	93.35621       	
93.894325      	93.55146       	93.547066      	93.41631       	93.364555      	93.314545      	93.62694       	93.42457       	93.50654       	94.02033       	93.714676      	93.640434      	93.396126      	92.93257       	93.00154       	93.864204      	93.4062        	93.386795      	93.81486       	92.786         	93.076996      	93.85259       	94.18949       	93.44579       	93.614296      	93.11877       	93.09301       	93.36699       	93.15954       	93.801094      	94.433365      	94.43615       	94.08004       	94.17331       	93.98808       	94.15932       	94.25229       	94.07926       	94.193726      	93.66596       	93.76892       	93.923965      	94.13689       	94.131454      	94.36065       	94.22808       	94.33419       	94.20965       	94.14881       	94.55797       	94.316055      	94.33971       	93.72542       	93.81798       	93.71371       	94.03667       	93.93968       	93.812454      	93.63444       	93.38958       	92.85524       	93.22531       	93.25648       	93.44725       	93.0899        	93.2777        	93.66009       	93.42379       	93.57052       	93.23742       	93.09889       	92.878654      	93.79161       	93.59498       	93.63649       	93.65197       	94.13346       	93.45562       	93.79803       	94.15826       	94.06861       	93.78311       	93.68472       	93.91287       	93.63114       	93.3549        	93.231606      	93.795784      	93.811905      	93.71471       	94.02344       	94.10885       	93.61982       	93.87884       	93.87287       	94.128624      	94.244156      	94.32803       	94.213455      	94.15776       	
93.857025      	94.1631        	94.031815      	93.51439       	93.4989        	93.06811       	93.24118       	93.40275       	93.43859       	93.31813       	93.28812       	93.52756       	93.27574       	93.29887       	93.27702       	93.36282       	93.778305      	93.92149       	93.53201       	94.30291       	93.83682       	93.411255      	93.54334       	93.29314       	93.34274       	93.083725      	93.26152       	93.60634       	93.3276        	93.49684       	94.1566        	94.10554       	93.62238       	93.676506      	94.07621       	93.944756      	94.00982       	93.57226       	93.48405       	93.93775       	94.589935      	94.532196      	94.38022       	94.35821       	94.46277       	94.144356      	94.35698       	93.95471       	93.29097       	93.62699       	93.40287       	93.51994       	93.3593        	93.32742       	93.23905       	94.04932       	93.92303       	93.78606       	94.553795      	93.874596      	93.66159       	93.70627       	93.68348       	93.52575       	93.96126       	93.83313       	93.96027       	93.594696      	93.52811       	94.1027        	93.94289       	93.93065       	93.6652        	94.25472       	93.768425      	93.1529        	93.86287       	94.00912       	94.125786      	93.98022       	94.227066      	93.75601       	93.51088       	93.283676      	93.46978       	93.50245       	93.42067       	93.85568       	94.06154       	93.90626       	93.45824       	94.02989       	93.696686      	93.091805      	93.13977       	93.07537       	93.01692       	92.82315       	92.93328       	93.20369       	
93.422806      	93.46996       	93.40463       	93.44003       	93.64938       	93.6151        	93.58422       	93.19825       	93.50822       	93.18028       	93.14401       	93.00257       	92.95964       	93.57852       	93.507034      	93.34639       	93.20512       	93.68979       	93.177315      	93.79222       	93.55419       	94.045456      	93.92548       	93.40116       	93.7082        	94.04412       	93.850426      	93.79799       	93.63716       	93.39409       	93.56977       	94.01198       	93.71983       	93.363754      	93.41829       	93.62465       	93.38029       	93.36617       	93.81599       	93.7876        	93.810104      	93.54686       	93.42636       	93.90429       	93.52152       	93.673546      	93.84244       	93.591225      	93.8866        	93.86088       	93.68775       	93.83765       	93.578316      	93.52002       	93.540634      	93.41536       	93.47189       	93.67044       	93.30248       	93.21418       	93.87678       	93.95236       	93.55025       	93.919304      	93.98455       	93.83176       	93.971954      	94.09532       	93.498085      	93.44881       	94.25798       	94.20081       	94.57751       	94.33048       	93.90941       	94.33678       	93.87382       	93.73973       	94.17149       	94.03919       	93.80285       	94.340416      	94.0631        	94.01625       	94.10206       	93.40238       	94.02267       	94.11439       	94.14549       	94.35654       	94.47522       	94.56836       	94.26295       	94.08943       	93.66447       	94.262436      	94.02067       	93.561165      	93.16305       	92.987686      	
93.540115      	93.415726      	93.69027       	93.5221        	93.17864       	93.32995       	93.89577       	93.88394       	93.85648       	93.80265       	94.00848       	93.859695      	93.39934       	93.457344      	93.74406       	93.62962       	94.013336      	93.7117        	93.53633       	93.68201       	93.61262       	93.86176       	93.73903       	93.598015      	93.421616      	93.77019       	93.21209       	93.4379        	93.915054      	93.83088       	93.72339       	93.81955       	93.24301       	93.25197       	93.5851        	93.826775      	93.334946      	93.27292       	93.13282       	93.31303       	93.65484       	93.40472       	93.67737       	94.03017       	93.865814      	93.29597       	93.31111       	92.96249       	93.204956      	93.318726      	92.795845      	93.203575      	93.6663        	93.62033       	93.64796       	94.0128        	93.96204       	93.78517       	93.82779       	93.45912       	93.74232       	94.18489       	93.67484       	93.53775       	93.725746      	93.27958       	93.3228        	93.46435       	93.13248       	93.110886      	93.80399       	93.90429       	93.44596       	93.426956      	93.38477       	93.36922       	93.765434      	93.68061       	93.81308       	93.84082       	93.72795       	93.9106        	94.20865       	94.366165      	93.944786      	94.26274       	94.302734      	94.37161       	94.09356       	93.49512       	93.88225       	93.870125      	93.786545      	93.8319        	93.46179       	93.11861       	92.92477       	93.23357       	93.46568       	93.424774      	
93.3271        	93.26095       	93.42957       	94.011314      	94.08858       	93.55893       	93.61415       	93.72643       	93.29485       	93.33515       	93.52048       	93.15355       	92.454025      	92.78413       	93.13569       	93.555504      	93.24248       	92.81247       	93.35589       	93.35588       	93.47979       	93.81823       	93.86956       	93.94704       	93.918625      	93.8796        	93.1993        	93.65856       	93.69369       	93.60579       	93.807175      	93.46489       	93.44676       	93.561         	93.64836       	93.64906       	94.63135       	94.487946      	94.86604       	94.78458       	94.48648       	94.0477        	94.595184      	93.828804      	94.12709       	94.63372       	94.212296      	94.45446       	94.32061       	93.72281       	93.631065      	93.73431       	93.487465      	93.21485       	93.25057       	93.29404       	93.635796      	94.16944       	93.82814       	93.74399       	94.09542       	93.210884      	93.59441       	94.04405       	93.836876      	93.74861       	93.89693       	93.967316      	94.25954       	94.51575       	93.80578       	93.99529       	94.25497       	93.692314      	93.950066      	94.3461        	94.11039       	94.00541       	93.94012       	94.22244       	94.185005      	94.83536       	94.68107       	94.62448       	94.695885      	94.373604      	94.297966      	94.4559        	94.48642       	93.981476      	94.595215      	94.40488       	93.796745      	93.336006      	92.94764       	92.805786      	92.36023       	92.034706      	92.04855       	92.16708       	
92.73068       	93.65823       	93.52609       	93.58289       	93.89982       	93.64107       	93.6351        	94.061485      	93.77956       	94.022705      	94.483154      	94.25837       	93.37031       	93.29174       	93.35901       	93.6159        	93.5847        	92.83935       	93.2474        	93.235954      	92.63063       	92.99541       	92.736496      	92.87608       	93.175064      	93.54671       	93.25284       	93.07591       	93.21535       	93.987564      	93.88248       	93.6729        	93.61203       	93.594696      	92.77314       	92.76458       	93.357254      	93.21209       	93.41749       	93.97865       	94.20932       	93.70358       	93.585236      	93.398285      	93.435356      	93.24316       	93.29765       	93.256645      	93.53185       	93.0351        	93.433685      	93.32171       	93.05749       	93.09207       	93.863         	93.99076       	93.85377       	93.927414      	93.68453       	93.57411       	93.71655       	93.13245       	93.21491       	93.45142       	93.86866       	93.608505      	93.65978       	93.863335      	93.695435      	93.58484       	93.7636        	93.38261       	93.2314        	93.201645      	93.033806      	93.31502       	93.463295      	93.196175      	93.32203       	93.80773       	93.75905       	94.11606       	93.72984       	93.68665       	93.48809       	93.87239       	93.57064       	93.80428       	94.3724        	93.88445       	93.69995       	93.285645      	92.92334       	93.032         	93.002655      	93.01652       	92.80729       	92.85377       	92.98255       	93.109215      	
