# www.neaspec.com
# Scan:	 	Whitelight Imaging
# Project:	 	20251007_PS
# Description:	 	
# Date:	 	10/07/2025 14:41:49
# Scanner Center Position (X, Y):	[µm]	49.66	48.17	 
# Rotation:	[°]	0	 	 
# Scan Area (X, Y, Z):	[µm]	5.000	5.000	0.000
# Pixel Area (X, Y, Z):	[px]	100	100	1
# Interferometer Center/Distance:	[µm]	288.577	0.000	 
# Averaging:	 	1	 	 
# Integration time:	[ms]	5	 	 
# Wavenumber Scaling:	 	1.000000	 	 
# Laser Source:	 	4.5-15 µm nano-FTIR laser
# Detector:	 	R
# Target Wavelength:	[µm]	10.000	 	 
# Demodulation Mode:	 	Fourier
# Tip Frequency:	[Hz]	241,340.500	 	 
# Tip Amplitude:	[mV]	45.700	 	 
# Tapping Amplitude:	[nm]	74.245	 	 
# Modulation Frequency:	[Hz]	0.000	 	 
# Modulation Amplitude:	[mV]	0.000	 	 
# Modulation Offset:	[mV]	0.000	 	 
# Setpoint:	[%]	79.75	 	 
# Regulator (P, I, D):	 	4.206850	8.625812	1.000000
# Tip Potential:	[mV]	0.000	 	 
# M1A Scaling:	[nm/V]	0.426	 	 
# M1A Cantilever Factor:	 	1,000	 	 
# Q-Factor:	 	487.4	 	 
# Version:	 	2.1.11536.0
74.76367       	74.77649       	72.88016       	70.22822       	71.38141       	72.99919       	73.89072       	74.72991       	74.407455      	74.95506       	74.23511       	74.88195       	74.46153       	74.36149       	74.7539        	74.40129       	74.35589       	74.636215      	74.91881       	73.91051       	75.21179       	73.96059       	74.48417       	74.39055       	75.06959       	73.853004      	75.17865       	74.23261       	74.4171        	74.78106       	74.76044       	74.544136      	74.49781       	74.30199       	74.32788       	74.47683       	74.41884       	74.35627       	74.42198       	75.0182        	76.40116       	75.919914      	78.434784      	74.0054        	73.90658       	74.06947       	74.44716       	74.21659       	74.663605      	74.24587       	74.45186       	75.013306      	74.28857       	74.16938       	74.80254       	74.43925       	74.97558       	74.27038       	74.734886      	74.518394      	74.126434      	74.43397       	74.779366      	74.4519        	74.71819       	74.5328        	72.245285      	72.64693       	73.19654       	73.61933       	73.88889       	74.31124       	74.59581       	74.53653       	74.60162       	74.97582       	74.380135      	74.22894       	74.56818       	74.884026      	74.29275       	75.24017       	74.03489       	74.43951       	74.91433       	74.14582       	74.73433       	74.655624      	74.36296       	74.42057       	74.274124      	74.69786       	74.66949       	74.64856       	74.80784       	75.04006       	73.79265       	74.91508       	74.54773       	74.432846      	
74.444824      	74.56666       	73.064415      	70.440704      	72.614075      	72.87363       	73.80986       	74.93425       	74.492035      	74.66716       	74.34935       	75.065704      	74.36647       	74.35699       	74.39914       	74.76139       	74.53424       	74.994774      	73.871635      	75.073074      	74.497314      	74.382034      	74.40276       	74.90505       	74.64755       	74.14142       	74.74946       	74.36791       	74.52844       	74.45024       	75.093475      	74.342674      	74.63658       	74.148506      	74.99754       	74.41954       	74.34267       	74.346344      	74.34898       	75.787735      	75.2481        	77.03321       	76.61824       	75.72044       	73.24316       	74.27211       	74.439384      	74.30943       	74.27001       	74.4362        	74.69817       	74.28431       	74.81385       	74.22946       	74.93833       	74.802536      	74.37093       	74.21594       	74.84141       	74.32307       	74.56736       	74.25356       	74.77862       	74.80362       	74.6376        	74.3909        	72.50253       	72.552536      	73.28356       	73.44357       	73.86708       	74.76091       	74.590614      	74.438614      	74.49876       	74.51119       	74.51105       	74.42655       	74.7315        	74.75732       	74.5955        	74.226074      	74.85046       	74.19849       	74.67449       	74.61969       	74.51174       	74.4824        	75.091385      	74.16978       	74.738846      	74.479126      	74.506386      	74.43303       	75.262024      	74.30545       	74.46404       	74.197205      	74.99707       	74.58096       	
74.660164      	74.562775      	73.067406      	70.429436      	72.37651       	73.064766      	73.76797       	74.33035       	74.79747       	74.8724        	74.351776      	74.49186       	74.83343       	74.39841       	74.57356       	75.21282       	74.07966       	74.93846       	74.08406       	74.9661        	74.105896      	74.492355      	74.68662       	74.50558       	75.1432        	74.021324      	74.67061       	74.665825      	74.1186        	74.63104       	74.43275       	74.55344       	74.6599        	74.5599        	74.81592       	73.82212       	74.55833       	74.76017       	74.48018       	74.7079        	75.830215      	76.485725      	76.41175       	76.78174       	75.38764       	73.49038       	74.25092       	74.513954      	74.85468       	74.2388        	74.51544       	74.78524       	74.611565      	74.27317       	74.62175       	74.901764      	74.234695      	74.24508       	74.53107       	74.35151       	75.41135       	73.56216       	74.56586       	75.297585      	73.883865      	74.264595      	73.54165       	71.92587       	73.299835      	73.60804       	73.51866       	74.439835      	74.380104      	74.65698       	74.72919       	74.49496       	74.151024      	74.765755      	74.48455       	74.445984      	74.78198       	74.729645      	74.35705       	74.194046      	74.4874        	75.051956      	74.56185       	74.08581       	74.82837       	74.38106       	75.04578       	74.636734      	74.209335      	74.23928       	74.571526      	74.91424       	74.45578       	74.35926       	74.883896      	74.36014       	
74.340996      	74.593544      	74.019394      	70.69447       	72.02364       	72.985176      	73.423744      	73.89291       	74.91411       	74.54515       	74.77853       	74.65783       	73.97887       	74.555214      	74.91139       	74.42104       	74.55431       	74.83088       	74.83595       	74.13385       	74.63883       	74.374176      	74.24699       	74.55004       	74.769295      	74.70934       	74.86649       	74.31806       	74.01802       	74.94272       	74.592804      	74.65569       	74.62691       	75.06726       	73.98565       	74.28614       	74.861694      	74.87268       	73.805984      	74.30662       	76.07344       	76.195496      	77.91698       	75.02822       	76.524925      	73.77888       	74.45775       	73.73418       	74.70809       	74.50703       	74.48218       	74.051994      	74.64328       	74.800125      	74.3343        	74.40939       	74.64819       	74.24092       	74.843185      	74.51796       	74.77617       	74.15713       	75.00852       	73.6915        	75.18997       	74.23926       	73.251884      	72.58596       	73.32442       	73.05052       	73.7237        	74.20419       	74.40571       	74.72401       	74.157585      	74.59119       	74.479256      	74.64737       	74.837494      	74.1054        	74.63941       	74.56648       	74.2833        	75.0193        	74.36974       	74.41185       	75.10833       	74.1902        	74.33385       	74.61809       	74.53579       	74.49241       	74.39934       	74.73929       	74.850136      	74.53014       	74.43849       	74.94586       	73.994835      	75.07719       	
74.37795       	75.02581       	75.12648       	71.725815      	70.64439       	72.80519       	73.256584      	74.05692       	74.71286       	74.616         	74.78299       	74.34091       	74.546844      	74.29632       	75.02842       	74.76749       	73.97815       	74.67719       	74.531876      	74.6507        	74.17903       	75.020065      	74.312546      	75.004326      	74.78526       	73.82746       	74.99644       	74.855965      	74.34654       	74.577774      	74.26789       	74.42401       	74.50167       	74.94859       	74.45936       	74.58598       	74.92622       	74.55256       	74.04233       	74.69205       	75.740204      	76.16757       	76.621605      	77.00919       	75.459175      	73.627975      	73.79704       	74.661354      	74.04969       	74.32202       	74.81358       	74.214066      	74.94572       	74.2364        	74.58152       	74.806         	74.44943       	74.2114        	74.496025      	75.223236      	73.80383       	74.41651       	75.09027       	74.474594      	74.52448       	74.28015       	74.22065       	71.72631       	73.51413       	72.98039       	73.80242       	74.28642       	74.64792       	74.32474       	74.48571       	74.59082       	74.892334      	74.10943       	74.581924      	74.85902       	74.743454      	74.129486      	74.6242        	74.42674       	74.57863       	74.60627       	74.70563       	74.29689       	74.81502       	74.42749       	74.612564      	74.154274      	74.8933        	74.59972       	74.147545      	75.08551       	74.44893       	74.22694       	74.59491       	74.70819       	
74.495094      	74.94808       	75.16591       	73.253746      	70.31166       	72.81563       	72.843735      	74.08273       	74.81108       	74.57604       	74.63587       	74.83554       	74.47954       	74.38108       	74.57627       	74.51978       	74.27666       	74.82124       	74.38441       	74.4265        	74.44367       	74.64787       	74.07711       	74.62224       	75.00787       	74.58832       	74.28659       	74.779915      	74.602715      	74.87247       	73.99971       	74.38258       	74.98167       	74.21394       	75.00723       	74.48786       	74.59882       	74.34473       	74.557304      	74.88528       	74.36081       	76.28707       	76.137634      	77.99817       	75.72684       	73.409676      	74.0559        	74.586105      	74.39821       	74.48167       	74.57267       	74.65462       	74.31181       	74.25973       	74.87633       	74.269844      	74.603424      	74.16338       	74.38751       	74.76113       	74.384964      	74.76756       	74.50558       	74.23681       	74.80498       	74.64755       	74.119675      	71.607445      	73.18547       	73.49559       	73.62149       	73.94417       	74.27871       	74.579         	74.50813       	74.64039       	74.31099       	74.632744      	74.65906       	74.696365      	74.55482       	74.470505      	74.67203       	74.650375      	74.67675       	74.56331       	74.4975        	74.50711       	74.547905      	75.20553       	74.13689       	74.92435       	74.114655      	74.49756       	74.49877       	74.38382       	74.82489       	74.85617       	74.77401       	75.04014       	
74.54349       	74.92374       	74.61171       	72.604515      	70.65129       	72.35383       	73.21888       	73.25613       	75.30383       	74.853355      	74.26681       	74.29843       	74.68239       	74.81174       	74.16165       	74.723206      	74.64046       	74.54243       	74.52708       	74.52169       	74.68954       	74.56181       	74.73979       	73.937126      	74.54038       	74.49665       	74.72172       	75.047104      	74.09972       	74.2963        	74.50666       	74.65742       	74.345436      	74.760056      	74.523705      	74.66742       	74.4202        	74.284134      	74.76589       	74.79425       	74.55839       	75.75954       	75.7298        	78.48398       	77.18009       	73.2028        	74.53193       	74.08748       	74.34975       	74.586815      	74.67804       	74.07358       	74.325424      	75.137695      	74.43745       	74.522675      	74.69916       	74.33615       	74.338524      	74.54563       	74.610695      	74.60801       	74.55613       	74.6235        	74.282745      	74.5336        	74.737915      	72.11781       	72.868065      	73.39364       	73.49241       	73.996315      	74.58638       	74.66974       	74.233635      	74.29525       	75.08573       	74.77569       	74.300575      	74.287605      	74.582985      	75.385475      	73.64006       	74.685974      	75.0367        	74.14614       	74.526024      	74.92654       	74.450615      	74.10745       	74.82496       	74.507965      	74.56303       	74.538765      	75.04273       	74.82886       	75.00501       	74.93046       	75.22852       	74.21674       	
74.74045       	74.71707       	75.44695       	72.970856      	70.01894       	72.88712       	73.57739       	73.122475      	74.78924       	74.92412       	74.55888       	74.740074      	73.99195       	74.90238       	74.56747       	74.63106       	74.463806      	74.58631       	75.12356       	73.59982       	74.389915      	75.20666       	74.16273       	74.39849       	74.64932       	74.85471       	74.45242       	74.672066      	74.722176      	74.66681       	74.26344       	74.8553        	74.67265       	74.77534       	73.76782       	74.32842       	74.44725       	74.80899       	74.46606       	74.7864        	74.47346       	75.65016       	76.62382       	76.875046      	76.15341       	74.52949       	73.98245       	74.609695      	74.049805      	74.94132       	74.1352        	74.66688       	74.66468       	74.31526       	74.705086      	74.572174      	74.31889       	74.62195       	74.26146       	74.422714      	75.04809       	74.3542        	74.24699       	74.47339       	74.82414       	74.53311       	75.3563        	71.68488       	72.195786      	73.09642       	73.16728       	73.52123       	74.42549       	74.54567       	74.71309       	74.7339        	74.19343       	74.619736      	74.94873       	73.84507       	74.46711       	75.323395      	74.21634       	74.7517        	74.70052       	74.10154       	74.504555      	74.49142       	74.615875      	74.85708       	74.89863       	75.16126       	74.95485       	75.01491       	75.19222       	74.87727       	74.1824        	73.979866      	75.1318        	75.68416       	
74.35022       	74.98144       	74.69218       	73.555756      	70.95985       	72.75258       	72.7401        	73.4276        	74.40056       	75.21919       	74.51773       	74.39029       	74.680954      	75.07931       	74.313866      	74.239525      	74.60662       	74.412674      	75.026924      	74.67262       	74.482895      	74.43859       	74.650566      	74.385895      	74.428696      	74.45042       	74.08688       	74.915016      	74.742226      	74.115944      	74.764755      	74.633095      	74.4831        	74.67803       	74.314926      	74.53402       	74.719444      	74.260796      	74.757866      	74.65098       	74.632935      	74.97933       	76.628586      	76.57727       	76.977135      	74.55385       	74.31967       	74.1413        	74.42081       	74.67535       	74.27482       	74.63209       	74.578705      	74.15428       	74.77215       	74.58444       	74.51231       	74.632286      	74.237015      	74.66904       	74.56515       	74.66534       	74.14746       	74.580826      	74.07382       	74.636215      	75.095695      	74.07563       	71.58327       	73.26039       	73.14055       	73.73817       	74.27457       	74.376915      	74.30266       	74.891785      	74.44547       	74.49156       	74.58601       	74.39438       	74.97967       	74.092926      	74.927284      	74.58778       	74.5402        	75.21032       	74.49712       	75.60214       	74.83881       	73.33194       	75.83648       	75.19939       	74.34272       	74.11883       	75.33142       	74.714806      	74.4557        	74.321594      	75.38799       	75.58799       	
74.34324       	74.5641        	75.13613       	74.23468       	71.50681       	71.76684       	72.90376       	73.491806      	74.51744       	74.3901        	74.52595       	74.698204      	74.64923       	74.35556       	74.36515       	74.4038        	74.30269       	75.02381       	74.50381       	74.76978       	74.42803       	74.517395      	74.30515       	74.63461       	74.35757       	75.4228        	74.23532       	74.39847       	74.68554       	74.436676      	74.40834       	74.61542       	74.308586      	74.72172       	74.52918       	74.47397       	74.30971       	74.35102       	74.67258       	74.69826       	74.60649       	74.92527       	75.74224       	76.164505      	78.1843        	75.59035       	73.4636        	73.99522       	74.623886      	74.52678       	74.30934       	74.52454       	74.4755        	74.648865      	74.2597        	74.71339       	74.84035       	74.19463       	74.731285      	74.64904       	74.310616      	74.6122        	74.26747       	74.5185        	74.76392       	74.55089       	74.29577       	74.35363       	71.98593       	72.98809       	73.43342       	73.27851       	73.85107       	74.950775      	74.59223       	74.59365       	74.67456       	74.066376      	74.73502       	74.648636      	74.84339       	74.762856      	75.011         	74.985374      	74.46122       	74.73967       	74.90975       	74.89796       	75.006485      	74.53089       	74.52295       	74.67593       	74.72451       	74.007675      	75.34388       	75.06739       	74.865         	74.58574       	75.69624       	75.67785       	
74.41847       	74.635956      	74.69227       	74.28921       	72.2811        	71.66679       	73.30465       	73.36397       	73.59364       	74.30801       	75.040955      	74.53568       	74.51419       	74.723366      	74.507         	74.722534      	74.70351       	74.52665       	74.59723       	74.47113       	74.433136      	74.43303       	74.35124       	74.49845       	74.493004      	74.67114       	74.77534       	74.570076      	74.07712       	74.94071       	74.18219       	74.890366      	74.404366      	74.55706       	74.520096      	74.525475      	74.75553       	74.210594      	74.37101       	74.917145      	74.47834       	74.50192       	76.16868       	76.47088       	77.124825      	75.77331       	74.003426      	74.42956       	74.32274       	74.67233       	74.2791        	74.42316       	74.636986      	74.522316      	74.48077       	74.51485       	74.34224       	74.56559       	74.343216      	74.97907       	74.30514       	74.65021       	74.329735      	74.63476       	74.53929       	74.39347       	74.058624      	74.76432       	72.70463       	72.47058       	73.23701       	73.36145       	73.83588       	74.505455      	74.584114      	74.864395      	74.389694      	74.59057       	75.13975       	74.807045      	74.50169       	75.21751       	74.760605      	75.03268       	73.88927       	75.01506       	74.55695       	74.99944       	74.9102        	74.09722       	73.48704       	74.45246       	75.75629       	74.30159       	74.81076       	74.694374      	75.56366       	74.5227        	74.70068       	74.017136      	
74.673904      	74.72721       	74.470566      	74.79248       	73.5377        	71.455         	72.777084      	73.003746      	73.513054      	74.666534      	74.82242       	74.09409       	74.94021       	74.54049       	74.62286       	74.61723       	74.989685      	73.86879       	74.39753       	75.13979       	74.23425       	74.71299       	74.461105      	74.30444       	74.754         	74.224495      	74.68553       	74.77334       	74.45793       	74.349106      	74.725914      	74.47089       	74.43819       	74.64486       	74.652145      	74.47116       	74.42215       	74.81733       	74.32417       	74.857864      	74.503815      	74.36962       	75.79498       	76.01729       	78.258095      	75.41426       	73.70099       	74.14075       	74.64044       	74.251976      	74.19346       	74.34018       	74.7357        	74.734055      	74.02064       	74.47264       	74.888374      	74.449005      	74.073044      	74.60967       	74.64672       	74.37845       	74.58158       	74.32039       	74.47916       	75.19069       	73.71452       	74.65418       	73.35797       	72.15088       	73.37369       	73.77331       	73.92471       	73.880554      	75.00226       	74.22013       	74.74747       	74.972275      	75.93664       	74.96627       	74.628105      	73.48113       	74.9272        	75.22509       	74.814476      	74.87237       	74.83897       	74.6323        	75.82907       	75.17481       	74.70709       	73.92802       	75.17184       	74.977234      	73.83001       	74.53085       	74.362976      	74.36128       	73.93611       	75.08108       	
74.410835      	74.76957       	74.73835       	74.94301       	73.570786      	71.35518       	72.96512       	73.05506       	73.142006      	74.48483       	75.43784       	75.031235      	73.13363       	75.03879       	74.6626        	74.75493       	74.32409       	74.2931        	74.87515       	74.61487       	74.677605      	74.51          	74.57601       	74.61017       	74.52622       	74.39383       	74.51844       	74.63001       	74.907135      	74.20828       	74.46379       	74.583435      	74.539154      	74.5413        	74.63213       	74.03283       	74.596634      	74.606316      	74.66529       	74.31532       	74.698975      	74.498215      	75.34296       	76.84879       	76.22365       	77.54585       	73.34709       	74.165306      	74.038666      	74.451836      	74.39521       	74.59276       	74.55752       	74.44493       	74.71507       	74.521866      	74.320526      	75.036674      	74.20016       	74.80452       	74.27632       	74.61587       	74.4806        	74.59947       	74.203316      	75.458046      	74.14438       	74.48993       	73.76434       	72.856255      	73.99317       	73.56796       	74.09267       	73.445404      	74.1122        	74.226555      	74.12977       	75.30018       	74.62834       	74.70197       	74.58411       	74.3635        	75.28412       	74.4656        	75.67739       	75.67537       	74.30877       	75.358925      	74.531265      	73.64198       	74.42018       	74.59223       	74.719246      	74.182686      	74.50522       	74.46953       	74.329445      	74.81735       	74.5413        	74.44853       	
74.58977       	74.67318       	74.56258       	74.46372       	74.00279       	71.06351       	72.856895      	72.932465      	73.32232       	74.20791       	74.764946      	75.72112       	75.75889       	72.90965       	74.647675      	74.28299       	74.53372       	74.470955      	74.939384      	74.66437       	74.254425      	74.30117       	74.80257       	74.53663       	74.604         	74.39806       	74.55214       	74.57252       	74.68316       	74.461075      	74.17757       	74.74574       	74.74596       	74.32563       	74.9567        	74.311226      	74.50043       	74.77966       	74.55022       	74.23155       	74.67522       	74.23534       	75.18005       	76.54684       	76.31835       	77.46254       	75.24146       	73.5141        	74.004814      	74.51979       	74.4015        	74.09609       	74.54962       	74.69995       	74.8719        	74.48909       	74.61527       	74.3548        	74.72168       	74.02512       	75.04987       	74.28947       	74.54579       	74.61185       	74.569405      	74.53047       	74.58508       	74.02825       	75.061615      	74.701096      	74.20321       	72.869675      	73.780464      	73.92773       	73.3742        	74.40301       	74.56445       	74.82067       	74.76687       	75.566376      	74.4585        	75.23637       	75.23122       	75.961494      	74.02965       	74.90666       	75.21934       	73.07974       	74.33198       	74.10583       	74.93532       	74.26512       	74.32026       	74.38924       	74.6858        	75.09977       	73.88778       	74.76826       	74.62992       	74.63348       	
74.433624      	74.793755      	74.834564      	74.56884       	73.959206      	71.30859       	72.95402       	73.56772       	73.42703       	73.48845       	74.638664      	75.52634       	75.229034      	73.909294      	74.21943       	74.764496      	74.36454       	75.044785      	74.11498       	74.126396      	74.84755       	74.56907       	74.177185      	74.8419        	74.29017       	74.35475       	74.336525      	74.80385       	74.52955       	74.51258       	74.48897       	74.82918       	74.63158       	74.37897       	74.70524       	74.61007       	74.4547        	74.778114      	74.73876       	74.169624      	74.764015      	74.36212       	74.774925      	75.68049       	76.08114       	77.98325       	75.79721       	73.52814       	74.186295      	74.645164      	74.36299       	74.2482        	74.775024      	74.178955      	75.534225      	73.80949       	74.56471       	74.69629       	74.38248       	74.347305      	74.60495       	74.72038       	74.74769       	74.26675       	74.61061       	74.83063       	73.77494       	74.71713       	75.20522       	73.593575      	74.67324       	73.70755       	73.48575       	74.31173       	73.94508       	74.605225      	74.07646       	74.31127       	75.956215      	74.482925      	75.053116      	75.39491       	73.32068       	73.8411        	74.60639       	74.5008        	74.34102       	74.916565      	74.58462       	74.2206        	75.00342       	74.16126       	74.575836      	74.65773       	74.3794        	74.5501        	74.22774       	74.67938       	74.5731        	74.98207       	
74.55411       	74.559135      	74.65251       	74.696815      	75.29321       	72.18171       	71.97894       	73.24072       	73.29143       	73.67222       	74.349724      	75.14581       	74.20732       	74.49648       	74.43393       	74.84405       	74.8218        	74.50091       	74.67685       	74.47652       	74.5576        	74.61873       	74.36838       	74.35397       	74.66889       	74.829796      	74.46109       	74.4115        	74.56814       	74.55757       	74.5567        	74.99685       	74.23565       	74.90311       	74.18872       	74.57367       	74.81594       	74.1204        	74.922935      	74.427055      	74.760994      	74.16933       	74.31663       	75.71291       	76.3829        	77.776955      	76.80572       	74.42537       	74.07085       	73.91817       	75.25153       	73.75571       	74.17491       	74.976524      	74.441444      	74.88323       	74.102356      	74.90684       	74.73963       	74.096115      	74.49557       	74.74878       	74.504616      	74.50862       	74.11986       	74.59325       	74.78882       	74.24014       	74.588425      	74.65754       	74.2699        	74.88746       	74.23497       	74.34473       	74.692924      	74.32022       	74.71617       	74.857216      	74.44826       	74.24909       	74.866844      	74.55557       	74.14277       	74.723305      	74.47863       	74.12635       	75.09591       	74.40507       	74.506516      	74.46779       	74.681         	74.4775        	74.571045      	74.92284       	74.31144       	74.70396       	74.30579       	74.55682       	75.01883       	74.14675       	
74.597336      	74.68892       	74.88211       	74.38016       	74.47608       	74.06515       	71.52692       	73.07557       	73.22264       	73.52409       	74.10061       	74.642555      	74.533844      	74.55673       	74.33199       	74.35406       	74.59863       	74.94695       	74.45504       	74.66818       	74.4665        	74.34761       	74.40108       	74.66457       	75.066826      	74.331955      	74.511086      	74.55214       	74.59858       	74.37337       	74.882645      	74.55349       	74.31801       	74.701004      	74.55436       	74.51371       	74.65065       	74.58723       	74.955864      	74.16933       	74.53023       	74.521675      	74.40008       	75.19137       	76.60103       	76.55974       	77.0234        	74.48643       	73.45363       	74.35311       	74.09249       	74.73073       	74.31171       	74.80242       	74.76923       	74.88521       	73.74039       	74.83034       	74.83353       	74.421486      	74.56159       	74.336975      	74.63622       	74.61275       	74.245056      	74.48911       	74.682144      	74.35351       	74.75532       	74.67668       	74.65062       	74.85967       	73.60467       	75.14138       	74.209816      	74.38696       	74.575645      	74.02212       	74.68445       	74.38954       	74.54759       	74.50176       	74.92041       	74.35577       	74.44188       	75.27626       	74.09662       	74.888535      	74.56416       	74.268166      	74.354706      	74.78302       	74.28186       	74.77718       	74.30498       	74.62437       	74.31255       	74.20583       	75.1924        	74.27443       	
74.71171       	74.58957       	74.440125      	74.488976      	74.59774       	74.556816      	71.8672        	72.69013       	72.96375       	73.20758       	74.19501       	74.90807       	74.84775       	74.06238       	74.48723       	74.587845      	74.82784       	74.28178       	74.80237       	74.964165      	74.10903       	74.38497       	74.98149       	74.51696       	74.493004      	74.446594      	74.49036       	74.91324       	74.278984      	74.52906       	74.91009       	74.20829       	74.88449       	74.284615      	74.73058       	74.17352       	74.874756      	74.39458       	74.38808       	75.13377       	74.10639       	74.606384      	74.5656        	74.38355       	76.33022       	76.18254       	77.92586       	75.83024       	73.576744      	74.28573       	74.19759       	74.58655       	74.37022       	74.71028       	74.28185       	74.684135      	74.43528       	74.31434       	75.04449       	74.1122        	74.75643       	74.1614        	74.81334       	74.64165       	74.38961       	74.52262       	74.4104        	74.54869       	74.3342        	75.19614       	74.033104      	74.3119        	75.0583        	73.59505       	74.570114      	74.91076       	74.48574       	74.544655      	74.299904      	74.577255      	74.465836      	74.55748       	74.37774       	74.75983       	74.554726      	74.42951       	75.22427       	73.984566      	74.729126      	74.36249       	74.8026        	74.217896      	74.84103       	74.13989       	74.739876      	74.68122       	74.49128       	74.55994       	74.43326       	74.399         	
74.63974       	74.99679       	74.66998       	74.40582       	74.526886      	74.475464      	71.62111       	72.43484       	73.28834       	73.608734      	74.02428       	74.369576      	74.826355      	74.544106      	74.34287       	74.4809        	75.137955      	74.57812       	74.35295       	74.881805      	74.44638       	74.719025      	74.45444       	74.693085      	74.04166       	74.919266      	74.44595       	74.29481       	74.47106       	74.82776       	74.71907       	74.3853        	74.712685      	74.66556       	74.501045      	74.43285       	74.42464       	74.62061       	74.61588       	74.2534        	74.916115      	74.29008       	74.50592       	75.351845      	75.66285       	75.81244       	78.323135      	75.98058       	74.48995       	74.32799       	74.327         	74.35944       	74.648636      	74.39425       	74.94956       	74.23088       	74.77105       	74.84624       	74.087364      	74.21176       	74.83339       	74.44074       	74.42082       	74.64003       	74.75691       	74.30818       	74.62226       	74.584526      	74.125496      	74.8614        	74.234055      	74.63657       	74.72406       	74.05585       	74.46028       	74.9393        	74.84031       	74.56632       	74.11765       	74.663155      	74.27476       	74.36512       	74.57549       	74.71586       	74.59771       	74.726326      	74.34404       	74.859116      	74.417175      	74.402916      	74.84465       	74.51524       	74.47672       	74.79055       	74.44578       	74.39717       	74.58163       	74.61069       	74.48079       	74.43882       	
74.633736      	74.79641       	75.12796       	74.319664      	74.41967       	74.45548       	72.803024      	72.077835      	73.11256       	73.02263       	73.54028       	74.64489       	74.66744       	74.73603       	74.88534       	74.70722       	75.62754       	73.6509        	74.008514      	74.64328       	75.10614       	74.102905      	74.74449       	74.22309       	74.89894       	74.41769       	74.55883       	74.58367       	74.904785      	74.21865       	74.41656       	74.48213       	75.05315       	74.276344      	74.395546      	74.66335       	74.34064       	74.56412       	75.25694       	74.43069       	75.1373        	75.44675       	74.44803       	74.26218       	74.970436      	76.75488       	76.01384       	76.357765      	76.74863       	73.57141       	74.17892       	74.57335       	74.27989       	74.66277       	74.41593       	74.35551       	74.70251       	74.68405       	74.5276        	74.29769       	74.66555       	74.65061       	74.43368       	74.184654      	74.68802       	75.118454      	73.96464       	74.509926      	74.65308       	74.56097       	74.21726       	74.504616      	74.4313        	74.56634       	74.379684      	74.647285      	74.18872       	74.82188       	74.212715      	74.722916      	74.79855       	74.38565       	74.564255      	74.16263       	74.9612        	74.48244       	74.57097       	74.97848       	74.47208       	74.285324      	74.565895      	74.60136       	74.39247       	74.69542       	74.330765      	74.52381       	74.703285      	74.43564       	74.44345       	73.90306       	
74.329124      	74.503365      	74.75955       	74.69506       	74.760544      	74.58745       	74.08227       	71.38569       	72.78338       	73.2402        	73.45165       	74.56512       	74.537476      	74.62012       	74.26361       	74.68699       	75.738846      	75.72666       	73.6009        	74.09071       	74.534134      	74.458855      	74.45525       	74.49908       	74.787         	74.330696      	74.67962       	74.229836      	74.53323       	74.57418       	74.68222       	74.61295       	74.523346      	74.28265       	75.13542       	74.79362       	74.74508       	74.93685       	74.75091       	74.88574       	74.88687       	74.76869       	74.67321       	74.418434      	75.073555      	76.19091       	74.457054      	76.958275      	76.75945       	73.86987       	74.26407       	74.01555       	74.570206      	74.90963       	74.07765       	74.387665      	74.695984      	74.39074       	74.54397       	74.63354       	74.51186       	74.4778        	74.457184      	74.453735      	74.613174      	74.38641       	74.833374      	74.32539       	74.979324      	74.25432       	74.56472       	74.03943       	74.87811       	74.53116       	74.36354       	74.44494       	74.506165      	74.37195       	74.77287       	74.899734      	74.35951       	74.29874       	74.48181       	74.59803       	74.27657       	74.53365       	74.65299       	74.875496      	74.69642       	74.47593       	74.52945       	74.3806        	74.393036      	75.19311       	74.03362       	74.29427       	74.64646       	74.55338       	74.63889       	74.48448       	
74.58521       	74.66702       	75.12486       	74.46443       	74.18659       	74.63709       	74.40974       	71.802826      	72.501         	73.11572       	73.38088       	74.29811       	74.65256       	75.23671       	73.93466       	74.55399       	74.48214       	74.80251       	74.63679       	74.54163       	74.3624        	74.6684        	74.7745        	74.2781        	74.69991       	74.30845       	74.92517       	74.321335      	74.619286      	74.926025      	74.643074      	74.67178       	75.08766       	74.96143       	74.62166       	74.89778       	75.614296      	73.98346       	74.45253       	74.78435       	75.15666       	75.56039       	74.5964        	74.18527       	75.11195       	74.81038       	75.59909       	77.4445        	74.26727       	73.92327       	74.19978       	74.249405      	74.58947       	74.44991       	74.58043       	74.39076       	74.696976      	74.67825       	74.482796      	74.508064      	74.82309       	74.19286       	74.278145      	74.89686       	74.25711       	74.75768       	74.52527       	74.62342       	74.58136       	74.27489       	74.69702       	74.48398       	74.44018       	74.73703       	74.1752        	74.654915      	74.595604      	74.671936      	74.22613       	74.52185       	74.676285      	74.211494      	74.59273       	74.67013       	74.26147       	74.55249       	74.909645      	74.44955       	74.53622       	75.12401       	74.056526      	74.67124       	74.12789       	74.83554       	74.99302       	74.225845      	73.83354       	74.76773       	74.77315       	74.07826       	
74.52703       	74.61294       	74.93272       	74.53469       	74.37396       	75.1484        	74.31476       	71.26487       	72.27006       	73.52718       	72.97091       	73.98744       	74.757835      	74.61228       	74.43843       	74.64152       	74.28416       	74.87071       	74.79846       	74.25947       	74.938156      	74.55945       	74.24388       	74.67637       	74.543465      	74.696         	74.8479        	74.59304       	74.90634       	75.05792       	75.01865       	73.966324      	74.803604      	75.09499       	74.56117       	74.29626       	75.41836       	75.96053       	74.69083       	74.67195       	74.97069       	74.95923       	75.034645      	74.71451       	74.09972       	75.300644      	75.32923       	74.81997       	74.21817       	73.608795      	74.640686      	74.5379        	74.362434      	74.48941       	74.65781       	74.80217       	73.94076       	74.54581       	74.90114       	74.33044       	74.8056        	74.54911       	74.25979       	74.777756      	74.43419       	74.69821       	74.20747       	74.72282       	74.52132       	74.29552       	74.734215      	74.30227       	74.39339       	74.65461       	74.37053       	74.46911       	74.29933       	74.22885       	75.024925      	74.438774      	73.939415      	74.54164       	74.73454       	74.43481       	74.36511       	75.16777       	74.25219       	73.93007       	74.75846       	74.97334       	74.18957       	74.39444       	74.798874      	74.43218       	74.18037       	74.20251       	74.99193       	74.45169       	74.67816       	74.54934       	
74.56256       	75.02597       	75.29877       	74.66956       	74.02709       	74.02289       	74.53446       	72.7186        	71.78105       	73.37469       	73.42769       	73.66742       	74.638535      	74.45088       	74.043175      	75.07518       	74.57766       	74.507095      	74.48664       	74.8179        	74.67971       	74.649956      	74.55704       	74.97558       	74.749146      	75.12506       	75.07066       	74.385216      	75.06553       	74.53844       	74.86169       	75.60021       	74.4896        	74.08985       	74.32115       	75.613525      	74.09758       	75.77563       	75.38084       	74.64921       	75.25845       	75.258865      	73.97564       	74.646774      	74.088684      	74.82505       	74.44149       	74.46001       	74.70156       	74.29237       	74.437965      	74.71701       	74.22235       	74.29891       	74.75404       	74.41083       	74.519165      	74.76922       	74.42469       	74.59083       	74.78988       	74.258095      	74.50372       	74.50478       	74.42192       	74.53675       	74.55073       	74.55503       	74.6079        	74.44769       	74.44532       	74.206505      	74.16692       	74.65779       	74.456566      	74.85111       	74.3161        	74.63383       	74.29222       	74.78928       	74.484474      	74.35978       	74.709694      	74.59761       	74.57365       	74.37217       	74.28462       	74.7997        	74.45531       	74.665596      	74.38281       	74.78632       	74.59008       	74.603195      	74.35545       	74.72784       	74.30911       	74.41588       	74.65992       	74.554955      	
73.91608       	74.94199       	74.970795      	74.5043        	74.44223       	74.71279       	73.95296       	73.57994       	71.477325      	73.71864       	73.06647       	73.73455       	74.4652        	74.4003        	75.1482        	74.390015      	74.33047       	74.88656       	75.14022       	74.76173       	74.12833       	75.01674       	74.80984       	75.06054       	74.936295      	74.08807       	75.077576      	74.47767       	75.35819       	75.408905      	74.47349       	74.10872       	75.00039       	75.11221       	76.028625      	74.79136       	74.520836      	76.14033       	74.84668       	74.09205       	74.52685       	74.141655      	74.446754      	74.562416      	74.49232       	74.23645       	74.86896       	74.571465      	74.6435        	74.5817        	73.9762        	75.05671       	74.3224        	74.43943       	74.48862       	74.45408       	74.64768       	74.66854       	74.55643       	74.49702       	74.56482       	74.329735      	74.676926      	74.428406      	74.56357       	74.76083       	74.44553       	74.547676      	74.40381       	74.61763       	74.81932       	74.30173       	74.507996      	74.48521       	74.57521       	74.40855       	74.51242       	74.61292       	74.384026      	74.382385      	74.50895       	74.806816      	74.64945       	74.36141       	74.67432       	74.719475      	74.12361       	74.550964      	74.878365      	74.31084       	74.52409       	74.597         	74.51122       	74.371994      	74.73127       	74.5204        	74.80571       	74.40556       	74.363686      	74.42043       	
74.830734      	74.815636      	74.643         	74.25172       	74.34573       	74.31212       	74.07251       	74.31066       	71.709885      	73.155426      	73.237946      	73.75687       	74.29928       	74.23738       	74.706215      	75.2771        	75.289536      	74.708984      	75.231125      	75.2884        	74.40187       	74.4939        	74.62236       	75.211845      	73.653755      	74.43076       	75.02291       	75.60823       	73.95893       	75.10022       	75.287         	74.92969       	74.39628       	75.41331       	74.25007       	74.06723       	74.41568       	74.617966      	74.2859        	74.36507       	74.87591       	74.38041       	74.33065       	75.172295      	73.83538       	74.753784      	74.54786       	74.67973       	74.38245       	74.44565       	74.56526       	74.77585       	74.463524      	74.411285      	74.82357       	74.42199       	74.56071       	74.5439        	74.53108       	74.53835       	74.4125        	74.93186       	74.4439        	74.392815      	74.42479       	74.79835       	74.31534       	74.711555      	74.6647        	74.69806       	74.17656       	74.76371       	74.73193       	74.24724       	74.23502       	74.414734      	74.990616      	74.33302       	74.372856      	74.969         	74.36877       	74.489174      	74.74307       	74.361176      	74.65433       	74.39995       	74.432785      	74.524086      	74.70885       	74.35848       	74.85688       	74.49105       	74.497055      	74.35872       	74.78915       	74.47654       	74.32577       	74.85298       	74.38919       	74.561676      	
74.40492       	74.69179       	74.910065      	74.81569       	74.54663       	74.38546       	74.56772       	74.56479       	72.568184      	72.59945       	73.679665      	74.27336       	73.831406      	74.37606       	74.582886      	75.549866      	74.73495       	74.597855      	75.10817       	74.74592       	75.4776        	75.02765       	74.132355      	74.46766       	75.01552       	75.05469       	75.8203        	74.9893        	75.27468       	75.46774       	73.74359       	74.17796       	74.32366       	74.63447       	74.27521       	74.36913       	74.95903       	74.21574       	74.85013       	74.37261       	74.76349       	74.252785      	74.73582       	74.2889        	74.45877       	74.73232       	74.87724       	74.39969       	74.53958       	74.77824       	74.25756       	74.73612       	74.582214      	74.48304       	74.430336      	74.51052       	74.689384      	74.49397       	74.551414      	74.35876       	74.77191       	74.49333       	74.44555       	74.85849       	74.200294      	74.68159       	74.61421       	74.124245      	74.65322       	74.906166      	74.44997       	74.614006      	74.49373       	74.90152       	73.85685       	75.04593       	74.1456        	74.597725      	74.666504      	74.396454      	74.42376       	74.358696      	74.063545      	75.14651       	74.21931       	74.51638       	74.61764       	74.3718        	74.73883       	74.442184      	74.56307       	74.57177       	74.835396      	74.403275      	74.62747       	74.665405      	74.23412       	74.60699       	74.349365      	74.615395      	
74.62579       	74.544365      	74.810265      	74.50173       	74.11236       	74.01998       	74.685974      	74.828224      	74.8124        	72.585945      	74.44611       	74.36723       	73.38995       	73.438576      	74.02063       	75.81763       	73.59863       	75.585884      	74.24983       	75.26014       	75.56497       	73.55594       	75.05346       	74.48465       	75.321266      	75.33012       	73.60424       	74.02691       	74.54685       	74.85685       	74.45566       	74.601204      	74.55128       	74.25424       	74.24854       	74.69011       	74.880005      	74.15203       	74.51542       	74.4148        	74.63639       	74.44376       	74.6606        	74.55737       	74.53103       	74.54765       	74.625336      	74.84146       	74.48693       	74.456764      	74.6109        	74.483696      	74.676575      	74.36301       	74.60739       	74.4959        	74.46634       	74.6079        	74.60172       	74.33961       	74.886986      	74.3446        	74.56416       	74.22745       	75.07456       	74.38041       	74.21038       	74.5263        	74.830315      	74.73755       	74.262         	74.449684      	74.910736      	74.5582        	74.53706       	73.964424      	74.9441        	74.42194       	74.32007       	74.72278       	74.488         	74.52801       	74.560165      	74.64945       	74.43358       	74.63438       	74.71187       	74.76323       	74.203995      	74.38933       	74.59421       	74.57497       	74.87261       	74.327965      	74.42036       	74.61431       	74.497086      	74.60079       	74.78262       	74.332405      	
74.57896       	75.21937       	74.87173       	74.52705       	74.11494       	74.55444       	74.42331       	74.31012       	75.0251        	74.54885       	74.13273       	72.7029        	74.09644       	74.55058       	75.00861       	73.49256       	75.09995       	74.755486      	75.29043       	75.433395      	76.08191       	73.727425      	74.158485      	74.310555      	74.47888       	74.71226       	74.48149       	74.0645        	74.675606      	74.54386       	74.53131       	74.76589       	74.39583       	74.61782       	74.5519        	74.45731       	74.49806       	74.36698       	74.83744       	74.74827       	73.988754      	74.813286      	74.60539       	74.3882        	74.644356      	74.359184      	74.84254       	74.964134      	74.14082       	74.76274       	74.81896       	74.142075      	74.68684       	74.291885      	75.03236       	74.35692       	74.500305      	74.50587       	74.60622       	74.13034       	74.8284        	74.522255      	74.80187       	74.44111       	74.64181       	74.48897       	74.51582       	74.59183       	74.57221       	74.64319       	74.35371       	74.463715      	74.766495      	74.76588       	74.34763       	74.4353        	74.45722       	74.53313       	74.402214      	74.49235       	75.08707       	74.30265       	74.36165       	74.623535      	74.60856       	74.2056        	74.53693       	75.07808       	74.72406       	74.17799       	74.425064      	74.71992       	74.30847       	74.744965      	74.55757       	74.62724       	74.64528       	74.37037       	74.28082       	74.931725      	
74.68667       	74.691605      	74.52339       	75.00627       	75.41665       	73.0424        	74.63722       	74.45803       	74.603355      	74.601875      	74.11288       	74.875         	73.58451       	74.74269       	75.32136       	74.22205       	75.75245       	73.37428       	74.148254      	74.1311        	74.559616      	74.63647       	75.04469       	74.60748       	74.44507       	74.61974       	74.41111       	74.792465      	74.0431        	74.651924      	74.63985       	74.52763       	74.59381       	74.47385       	74.797516      	74.14975       	74.725204      	74.914825      	74.306625      	74.35195       	74.79732       	74.73095       	74.42335       	74.308846      	74.81049       	74.24964       	74.22368       	74.7719        	74.912895      	74.17936       	74.56509       	74.54801       	74.75676       	73.96833       	74.908554      	74.69338       	74.275444      	74.56405       	74.66732       	74.352516      	74.62606       	74.42453       	74.8023        	74.47577       	74.45608       	74.409004      	74.716225      	74.372185      	74.11496       	75.03492       	74.13205       	74.89998       	74.85781       	74.01632       	74.5321        	74.57457       	74.49931       	74.31526       	74.54827       	74.21593       	74.70145       	74.67108       	74.51209       	75.338875      	73.89828       	75.05463       	74.2172        	74.502914      	74.54139       	74.37141       	74.78989       	74.26473       	74.787834      	74.71445       	74.277115      	74.326065      	74.79665       	74.485886      	75.00602       	74.327065      	
74.42203       	74.75893       	74.82334       	75.30888       	74.510826      	74.50667       	74.75247       	74.394485      	74.538414      	74.205124      	74.42599       	74.6946        	73.971146      	74.18893       	75.07517       	74.52324       	74.26904       	74.58796       	74.37354       	74.61003       	74.50231       	74.57745       	74.78782       	74.167625      	74.997696      	74.11215       	74.16249       	74.860374      	74.56256       	74.493286      	75.12334       	73.79994       	74.58922       	74.57208       	74.707054      	74.53272       	74.405205      	74.78422       	74.2037        	74.695496      	74.6431        	74.97645       	73.76863       	74.7598        	74.571266      	74.49755       	74.60421       	74.63303       	74.84515       	74.46035       	74.37584       	74.88908       	74.48274       	74.331184      	74.42342       	74.62407       	75.26223       	74.25598       	74.34137       	74.63683       	74.45574       	74.59661       	74.4443        	74.62434       	74.372025      	75.00471       	74.32331       	74.66634       	74.8578        	74.44556       	74.23689       	74.474236      	74.68051       	74.65056       	74.493126      	74.35637       	74.35389       	74.46539       	74.69721       	74.36281       	74.70162       	74.560715      	74.22183       	75.117096      	74.55393       	74.4074        	74.5657        	74.354965      	74.63623       	74.54034       	74.78854       	74.26254       	74.41146       	74.582855      	74.71578       	74.782715      	74.17864       	74.70437       	74.715004      	74.23871       	
74.351906      	74.55559       	74.80697       	74.901955      	74.50528       	74.71495       	74.43786       	74.515076      	74.47634       	74.8023        	74.26875       	74.6656        	74.01652       	74.72435       	74.700966      	74.42517       	74.7488        	74.25166       	74.738335      	74.419106      	74.744644      	74.75943       	74.14908       	74.2942        	74.51811       	74.56425       	74.28752       	74.70278       	74.62082       	74.58347       	74.3631        	74.52831       	74.66749       	74.41945       	74.7716        	74.7764        	74.918335      	74.01084       	74.72795       	74.45376       	74.32249       	74.708984      	74.294945      	74.64408       	74.72555       	74.520134      	74.556725      	74.767235      	74.99149       	74.23791       	74.468666      	75.0085        	74.09683       	74.74176       	74.42273       	74.78158       	74.48443       	74.409485      	74.7702        	74.21807       	74.54817       	74.70245       	74.59719       	74.3251        	74.46842       	74.60789       	74.343956      	75.41229       	74.33269       	74.44195       	74.61732       	74.36479       	74.66127       	74.39228       	74.57241       	74.630295      	74.150795      	74.66036       	74.45882       	74.681076      	74.59028       	74.76777       	74.37353       	74.60995       	74.38449       	74.53296       	74.74518       	74.444145      	74.518005      	74.488464      	74.58762       	74.57946       	74.632805      	74.669         	74.286156      	74.71124       	74.52333       	74.48591       	74.64686       	74.418884      	
74.523636      	74.43647       	74.727135      	74.81631       	74.700035      	74.73035       	74.85023       	74.11708       	74.52075       	74.24957       	74.980484      	74.150925      	74.09185       	74.50777       	75.24415       	74.25736       	74.49633       	74.430115      	74.71103       	74.5954        	74.5608        	74.25492       	75.511856      	73.77584       	74.38642       	75.03735       	74.46951       	75.028175      	73.85344       	74.736725      	74.383316      	74.63125       	74.805626      	74.39914       	74.39182       	74.77195       	74.89609       	74.480225      	74.193474      	74.56226       	74.81589       	74.14818       	74.69669       	74.56418       	74.421425      	74.502464      	74.71768       	74.578674      	74.78727       	75.04594       	74.21088       	74.70717       	74.31885       	74.490135      	74.75663       	74.48233       	74.48232       	74.66363       	74.64078       	74.46123       	74.33685       	75.1624        	74.25958       	74.28547       	74.473015      	74.85938       	74.566925      	74.2134        	74.55268       	74.75542       	74.48228       	74.59238       	74.31264       	74.61194       	74.79223       	74.278275      	74.65665       	74.04361       	74.90644       	74.368126      	74.44502       	74.67437       	74.61971       	74.41378       	74.57186       	74.60509       	74.58656       	74.579575      	74.56131       	74.56666       	74.569145      	74.38536       	74.39191       	74.789986      	74.32924       	74.86655       	74.34653       	74.35428       	74.60547       	74.68807       	
74.512535      	74.44998       	74.697         	74.86432       	75.20927       	74.86073       	74.068825      	74.475174      	74.11092       	74.67024       	74.58558       	74.79868       	73.97013       	75.01392       	74.711754      	73.73844       	74.5757        	74.79084       	74.27639       	74.42427       	74.8365        	74.50236       	74.49808       	74.47743       	74.93665       	74.246605      	74.567604      	74.54718       	74.744286      	74.42854       	74.36576       	74.855064      	74.324135      	74.24508       	74.78869       	74.624344      	74.663704      	74.8512        	74.33966       	74.354324      	74.75914       	74.36613       	74.64037       	74.345825      	74.916954      	74.80121       	73.93499       	74.94974       	74.59156       	74.92473       	74.615456      	74.31747       	74.4625        	74.868835      	74.37405       	74.62021       	74.62603       	74.257935      	74.98867       	74.32896       	74.306305      	74.929565      	74.57248       	74.29782       	74.70849       	74.19855       	74.77485       	74.71563       	74.56307       	74.50719       	74.5554        	74.44355       	74.821815      	74.503204      	74.81481       	74.103546      	74.34233       	74.76524       	74.61911       	74.234604      	74.406364      	74.92546       	74.370056      	74.74216       	74.24233       	74.788055      	74.53796       	74.31253       	74.65146       	74.79689       	74.32318       	74.49154       	74.666695      	74.44811       	74.201996      	74.64159       	74.82095       	74.33525       	74.763275      	74.56944       	
74.50875       	74.91704       	74.76755       	74.319         	74.62451       	74.55754       	74.42894       	74.45499       	74.71693       	74.25772       	74.82824       	74.25183       	74.322174      	74.52662       	74.58165       	74.61504       	74.50754       	74.754524      	74.31697       	74.36688       	74.6752        	74.55053       	74.89017       	74.171616      	74.981064      	74.21267       	74.43098       	75.356514      	73.84744       	74.579384      	74.60841       	74.57991       	74.527534      	74.39456       	75.10675       	73.9622        	74.68236       	74.356544      	74.71454       	74.711624      	74.58119       	74.40975       	74.483475      	74.62096       	74.526726      	74.89506       	74.22648       	74.27402       	74.63191       	75.01455       	74.26625       	74.495346      	74.40963       	74.63442       	74.4818        	74.4837        	74.767975      	74.82176       	74.42438       	74.60587       	74.40835       	74.51252       	74.68574       	74.41464       	74.52945       	74.32132       	74.83687       	74.28533       	74.593216      	74.547386      	74.54305       	74.79122       	74.198524      	74.94693       	74.53884       	74.39052       	74.404655      	74.374115      	74.58324       	74.453156      	74.48224       	74.74428       	74.66345       	74.82838       	74.516716      	74.26661       	74.43582       	74.754         	74.41766       	75.32792       	74.35621       	74.380875      	74.694626      	74.606         	74.23942       	74.61281       	74.740204      	74.292786      	74.60856       	74.87298       	
74.503136      	74.51596       	74.69326       	74.9914        	74.56574       	74.81883       	74.49988       	74.555565      	74.34123       	74.50159       	74.43343       	74.50757       	74.41405       	74.447235      	74.935555      	74.13565       	74.821815      	74.30653       	74.583534      	74.458626      	75.008316      	74.38667       	74.18354       	74.635445      	74.767815      	74.14055       	74.51562       	74.84508       	74.12779       	74.581474      	74.4177        	74.8365        	74.56517       	74.42943       	74.70835       	74.274414      	75.40279       	73.98692       	74.737144      	74.43846       	74.35658       	74.34454       	74.58361       	74.75982       	74.336685      	74.63713       	74.65748       	74.43511       	74.62367       	74.78532       	74.63044       	74.621895      	74.45268       	74.924286      	74.47508       	74.33822       	74.593254      	74.563705      	74.436806      	74.91964       	74.25241       	74.78133       	74.62393       	74.69697       	74.160164      	74.66055       	74.484924      	75.00163       	74.20156       	74.50649       	74.33693       	74.82472       	74.503265      	74.44198       	74.70333       	74.466125      	74.21967       	74.63091       	74.482         	74.75849       	74.55081       	74.463905      	74.92482       	73.95344       	74.75852       	74.37188       	74.45564       	75.09883       	74.31361       	74.36072       	74.26432       	74.952934      	74.30008       	74.70479       	74.878586      	74.32724       	74.71456       	72.69117       	72.84192       	73.54185       	
74.54786       	75.0069        	74.712814      	74.187904      	74.30266       	74.52867       	74.73539       	74.40272       	74.58328       	74.53785       	74.54191       	74.25405       	74.54262       	74.70823       	74.44153       	74.90059       	74.49108       	74.187035      	74.903915      	74.28642       	75.0531        	74.31435       	74.36372       	74.5942        	74.49022       	74.54562       	74.65019       	74.45045       	74.494064      	74.74973       	74.35963       	74.4515        	74.61838       	74.46479       	74.51311       	74.581085      	74.53248       	74.78676       	74.53448       	74.83099       	74.38429       	74.442535      	74.60979       	74.53492       	74.39598       	74.581474      	74.7234        	74.094086      	74.9078        	74.78727       	74.36085       	74.63547       	74.210236      	75.11599       	74.48072       	74.477234      	74.3605        	74.92203       	74.50147       	74.52075       	74.3937        	74.660706      	74.526054      	74.4705        	74.440704      	74.57489       	74.64007       	74.667         	74.544075      	74.32698       	74.54611       	74.76939       	74.52858       	74.724045      	74.18335       	74.795654      	74.431046      	74.305405      	74.617386      	74.66385       	74.039345      	74.66686       	74.69002       	74.34396       	74.616875      	74.12953       	74.6026        	74.98422       	74.50503       	75.44938       	73.817535      	74.175125      	74.383194      	72.82146       	73.46491       	73.948784      	73.72552       	73.63769       	74.10424       	73.98906       	
74.40983       	74.96137       	76.11086       	75.89842       	73.379814      	74.497604      	74.73202       	74.498         	74.24226       	74.58809       	74.53513       	74.30742       	74.5797        	74.31859       	74.39725       	74.6851        	74.64307       	74.227234      	74.62637       	74.28861       	74.87359       	74.673996      	74.04814       	74.47679       	74.79424       	74.35896       	74.52708       	74.84009       	74.42225       	74.7127        	74.4668        	74.825356      	74.240135      	74.726456      	74.46357       	74.318474      	75.00153       	74.58597       	74.343796      	74.61876       	74.66354       	74.27981       	74.75352       	74.51262       	74.34895       	74.8413        	74.499176      	74.35659       	74.89063       	74.66911       	74.47331       	74.56107       	74.33526       	74.88513       	74.37202       	74.50497       	74.70651       	74.393616      	74.50096       	74.81778       	74.7787        	74.22801       	74.326935      	74.69269       	74.70206       	74.14357       	74.75161       	74.94324       	74.45972       	74.397644      	74.49544       	74.670555      	74.367004      	74.54143       	74.934235      	74.46225       	74.508484      	74.53458       	74.18117       	74.68287       	74.495964      	74.60574       	74.75267       	74.04095       	74.74421       	74.585556      	74.36357       	74.523575      	73.93761       	73.28877       	73.60157       	73.48904       	73.37999       	73.688324      	73.91759       	74.67449       	74.40012       	74.31581       	74.667175      	74.773415      	
74.47371       	74.53229       	74.82943       	75.086105      	74.39215       	74.93728       	74.40118       	74.683235      	74.34361       	74.552284      	74.843414      	74.422554      	74.8039        	74.60898       	73.96965       	74.91071       	74.53117       	74.34464       	74.58524       	74.67456       	74.30826       	74.77789       	74.30272       	74.77178       	74.478035      	74.61896       	74.815735      	74.20049       	74.51999       	74.820496      	74.43868       	74.4306        	74.24193       	75.02428       	74.535225      	74.3452        	74.84685       	74.31452       	74.24461       	74.93942       	74.31336       	74.60688       	75.06949       	73.96946       	74.730095      	74.476906      	74.14217       	74.597565      	74.59831       	74.75672       	74.72321       	74.34409       	75.32715       	73.89236       	74.89677       	74.29632       	75.41418       	73.86768       	74.52269       	74.3989        	74.78059       	75.06082       	73.638504      	75.16395       	74.22412       	74.17863       	74.97566       	74.34397       	74.756615      	74.28614       	74.53214       	74.730606      	74.65362       	74.32444       	74.804825      	74.33089       	74.78284       	74.26463       	74.57411       	74.70101       	74.5698        	74.95066       	74.04111       	74.65571       	74.12434       	72.13776       	72.37681       	73.82534       	74.24372       	73.95667       	74.25965       	74.2917        	74.27746       	74.83507       	74.70201       	74.38646       	74.76814       	74.51041       	74.37914       	74.754715      	
74.5727        	74.875145      	74.96229       	74.48173       	74.22279       	74.70359       	74.48652       	74.71121       	74.627045      	74.58367       	74.55482       	74.18702       	74.47633       	74.4276        	74.47344       	74.55625       	75.247925      	73.92353       	74.46961       	74.747986      	74.61716       	74.210365      	74.665276      	74.77648       	74.6115        	74.18692       	74.53391       	74.68029       	74.5971        	74.729294      	74.26526       	74.791046      	74.453285      	74.58918       	74.70214       	74.38269       	74.502945      	74.566574      	74.60245       	74.37825       	74.70561       	74.77997       	74.50166       	74.41874       	74.62488       	74.52055       	74.519104      	74.79409       	74.206055      	74.76212       	74.891945      	74.405975      	74.6175        	74.481735      	74.701256      	74.83383       	74.375114      	74.18683       	74.35374       	74.8006        	74.82085       	74.32772       	74.52018       	74.60611       	74.71434       	74.50077       	74.675385      	74.38863       	74.77451       	74.54659       	74.538124      	74.474846      	74.622345      	74.665596      	74.40971       	74.47816       	74.510605      	74.56451       	74.59564       	74.14058       	74.00822       	72.882385      	72.75312       	73.762764      	74.327065      	73.883385      	73.67605       	74.571815      	74.559715      	74.3047        	74.3383        	74.75479       	74.27684       	74.75968       	74.74253       	74.29381       	74.48406       	74.34377       	74.47831       	74.75181       	
74.44737       	74.61403       	74.40214       	74.742455      	74.52172       	74.67205       	74.583         	74.682724      	74.293625      	74.870346      	74.46042       	74.37386       	74.46269       	74.577194      	74.187874      	74.5783        	74.48271       	74.5409        	74.48569       	74.64552       	74.63288       	74.780075      	74.20867       	74.71583       	74.47624       	74.56904       	74.81202       	74.366234      	74.56266       	74.74819       	74.18754       	74.54491       	74.62449       	74.29524       	74.456474      	74.775764      	74.50232       	74.62856       	74.65853       	74.40163       	74.43051       	74.60015       	74.97528       	74.4077        	74.66858       	74.21135       	74.50669       	74.44985       	74.59536       	74.558525      	74.823135      	74.70096       	74.36963       	74.58042       	74.515625      	74.74876       	74.4677        	74.542         	74.61222       	74.394356      	74.678185      	74.515175      	75.05131       	73.77635       	74.704765      	74.384865      	74.720985      	74.48584       	74.70373       	74.27991       	74.547424      	74.477486      	74.67632       	75.03879       	74.27598       	74.253815      	74.78871       	70.62554       	72.12123       	71.38289       	73.90517       	74.39839       	73.62543       	74.370636      	74.49614       	74.32043       	74.79915       	74.79993       	74.46246       	74.59857       	74.42839       	74.23711       	74.72658       	74.54538       	74.341385      	74.1628        	74.9332        	74.322105      	74.777794      	74.40362       	
74.42835       	74.62645       	74.21709       	74.56872       	74.797         	74.48984       	74.69213       	74.36795       	74.53151       	74.76589       	74.58422       	74.39408       	74.295         	74.76958       	75.0122        	73.62955       	74.72577       	74.94015       	74.206474      	74.41236       	74.47705       	74.43556       	74.54554       	74.7091        	74.56485       	74.51839       	74.57496       	74.59377       	74.648735      	74.19588       	74.85898       	74.79833       	74.3986        	74.27363       	74.715355      	74.667336      	74.37403       	74.50764       	74.66084       	74.657745      	74.40651       	74.88996       	74.269005      	74.69278       	74.424126      	74.421455      	74.64186       	74.38913       	74.64117       	74.42617       	74.53576       	74.611336      	75.08167       	74.229034      	74.50554       	74.52239       	74.56494       	74.27581       	74.503815      	74.55769       	74.68927       	74.286934      	74.55253       	74.951706      	74.20372       	75.01477       	74.04353       	74.718735      	74.54895       	75.1271        	74.14299       	74.35336       	74.5874        	74.88977       	74.21899       	74.426384      	74.27713       	72.13322       	72.07365       	72.639336      	74.17807       	74.57262       	74.51017       	74.73655       	74.42001       	74.90518       	74.235664      	74.57886       	74.66732       	74.315384      	74.96085       	74.0607        	74.72511       	74.686806      	74.2381        	74.728424      	74.54197       	74.52639       	74.78983       	74.36681       	
74.56922       	74.63608       	74.34335       	74.642         	74.75186       	74.276695      	74.43268       	75.093376      	73.952545      	74.5967        	74.80687       	74.65672       	74.43459       	74.251816      	74.75506       	74.29702       	74.53005       	74.586         	74.53366       	74.55998       	74.790764      	74.356834      	74.52005       	74.55076       	74.57497       	74.55597       	74.42261       	74.56406       	74.62033       	74.28552       	74.43811       	74.853714      	74.6882        	74.4544        	74.36911       	74.50328       	74.50638       	74.64856       	74.751144      	73.798676      	74.92259       	74.77335       	74.31431       	74.72703       	74.70202       	74.472404      	74.668396      	74.87747       	74.41587       	74.26282       	74.7557        	74.826614      	74.50737       	74.62255       	74.4781        	74.75205       	74.50431       	74.66774       	74.756714      	74.13755       	74.80415       	74.262794      	74.38124       	75.124466      	74.285576      	74.43847       	74.16745       	74.5237        	74.804306      	74.188896      	74.29116       	75.05365       	74.90208       	74.0094        	74.8152        	74.34216       	73.41619       	71.849846      	73.10477       	73.160225      	73.77026       	74.87066       	74.26976       	74.55276       	74.68051       	74.4934        	74.42237       	74.82374       	74.51267       	74.46992       	74.46222       	74.77997       	74.446815      	74.70272       	74.46195       	74.55549       	74.7233        	74.21012       	74.79408       	74.66219       	
74.6375        	74.731995      	74.70211       	74.41691       	74.98798       	74.75779       	74.32956       	74.864105      	74.172165      	74.588684      	74.22963       	74.53521       	74.43466       	74.57372       	74.61502       	73.98228       	74.47319       	74.884636      	74.209984      	74.83828       	74.40082       	74.472206      	74.78275       	74.66088       	74.664085      	74.30979       	74.791756      	74.30866       	74.48458       	75.10005       	74.21897       	74.53667       	74.532196      	74.50843       	74.20512       	74.8643        	74.56348       	74.70712       	75.10827       	74.2174        	74.39862       	74.559135      	74.455124      	74.65836       	74.51328       	74.40568       	74.86918       	74.40502       	74.58867       	74.251595      	74.740685      	74.56767       	74.69316       	74.45302       	74.89934       	74.30661       	74.61229       	74.70834       	74.147644      	74.55844       	74.59018       	74.77235       	73.97264       	74.896675      	74.445244      	74.84936       	74.401115      	74.632996      	74.78811       	74.25158       	74.497284      	74.60745       	74.34512       	74.80185       	74.49081       	74.72685       	73.78878       	72.138756      	72.967766      	72.896355      	73.762634      	74.324554      	74.47647       	74.85974       	74.36751       	74.8442        	74.3784        	74.458534      	74.54882       	74.30459       	75.02844       	74.06131       	74.57111       	74.706635      	74.45026       	74.77937       	74.48829       	74.62928       	74.48516       	74.64151       	
74.69187       	74.70332       	74.58121       	74.5493        	74.535355      	74.51577       	74.384705      	74.67383       	74.05788       	74.8049        	74.164406      	75.12485       	74.213745      	74.50832       	74.429855      	74.57994       	74.3225        	74.667885      	74.37617       	74.51807       	74.66493       	74.744354      	74.494316      	74.65577       	74.41173       	74.69722       	74.3325        	74.739975      	74.39991       	74.48227       	74.62088       	74.38144       	75.02531       	74.17947       	74.6886        	74.49906       	74.28807       	74.888535      	74.65064       	74.44582       	74.48801       	74.59501       	74.34984       	74.7554        	74.64881       	74.41586       	74.401375      	74.82285       	74.66081       	74.743454      	74.32764       	74.95733       	74.82429       	74.34475       	74.08021       	74.43767       	74.64594       	74.93745       	74.346436      	74.70727       	74.6453        	74.313995      	74.33831       	74.60586       	74.37495       	74.61538       	74.759995      	74.354996      	74.61914       	74.61406       	74.49841       	74.40911       	74.242455      	74.856995      	74.54069       	74.66368       	74.81884       	71.56073       	72.95992       	73.01086       	73.59326       	74.352394      	74.54575       	74.711365      	74.289116      	74.793915      	74.025185      	74.998955      	74.851685      	74.265495      	74.6768        	74.63141       	74.49007       	74.33778       	74.6465        	74.54286       	74.690605      	74.4716        	74.482414      	74.81679       	
74.5968        	74.61419       	74.695465      	74.65095       	74.44353       	74.24892       	74.77608       	74.80402       	74.27897       	74.583534      	74.7349        	74.29068       	74.546036      	74.5651        	74.15633       	74.79832       	74.11126       	74.57729       	74.80783       	74.548325      	74.44667       	74.67067       	74.51948       	74.77205       	74.24886       	74.13972       	74.58996       	74.72761       	74.663895      	74.53181       	74.575096      	74.43332       	74.80434       	74.2858        	74.7895        	74.43165       	74.551895      	74.53505       	74.67009       	74.49509       	74.786285      	74.00565       	74.54477       	74.698616      	74.46121       	74.656296      	74.29488       	74.25295       	74.95178       	74.85344       	74.2599        	74.867584      	74.51945       	74.766594      	74.63406       	74.323265      	74.35867       	74.74017       	74.48912       	74.7002        	74.431244      	74.736046      	74.18982       	74.43045       	74.64263       	74.54299       	74.50825       	74.145195      	74.595276      	74.62131       	74.43187       	74.45123       	74.73839       	74.70994       	74.60887       	74.616516      	74.36226       	72.04711       	72.916016      	73.11161       	73.31238       	74.278786      	74.957085      	74.489716      	74.131676      	74.838715      	74.21129       	74.96216       	74.38712       	74.60409       	74.50039       	74.52394       	74.573944      	74.78129       	74.4342        	74.249084      	74.63547       	74.91316       	74.58586       	74.16677       	
74.72117       	74.76439       	74.751045      	74.52307       	74.86909       	74.489204      	74.34106       	74.85932       	74.51358       	74.28373       	74.66713       	74.44589       	74.57474       	74.39977       	74.54352       	74.576385      	73.9541        	74.70978       	74.439865      	74.641685      	74.44235       	75.001595      	74.28732       	74.69197       	74.989815      	74.24235       	74.613266      	74.592316      	74.65226       	74.34061       	74.414116      	74.872475      	74.14448       	74.83836       	74.86807       	74.30161       	74.483826      	74.714676      	74.62572       	74.42241       	74.67158       	74.03869       	74.788826      	74.173904      	74.803566      	73.98649       	75.29332       	74.017845      	74.80796       	74.67501       	74.710526      	74.76296       	74.3622        	74.65951       	74.48271       	74.38867       	74.77332       	74.44134       	74.817856      	74.542114      	74.22306       	75.86251       	73.013084      	74.67364       	74.91458       	74.293335      	74.24408       	74.881996      	74.25674       	74.74542       	74.5029        	74.6392        	74.38088       	74.57864       	74.734695      	74.97345       	74.42465       	72.70199       	72.63852       	73.296         	73.2907        	73.56553       	74.4781        	74.33141       	74.68747       	74.77586       	74.4464        	74.66177       	74.2995        	74.99813       	74.32462       	74.34524       	74.69123       	74.49518       	74.67297       	74.72724       	74.52416       	74.71903       	74.35185       	74.90673       	
74.021866      	74.35723       	74.86356       	74.83507       	75.110306      	74.60496       	74.029274      	74.9417        	74.71964       	74.54794       	74.57287       	74.28906       	74.68676       	74.387886      	74.48993       	74.602196      	74.73306       	74.07051       	74.41273       	74.64649       	74.68407       	74.599625      	74.74959       	74.60073       	74.618935      	74.2333        	74.82227       	74.60717       	74.82192       	74.35918       	74.979355      	73.85218       	74.248146      	75.212776      	74.27841       	74.49789       	74.556         	74.388275      	74.55642       	74.46304       	74.57014       	74.37266       	74.49974       	74.65208       	74.668526      	74.32216       	73.75826       	73.202385      	73.65504       	74.12888       	75.18158       	75.49859       	75.57955       	75.512375      	73.256744      	74.2022        	74.16265       	74.54402       	74.593765      	74.14081       	74.97782       	74.08858       	75.10932       	74.30505       	74.904945      	74.372826      	74.117294      	74.37354       	74.80533       	74.62529       	74.302055      	74.83444       	74.37448       	74.83642       	74.51813       	74.35969       	74.69675       	73.84593       	71.84403       	73.0014        	72.80913       	73.5825        	74.39859       	74.87066       	74.86904       	74.41137       	74.33053       	74.4162        	74.48854       	75.27304       	74.80882       	74.188774      	74.652336      	74.52372       	74.629684      	74.27099       	74.50784       	74.659744      	74.62446       	74.67343       	
74.664665      	74.84399       	74.98187       	74.448425      	74.74827       	74.68328       	74.26155       	74.788216      	74.436676      	74.698944      	74.45054       	74.301445      	74.548035      	74.86982       	74.405556      	74.38499       	74.13684       	74.651276      	74.51151       	74.53784       	74.43667       	74.70014       	74.50082       	74.717224      	74.7038        	74.49215       	74.505035      	74.85397       	74.21926       	74.47683       	74.668846      	74.48445       	74.49872       	74.80891       	74.18276       	75.24201       	73.99395       	74.64278       	74.60149       	74.28325       	74.60418       	74.652756      	73.12822       	74.0685        	72.9734        	73.35698       	73.9682        	73.89837       	73.771         	74.24423       	74.789894      	75.38352       	76.47941       	76.27452       	79.460754      	73.28608       	74.17736       	74.592415      	74.352516      	74.49617       	74.61551       	74.194756      	74.28815       	74.78947       	74.757965      	74.16918       	74.80409       	74.47864       	74.18551       	74.6524        	74.75138       	74.367805      	74.34157       	74.453896      	74.92056       	74.41768       	74.48634       	74.21317       	71.5616        	73.09391       	73.29247       	73.57926       	73.94646       	74.55341       	75.320755      	73.54907       	75.364105      	74.28079       	74.48468       	74.65318       	74.76761       	74.54705       	74.64846       	74.42966       	74.50082       	74.632545      	74.59638       	74.55947       	74.674576      	74.46134       	
74.536385      	74.613144      	74.79175       	74.99479       	74.28312       	74.62659       	74.56386       	74.27274       	74.46665       	74.75964       	74.54134       	74.628044      	74.55752       	75.4723        	73.39412       	74.494835      	74.68207       	74.163216      	74.66745       	74.30682       	74.94715       	74.67729       	74.23919       	74.43759       	74.49808       	74.88928       	74.25866       	74.69789       	74.571205      	74.3477        	74.82048       	74.452805      	74.46615       	74.76337       	74.24115       	74.293144      	74.593475      	74.83384       	74.28651       	72.48454       	72.544495      	73.476036      	73.84122       	74.11511       	74.0233        	74.126205      	74.374344      	74.49745       	74.49453       	74.326355      	74.696594      	75.69286       	75.53682       	76.35756       	78.4783        	75.13822       	73.9481        	74.36672       	74.32295       	74.350815      	74.42678       	74.481064      	74.39822       	74.73389       	74.59438       	74.27127       	74.61444       	74.66577       	74.50522       	74.30258       	75.31232       	73.93214       	74.613365      	74.251595      	74.68545       	74.76069       	74.223114      	74.05989       	72.47478       	72.881165      	72.98202       	73.17113       	73.99067       	74.82799       	74.329056      	74.57248       	73.856125      	74.527016      	75.04938       	74.86521       	74.18638       	74.20954       	74.5661        	74.704834      	74.330574      	75.265465      	74.042984      	74.736244      	74.72882       	74.08          	
74.4871        	74.66631       	74.67544       	75.162476      	74.24349       	72.97144       	74.45985       	75.03316       	74.37809       	74.310875      	74.60058       	74.67226       	74.09263       	74.74623       	74.55282       	74.34355       	74.55831       	74.65724       	74.4256        	74.48357       	74.470375      	74.54563       	74.44599       	75.02278       	74.18192       	74.863174      	74.20051       	74.75851       	74.41976       	74.62556       	74.62734       	74.16565       	74.66321       	74.77771       	73.50615       	72.12305       	73.043015      	73.72337       	73.59788       	74.10412       	74.005165      	74.554825      	74.350525      	74.38456       	73.658264      	74.731606      	74.88276       	74.77923       	73.80996       	74.84652       	74.51333       	74.23228       	76.29196       	75.95029       	78.03138       	75.32737       	73.76056       	74.298065      	74.3262        	74.10511       	74.55624       	74.146385      	74.77897       	74.52674       	74.54886       	74.38357       	74.83943       	74.65204       	74.4807        	75.01025       	73.583916      	74.87799       	74.81767       	74.34358       	74.63868       	74.35824       	74.655014      	74.35537       	73.239265      	71.88981       	73.245224      	72.92225       	73.6757        	74.305336      	74.829         	74.96216       	74.23727       	74.637596      	74.16041       	74.76669       	74.44285       	74.278366      	75.30379       	74.59239       	74.28304       	74.84388       	74.35601       	74.53508       	74.57455       	74.318665      	
74.654976      	74.6443        	74.66693       	74.684456      	74.53282       	74.740364      	74.8737        	73.9603        	74.76173       	74.65675       	74.35845       	74.690895      	74.400505      	74.64114       	74.3847        	74.528755      	74.78239       	74.26604       	74.28803       	74.56283       	74.79194       	74.34762       	74.57982       	74.94783       	74.32157       	74.54953       	74.38079       	74.72826       	74.3109        	74.49216       	72.44105       	72.88827       	73.12278       	73.8962        	72.89158       	73.80691       	74.26011       	74.70887       	74.22954       	74.90958       	74.558235      	74.651596      	74.369125      	74.31557       	74.60101       	74.480225      	74.3474        	74.713         	74.29707       	74.35887       	74.606155      	75.05614       	75.68864       	76.13635       	77.66421       	75.63498       	74.89861       	73.84131       	74.58157       	74.45036       	74.10343       	74.83178       	74.38944       	74.57039       	74.80252       	74.30171       	73.8857        	74.690865      	74.739265      	74.203735      	74.75837       	74.49757       	74.58186       	74.54856       	74.34578       	74.72575       	74.28986       	74.36092       	73.91644       	72.19019       	72.746506      	73.07146       	73.352165      	74.69838       	74.67113       	73.92918       	74.37372       	74.633385      	74.97182       	74.665375      	74.11036       	74.91542       	74.13911       	74.48812       	74.43062       	74.50337       	75.13922       	74.37507       	74.5062        	74.287636      	
74.58614       	74.54432       	74.576584      	74.710205      	74.78514       	74.8683        	74.22627       	74.28309       	74.59834       	74.72239       	74.459946      	74.409004      	74.71539       	74.459595      	74.69472       	73.94677       	74.641914      	74.672066      	74.697426      	74.15764       	74.59698       	74.95766       	74.15064       	74.66358       	74.59032       	73.83105       	72.550316      	72.39648       	73.28345       	73.37044       	73.632385      	74.79137       	74.11745       	74.70272       	73.83283       	75.1457        	73.87171       	74.52157       	75.0406        	74.41597       	74.805885      	74.22112       	74.65519       	74.52743       	74.45674       	74.59888       	73.88603       	74.25709       	76.05771       	73.62187       	75.032104      	74.725105      	75.29033       	76.173615      	76.491905      	77.379684      	75.71456       	73.86158       	74.35024       	74.4177        	74.23862       	74.478355      	74.89902       	74.24164       	74.1333        	74.617645      	74.40276       	74.44651       	74.60176       	74.57728       	74.84414       	74.47045       	74.1813        	74.6461        	74.603455      	74.39277       	74.33239       	74.980034      	73.95863       	71.79425       	73.12641       	73.08933       	73.11971       	74.3495        	74.56007       	75.023575      	74.09213       	74.93544       	74.26813       	74.95957       	74.11843       	74.42539       	75.26198       	73.905846      	74.2714        	74.86912       	74.3192        	74.66445       	74.63812       	74.06136       	
74.269875      	74.73374       	74.87899       	74.57322       	74.65093       	74.78168       	74.42151       	74.4007        	74.57081       	74.82185       	74.286194      	74.4919        	74.24163       	74.90794       	74.432434      	74.24726       	75.03342       	74.39689       	73.85419       	74.063324      	75.23568       	74.36177       	73.61192       	72.25205       	73.005394      	73.40993       	73.82352       	74.55887       	74.44463       	74.07487       	74.28405       	74.70693       	75.04611       	74.30113       	74.41831       	75.145485      	74.011795      	74.40645       	74.481445      	74.62466       	74.69778       	74.66898       	74.27385       	74.64508       	74.66118       	74.651825      	74.73105       	74.292625      	74.59455       	74.64958       	74.641136      	74.0478        	75.066475      	76.12435       	76.36681       	78.42176       	73.39177       	73.75505       	74.19293       	74.05248       	74.19872       	74.315285      	74.73323       	74.17982       	75.05183       	73.869484      	74.66362       	74.58615       	74.85255       	74.20154       	74.840866      	74.52955       	74.569214      	73.85784       	74.60766       	75.1649        	74.26506       	74.18685       	74.39125       	72.15515       	72.95754       	73.08004       	73.42344       	73.981575      	74.457085      	75.063736      	75.58624       	73.37272       	74.73324       	74.4191        	74.2628        	74.81831       	74.50426       	74.245926      	74.738785      	74.25138       	74.344055      	74.29794       	74.97465       	74.31439       	
74.624626      	74.63719       	74.79208       	74.60024       	74.87778       	74.13312       	74.87605       	74.46903       	74.48938       	74.39898       	74.065094      	75.17823       	74.70421       	74.18959       	74.65574       	74.53211       	74.33263       	74.831604      	70.13688       	71.96117       	73.7421        	73.51364       	73.82809       	74.38811       	73.800255      	74.465004      	74.69732       	74.93539       	74.15709       	74.77927       	74.75152       	74.48447       	74.49739       	74.62318       	74.53827       	74.46973       	74.49056       	74.73197       	74.58112       	74.377235      	74.95573       	74.32117       	75.00006       	74.08057       	74.38532       	74.95704       	74.33799       	74.64659       	74.715355      	74.16745       	74.73946       	74.53005       	74.61549       	76.17268       	75.93439       	78.27902       	74.9671        	72.93371       	74.94344       	74.30118       	74.066345      	74.41589       	74.814766      	74.18632       	74.473335      	74.76415       	74.099396      	74.55664       	74.770134      	74.326324      	74.78684       	74.26911       	74.48745       	74.03096       	74.24962       	74.86229       	74.13094       	75.15086       	74.36772       	72.6356        	72.85981       	73.12366       	73.08871       	74.458595      	74.52441       	74.19983       	75.98823       	75.41559       	72.78182       	74.39704       	73.95865       	74.404785      	74.59406       	74.62383       	75.000175      	74.135864      	74.34403       	74.57676       	74.60126       	75.1964        	
74.50055       	74.96419       	74.79123       	74.37239       	74.516815      	74.78467       	74.40714       	74.54825       	74.54253       	74.46683       	74.50277       	74.12145       	75.09327       	74.304245      	74.545105      	74.11651       	74.78986       	71.59382       	71.71688       	72.67317       	74.573784      	75.119026      	74.00507       	74.41615       	74.69147       	74.357544      	74.53037       	74.993416      	74.81961       	74.39349       	74.6286        	74.245926      	74.7181        	74.33788       	74.570175      	74.325874      	74.96557       	73.93213       	74.97342       	74.44676       	74.7242        	74.139725      	74.639404      	74.71303       	74.61094       	74.63841       	74.46309       	74.48527       	74.597786      	74.55175       	74.3835        	74.74318       	74.86558       	75.796295      	76.03969       	78.04901       	75.60139       	74.178024      	74.43168       	74.2639        	74.5273        	74.17352       	74.63935       	74.51534       	74.65665       	74.611595      	74.11815       	74.34342       	74.727806      	74.46357       	74.34235       	74.623825      	74.22209       	74.47713       	74.85115       	74.77821       	74.343506      	74.4636        	74.60522       	73.51807       	71.708984      	73.49384       	73.50096       	73.224304      	74.16685       	74.88          	74.50772       	75.08038       	74.15597       	74.22179       	74.73795       	74.38211       	74.846924      	74.584366      	73.87644       	74.54455       	74.9943        	74.49321       	74.28929       	74.641754      	
74.534615      	74.578415      	74.664986      	74.65395       	74.52834       	74.99215       	73.96031       	74.46877       	74.62118       	74.69602       	74.016335      	74.982445      	74.48519       	74.642166      	74.49369       	74.471085      	72.17089       	72.00708       	73.364365      	73.48411       	74.28762       	75.14614       	75.87103       	74.24367       	73.31195       	74.29034       	75.187386      	74.244156      	74.7387        	74.13137       	74.70218       	74.257256      	74.55354       	74.88277       	74.39886       	74.823395      	74.17682       	74.62154       	74.22442       	74.397934      	74.47679       	74.20643       	74.59607       	74.76193       	74.58312       	74.596214      	74.28298       	74.56455       	74.59206       	74.665924      	74.448654      	74.66302       	74.50257       	75.4318        	76.23475       	76.9831        	76.88598       	75.83252       	73.65377       	74.268585      	74.620094      	74.36955       	74.37044       	74.80561       	73.920784      	74.94039       	74.51647       	74.43669       	74.39234       	75.03865       	73.963005      	75.03511       	74.19324       	74.00979       	74.844185      	73.81006       	74.64483       	74.95225       	74.711395      	73.6728        	72.07208       	72.841         	73.2285        	73.51239       	74.4751        	74.33528       	74.73166       	74.379745      	74.60845       	74.55901       	74.38457       	74.957794      	74.657074      	74.25141       	74.32309       	74.91348       	74.22563       	74.56629       	74.58398       	75.008316      	
74.65437       	74.606995      	74.652         	74.70165       	74.56373       	74.6849        	74.48537       	74.70333       	73.90184       	74.92073       	74.48243       	74.43246       	75.01029       	74.19743       	74.56303       	74.248535      	71.36089       	72.900314      	73.42705       	73.10087       	74.106544      	74.49255       	74.44392       	74.90468       	74.59236       	74.30493       	75.1296        	74.32813       	74.71628       	74.39549       	74.71899       	74.51549       	74.935394      	74.290344      	74.5816        	74.36438       	74.58015       	74.61044       	74.410576      	74.61591       	74.418945      	74.571         	74.43097       	74.56522       	74.63806       	74.81733       	74.164734      	74.64265       	74.74815       	74.378914      	74.57224       	74.47215       	74.4076        	75.547615      	76.42368       	76.68785       	76.69557       	75.413704      	73.78876       	74.77371       	74.12315       	74.20207       	74.16976       	75.27183       	74.52817       	74.03256       	74.44475       	74.71204       	74.445625      	74.34622       	74.46931       	74.18014       	74.80651       	75.10049       	74.45084       	74.4676        	74.46818       	74.64584       	74.4102        	74.70283       	72.92882       	72.02559       	73.23548       	72.83825       	73.91535       	74.992455      	74.453156      	74.31997       	74.668045      	74.98651       	74.70688       	74.72588       	74.26221       	74.60663       	74.506775      	74.46129       	74.65847       	74.79549       	74.318535      	74.6614        	
74.86783       	74.69405       	74.53859       	74.471306      	74.311646      	74.60531       	74.56631       	74.574875      	74.59678       	74.76417       	74.5017        	73.938835      	74.835724      	74.649605      	74.58513       	74.6461        	72.798805      	72.05805       	72.971375      	73.42561       	73.640274      	74.877235      	74.69461       	74.63032       	75.546234      	73.38077       	74.89331       	74.34359       	74.70458       	74.2236        	74.86933       	74.44312       	74.52656       	74.73255       	74.74705       	74.26022       	74.664505      	74.38897       	74.69722       	74.65581       	74.312325      	74.66167       	74.404335      	74.67972       	74.54769       	74.75295       	74.12191       	74.94302       	74.34356       	74.66359       	74.49373       	74.177536      	74.57655       	75.252174      	76.085556      	76.454834      	76.698524      	76.340904      	73.322716      	74.963066      	74.22294       	74.5838        	74.08012       	74.14734       	74.67362       	74.51796       	74.29879       	74.88628       	74.079796      	74.07637       	74.10987       	74.839325      	74.75112       	74.59905       	74.31306       	75.06276       	74.33366       	74.63397       	74.618774      	74.1838        	73.71253       	71.70275       	73.100395      	73.257164      	73.72538       	74.67375       	74.11931       	75.15307       	74.475296      	74.54703       	74.56867       	74.7562        	74.27377       	74.64436       	74.43116       	74.9725        	74.087395      	74.411964      	74.65396       	74.43326       	
74.47306       	74.55039       	74.43351       	74.70543       	74.51252       	74.2898        	74.7713        	74.86851       	74.157715      	74.8069        	74.38357       	74.45342       	74.71117       	74.60087       	74.099495      	74.80845       	73.86354       	71.65556       	73.297         	73.2353        	73.30192       	74.65869       	74.70774       	74.48752       	74.69144       	74.35253       	74.6634        	74.547844      	74.39721       	74.5661        	74.69554       	74.58248       	74.49848       	75.04055       	74.2082        	74.5382        	74.59206       	74.35861       	74.69926       	74.520485      	74.57621       	74.49552       	74.80384       	74.27902       	74.629105      	74.30971       	74.3155        	74.7642        	74.67919       	74.479614      	74.60136       	74.45372       	74.75492       	74.4429        	75.56387       	76.65558       	77.7214        	76.54099       	73.17695       	74.12291       	74.78875       	74.31944       	74.40154       	74.41575       	74.61903       	74.057846      	74.882996      	74.87181       	73.822495      	74.53716       	74.635414      	74.67799       	74.33803       	74.71142       	74.56019       	74.389496      	74.748955      	73.84053       	75.06495       	74.65874       	73.620415      	71.87898       	72.97863       	72.94354       	73.64962       	74.64732       	74.19238       	74.49268       	74.75976       	74.38804       	74.82318       	74.4487        	74.63329       	74.5347        	74.19901       	74.25952       	74.78008       	74.68255       	74.42934       	74.47246       	
74.72615       	74.86011       	74.4241        	74.1692        	74.53158       	74.33917       	74.306854      	74.461395      	74.75497       	74.68877       	74.40765       	74.585884      	74.53052       	74.55576       	74.81626       	74.44769       	74.27985       	71.96313       	72.452866      	73.34192       	73.037415      	74.335335      	74.555565      	74.61259       	74.66578       	73.74557       	74.19202       	74.62036       	74.88851       	75.009674      	74.80486       	73.2963        	74.88097       	75.02344       	73.93479       	75.00886       	74.46199       	74.74977       	74.55863       	74.66133       	74.24648       	74.60758       	74.91086       	74.51578       	74.46171       	74.44002       	74.61103       	74.52221       	74.45897       	74.753174      	74.480385      	74.60185       	74.62824       	74.72641       	75.60399       	76.041664      	76.83087       	77.476845      	74.56552       	73.97951       	74.553734      	74.400055      	74.246956      	74.54397       	74.33364       	75.07351       	74.11729       	74.705124      	74.55647       	74.30977       	74.58613       	74.18568       	75.009155      	74.550186      	74.4511        	74.51965       	74.806076      	74.50491       	74.27778       	74.73083       	73.96613       	71.81795       	73.01641       	73.17857       	73.38904       	74.12165       	74.68492       	74.60214       	74.41885       	75.00417       	74.353         	74.62494       	74.59247       	74.426414      	75.40519       	74.29953       	74.415825      	74.456696      	74.77922       	74.476364      	
74.51025       	74.58245       	74.646805      	74.764404      	74.67733       	74.438354      	74.90555       	74.20489       	74.52064       	74.72391       	74.482315      	74.527466      	74.5728        	74.67672       	75.125565      	73.88271       	74.5244        	72.98545       	72.13919       	72.99054       	72.94064       	73.97824       	74.24187       	74.96006       	74.8488        	74.707756      	74.19538       	74.637314      	74.465576      	74.53288       	74.87547       	74.489494      	73.72788       	75.27599       	74.667404      	74.41132       	74.51177       	74.84177       	74.437706      	74.43663       	74.75602       	74.27315       	75.05926       	74.44812       	74.35536       	74.68396       	74.23594       	74.53328       	74.66223       	74.57284       	74.52436       	74.720085      	74.16085       	74.819885      	75.2745        	75.92204       	76.93548       	76.899         	75.59858       	73.65706       	74.35126       	74.39096       	74.39094       	74.34092       	74.75396       	74.55926       	74.448616      	74.46705       	74.183846      	74.5764        	74.65784       	74.57212       	74.3796        	74.74598       	74.09386       	74.69628       	74.317184      	74.96234       	74.36918       	74.91241       	74.223145      	71.940674      	72.92572       	72.72529       	73.15038       	74.43394       	74.29162       	74.64304       	74.74227       	74.57942       	74.76381       	74.26014       	74.88788       	74.316185      	74.3488        	74.28178       	75.014404      	74.7024        	74.59868       	74.62522       	
74.591324      	74.745964      	74.58234       	74.54272       	74.61423       	74.45023       	74.56988       	74.88254       	74.03125       	74.851364      	74.56382       	74.33057       	74.795654      	74.54514       	74.479065      	74.42124       	74.56308       	73.68722       	71.69281       	73.25265       	72.855934      	74.00979       	74.44168       	74.397156      	75.314316      	74.115105      	74.665764      	74.4605        	74.86173       	74.39741       	74.81529       	74.07065       	74.53164       	74.80613       	74.39246       	74.93326       	74.43425       	74.335266      	74.708336      	73.94114       	75.154854      	74.38454       	74.66733       	74.51029       	74.50309       	74.8153        	74.47235       	74.46029       	74.78465       	74.38567       	74.52428       	74.653915      	74.289764      	74.38544       	75.04953       	76.13204       	76.175255      	78.073975      	76.729904      	73.15017       	73.708374      	75.29606       	74.44066       	74.16387       	74.24854       	74.72913       	75.02976       	74.300354      	74.32913       	74.72659       	74.6069        	74.45487       	74.422356      	74.64249       	74.49809       	74.258255      	74.656555      	74.79049       	73.392624      	75.163284      	74.308266      	72.501686      	72.82626       	73.3265        	72.977745      	73.97267       	74.372         	74.58559       	74.60213       	74.41616       	74.64988       	74.33191       	74.803406      	74.55909       	74.37877       	74.87937       	74.093124      	74.855125      	74.429726      	74.868805      	
74.73108       	74.58088       	75.29589       	74.7109        	74.57528       	74.93983       	74.54423       	74.22464       	74.58278       	74.840195      	74.44555       	74.723175      	74.70869       	74.53552       	74.350494      	74.618614      	74.57055       	74.20235       	71.39404       	72.88875       	73.037994      	73.49928       	74.417046      	74.10855       	75.06368       	74.841446      	74.35649       	74.68374       	74.6293        	74.3944        	74.7871        	73.924385      	74.59095       	74.718834      	74.82561       	74.57964       	74.44412       	74.82058       	74.571106      	74.284645      	74.78172       	74.28464       	74.59729       	74.601524      	74.33641       	75.05388       	74.151505      	75.01807       	74.291046      	74.36826       	74.366554      	74.95153       	74.67653       	74.19425       	74.511086      	75.68075       	75.947205      	77.88056       	77.34937       	73.122894      	74.22774       	74.23866       	74.66127       	73.891136      	74.61822       	74.12764       	74.39906       	74.624886      	75.34165       	74.480835      	74.19669       	74.22248       	74.063354      	74.606155      	75.53483       	73.8565        	74.487236      	74.57489       	74.874535      	74.27269       	74.79412       	72.364006      	72.692856      	72.93026       	73.39559       	73.22626       	74.66773       	74.8369        	74.53846       	74.81366       	73.8645        	74.84252       	74.85845       	74.70015       	74.49628       	74.16573       	74.88877       	74.83111       	74.806915      	74.05932       	
74.61806       	74.88192       	74.627754      	74.15993       	74.45052       	74.54996       	74.43368       	74.44397       	74.523544      	74.62402       	74.75528       	74.55529       	74.2972        	74.64227       	74.48683       	74.51081       	74.32084       	74.162636      	71.84442       	72.89246       	73.42825       	73.409836      	73.978386      	74.59049       	75.126915      	74.39247       	74.536476      	74.4663        	74.65983       	74.52859       	74.20524       	74.732         	74.7979        	74.37917       	74.71291       	74.51303       	74.57921       	74.36465       	74.80856       	74.412445      	74.623985      	74.70114       	74.4029        	74.691666      	74.346245      	74.573586      	74.88439       	74.403564      	74.852066      	74.56505       	74.35853       	74.579346      	74.26254       	75.03694       	74.06238       	75.60104       	76.3672        	77.60799       	76.04663       	74.55467       	73.54986       	74.53562       	74.26498       	74.88945       	73.963264      	74.65016       	74.69869       	74.49293       	73.936646      	74.08947       	74.85458       	74.49885       	74.62918       	74.63479       	74.86457       	74.41437       	74.65421       	74.69817       	74.10515       	74.83849       	74.709114      	73.08292       	71.87118       	72.98333       	73.39308       	73.40676       	74.18181       	75.03591       	74.1779        	74.156425      	75.206856      	74.47887       	73.92762       	74.35177       	74.451195      	74.49602       	74.99876       	74.04484       	75.02275       	74.486855      	
74.60277       	74.651184      	74.59508       	74.433556      	74.26742       	74.62055       	74.48651       	74.64452       	74.71081       	74.60602       	74.190605      	74.54476       	74.69275       	74.39896       	74.595726      	74.54141       	74.32613       	74.546394      	72.685135      	72.21966       	73.12518       	73.04256       	73.87227       	74.41528       	74.419044      	74.88519       	73.83434       	74.68058       	74.44091       	74.75989       	74.59806       	74.59023       	75.39162       	73.719284      	74.76964       	74.79132       	74.36716       	74.65012       	74.41399       	74.88429       	74.45148       	74.608         	74.73355       	74.17409       	74.89019       	74.61133       	74.43322       	74.56072       	74.31001       	74.63992       	74.67634       	74.41599       	75.00201       	74.30477       	74.287445      	75.31467       	76.851456      	76.13259       	76.163864      	75.85419       	73.80502       	74.26135       	73.88114       	74.486336      	75.01563       	73.83005       	75.000694      	74.736145      	74.57668       	74.52245       	74.86344       	74.59736       	74.18643       	73.82962       	75.19345       	74.20835       	73.65175       	75.35039       	74.425835      	74.45276       	74.20258       	74.697426      	72.097824      	72.91467       	73.05594       	73.03281       	74.344086      	74.64879       	74.29189       	74.48052       	74.54338       	74.66139       	74.6831        	74.30546       	74.7691        	74.627914      	74.73904       	74.33456       	74.35287       	75.29648       	
74.72476       	74.7481        	74.58498       	74.46102       	74.561165      	74.687256      	74.31707       	74.54313       	74.17757       	74.83493       	74.762         	74.546135      	73.96193       	74.455086      	74.55544       	74.95707       	74.36667       	74.382286      	73.007385      	72.437035      	73.24313       	73.23912       	73.474556      	74.352806      	74.08039       	75.47851       	74.10785       	74.17861       	74.231766      	74.55774       	75.19629       	74.22527       	74.80728       	74.22144       	74.548134      	74.545044      	74.751045      	74.6734        	74.59878       	74.45286       	74.35835       	75.0972        	74.37093       	74.47167       	74.67033       	74.60078       	74.24443       	74.5798        	74.6355        	74.79993       	74.21538       	74.95479       	74.29992       	74.67586       	74.61411       	74.27135       	75.75837       	76.26272       	77.44112       	78.05267       	73.428665      	73.95464       	74.47314       	74.49579       	74.62065       	74.4839        	74.46843       	74.30766       	74.57077       	74.785706      	74.3363        	74.52723       	74.397026      	74.677734      	75.06361       	74.118         	73.92667       	74.938705      	74.2057        	74.95436       	74.34114       	74.54117       	72.31189       	72.290436      	73.156364      	73.36244       	74.28415       	74.37126       	74.33244       	75.148415      	74.494774      	74.52053       	74.76363       	74.586426      	74.40228       	74.581795      	74.49172       	74.34747       	74.93846       	74.4138        	
75.27865       	75.11573       	74.739944      	74.44468       	74.22213       	74.737915      	74.503624      	74.25564       	74.797775      	74.27585       	74.30312       	74.780525      	74.46654       	74.14056       	74.84975       	74.803444      	74.407875      	74.58814       	73.636925      	71.855         	73.24853       	73.350044      	73.26282       	74.30035       	74.65388       	74.53023       	74.67133       	74.26572       	74.374825      	74.91214       	74.79943       	74.78459       	74.79204       	74.393135      	74.736084      	74.53499       	74.44976       	74.755005      	74.704216      	74.50147       	74.482635      	74.67202       	74.49941       	74.76058       	74.51944       	74.39375       	74.43296       	74.87491       	74.54531       	74.27856       	74.49133       	75.19729       	74.187546      	74.60374       	74.4908        	74.49767       	75.91662       	76.42583       	75.674484      	78.10301       	74.3245        	73.75637       	74.3025        	74.63154       	74.80619       	74.49987       	74.31179       	74.70289       	74.42818       	74.58003       	74.208626      	74.53521       	74.9976        	74.07063       	74.37159       	74.66051       	74.325806      	74.80128       	74.44937       	74.591934      	74.62406       	74.597786      	71.985954      	73.10179       	73.36322       	73.54675       	73.40028       	74.22811       	74.53257       	74.45187       	74.6001        	74.23426       	74.389824      	74.50895       	74.640144      	74.934586      	74.631935      	74.80503       	74.90858       	74.4406        	
74.585106      	74.99401       	74.5462        	74.7505        	74.59674       	74.19445       	74.38983       	74.786224      	74.42657       	74.39471       	74.87581       	74.26405       	74.59677       	74.847694      	74.403076      	74.60461       	74.44044       	74.44016       	74.669846      	71.55999       	72.97719       	73.27678       	73.08153       	74.21553       	74.66175       	75.051994      	74.136116      	74.641495      	74.435326      	74.34249       	74.82764       	74.328064      	74.9031        	74.60597       	74.22083       	74.7032        	74.541435      	74.540115      	74.73089       	74.44292       	74.474365      	74.60758       	75.73474       	73.23567       	74.691345      	74.78177       	74.281685      	74.655655      	74.738464      	74.6976        	74.60616       	74.47275       	74.248924      	75.059616      	74.500114      	74.21799       	75.47666       	75.61841       	77.320404      	75.979294      	76.594345      	73.14129       	74.19622       	74.89794       	74.202576      	74.51846       	74.17856       	74.57512       	74.8869        	74.67509       	74.53723       	74.38966       	74.65587       	74.845215      	74.06636       	75.07118       	74.3328        	74.4169        	74.502785      	74.03744       	74.755104      	74.4541        	73.20322       	72.013535      	73.23103       	73.12742       	73.456215      	74.5013        	74.57133       	74.54342       	74.62358       	74.70007       	74.843956      	74.6438        	74.61451       	75.47555       	74.88528       	75.30227       	74.96176       	74.45558       	
74.49306       	74.57141       	74.82865       	74.58335       	74.15686       	74.77608       	75.027565      	74.28845       	74.540146      	74.417625      	74.575165      	75.140366      	74.16056       	74.72402       	74.068665      	74.92432       	74.71416       	73.94932       	75.27196       	71.0379        	72.690926      	73.46599       	73.0579        	74.44073       	75.14095       	74.1582        	74.976845      	74.459465      	74.33086       	74.5885        	74.554855      	75.29011       	73.61976       	74.960236      	74.499176      	74.48432       	74.63112       	74.80805       	73.891396      	74.451355      	74.987755      	74.46042       	74.25498       	74.7731        	74.5985        	74.36784       	74.77551       	74.51168       	74.80374       	74.69856       	74.439384      	74.574974      	74.3324        	74.61966       	74.90249       	74.301674      	75.266685      	76.09746       	76.17813       	77.30359       	76.894005      	72.90403       	74.05274       	74.49271       	74.28226       	74.61429       	74.53949       	74.479126      	74.676125      	74.226425      	74.23206       	74.8184        	74.54836       	74.57411       	74.44595       	74.23733       	74.80803       	74.5843        	74.41468       	74.65765       	74.063995      	74.51614       	74.33902       	71.79578       	73.02586       	73.291626      	73.46825       	73.97024       	74.600105      	74.83061       	74.30897       	74.76624       	74.88016       	75.723236      	73.663734      	75.15495       	75.17047       	75.34791       	74.68788       	75.21661       	
74.42661       	74.83292       	74.6649        	74.24351       	74.73949       	74.48054       	74.49745       	74.555336      	74.71363       	75.146164      	73.951866      	74.63823       	74.31595       	74.61882       	74.250496      	74.51641       	74.91192       	74.08356       	74.741104      	72.46825       	72.41592       	73.084435      	73.714714      	73.61175       	74.3437        	75.38562       	74.268456      	73.66212       	74.42667       	74.79077       	74.95627       	73.71667       	74.701805      	74.41932       	74.749626      	74.64494       	74.635994      	74.55792       	74.35374       	74.88127       	74.33795       	74.788506      	74.515625      	74.45762       	74.6247        	74.79147       	74.3822        	74.36023       	74.57406       	74.510284      	74.5893        	74.52507       	74.49392       	74.671074      	74.63508       	74.13862       	74.90812       	76.4922        	76.25238       	76.96459       	76.08878       	73.253685      	73.96765       	74.2574        	74.9707        	74.53128       	74.14808       	74.14183       	74.81381       	74.57552       	74.027626      	74.79619       	74.54225       	74.49678       	74.67856       	74.56403       	74.4759        	74.668335      	74.38043       	74.391525      	74.35638       	74.57323       	74.68437       	71.995026      	72.85955       	74.04317       	73.804344      	74.05217       	74.59162       	73.7879        	75.17168       	75.48482       	74.319725      	73.87104       	74.01485       	74.55841       	75.1675        	74.04185       	74.62965       	76.39597       	
74.67014       	74.82725       	75.05252       	74.551765      	74.338394      	74.55299       	74.494484      	74.33109       	74.557335      	74.54653       	74.63293       	74.35713       	74.72428       	74.67032       	74.30847       	74.42153       	75.00133       	74.44186       	74.04592       	73.980194      	72.230125      	73.119675      	73.31399       	73.31255       	74.095604      	74.74364       	75.04894       	76.33482       	72.87904       	74.58301       	74.94286       	74.409485      	73.80757       	74.82366       	75.06284       	74.07949       	74.31297       	74.71504       	74.36062       	74.88933       	74.29324       	74.49215       	74.495514      	74.43307       	74.76772       	74.432236      	74.849144      	74.54708       	74.79326       	74.38417       	74.420395      	74.57028       	74.529335      	74.48114       	74.50334       	74.71403       	74.563576      	76.122086      	76.6106        	77.02355       	76.944176      	73.40025       	74.1752        	74.48494       	74.1725        	74.25177       	74.84173       	74.65493       	74.22488       	74.46978       	74.28663       	74.440186      	74.410965      	74.880486      	74.62111       	74.558716      	74.66907       	74.34405       	74.66659       	74.406296      	74.796104      	74.48582       	74.471825      	74.40989       	73.457985      	73.17109       	73.76087       	74.20303       	72.94567       	75.13867       	73.41222       	75.04163       	74.13469       	75.02796       	74.051834      	75.14478       	74.23757       	75.3034        	74.806015      	76.64813       	
74.40826       	74.8129        	74.68586       	74.377304      	74.75673       	73.81976       	74.555855      	74.5575        	74.400604      	74.517166      	74.78417       	74.40592       	75.02477       	73.97508       	74.53807       	74.58859       	74.76373       	74.316635      	74.60007       	74.606964      	72.17474       	72.92185       	72.91327       	73.30545       	73.86647       	74.85509       	74.38194       	74.79798       	73.991776      	74.72072       	74.65481       	74.642         	74.64463       	74.599976      	74.87706       	74.50908       	74.43471       	74.58996       	74.587364      	74.41523       	74.66344       	74.5017        	74.5354        	74.35317       	75.06664       	74.17152       	74.44992       	74.818886      	74.48031       	74.65789       	74.51581       	74.3296        	74.76758       	74.33597       	74.55567       	74.900764      	74.35422       	75.3549        	76.32497       	77.39153       	76.03021       	73.61776       	74.06815       	74.34635       	74.19176       	74.507065      	74.66228       	74.43029       	74.51068       	74.45444       	74.39374       	74.529396      	74.66898       	74.12711       	74.58876       	74.924416      	74.26162       	74.43775       	74.75481       	74.08223       	74.55915       	74.988304      	74.18607       	74.392975      	75.00635       	74.00475       	73.48938       	74.23884       	74.60078       	73.97961       	74.905426      	75.18723       	74.46346       	74.82694       	75.54103       	74.55221       	75.45392       	75.123695      	72.663246      	74.381165      	
74.35786       	74.77402       	74.98396       	74.478806      	73.765915      	74.97795       	74.82006       	74.533165      	74.20749       	74.826256      	74.77755       	74.26466       	74.20479       	74.488815      	75.0143        	74.02977       	74.69759       	74.328865      	74.56589       	74.57639       	73.58592       	72.04416       	72.904884      	72.86494       	73.90029       	74.78589       	74.95166       	74.024895      	74.62658       	74.50534       	74.78204       	74.57331       	74.506294      	74.73065       	74.421776      	74.42426       	74.48838       	74.83443       	74.29421       	74.482956      	74.551476      	74.674324      	74.49009       	74.49256       	74.95087       	74.42025       	74.540726      	74.65422       	74.523186      	74.397095      	74.59582       	74.52971       	74.41836       	74.67506       	74.43193       	74.65149       	74.27726       	75.31633       	77.0675        	75.620926      	76.83699       	74.5972        	73.73205       	74.17906       	74.65292       	74.255745      	74.654305      	74.21616       	74.5462        	74.36649       	74.45612       	74.682175      	74.50704       	74.73038       	74.44324       	74.74468       	74.01562       	74.78459       	74.91183       	74.26772       	74.664986      	74.732124      	74.28022       	74.74104       	74.17955       	74.732         	74.62022       	74.525764      	74.58187       	74.310394      	75.135506      	74.52369       	73.98635       	74.54895       	73.93948       	74.21567       	74.810036      	74.377335      	74.74445       	73.986435      	
74.25427       	74.987755      	74.430664      	74.49653       	73.680084      	74.42819       	74.0523        	74.47407       	75.19061       	74.324356      	74.3685        	73.8046        	75.166405      	74.38709       	74.16314       	74.36607       	74.69563       	74.10781       	74.32576       	74.10063       	73.73686       	71.696106      	73.393616      	73.43986       	73.38862       	74.088036      	75.21863       	75.18522       	73.30538       	73.8758        	74.97857       	74.89986       	74.13142       	74.17831       	74.76362       	74.79551       	74.9424        	74.366135      	73.9996        	74.74788       	74.25328       	74.08376       	74.29336       	74.45771       	74.84979       	74.58477       	74.70899       	73.79665       	75.2953        	74.73446       	74.34032       	74.40835       	74.55687       	74.58558       	74.67373       	74.371506      	74.64068       	74.81468       	76.06792       	76.088524      	77.43155       	76.66465       	73.33205       	73.841705      	74.14504       	74.88457       	74.43958       	73.85412       	74.955376      	74.44446       	74.470345      	74.282486      	74.254166      	74.885994      	74.64181       	74.22019       	74.63052       	74.51117       	74.53116       	74.66149       	74.14277       	75.04181       	73.93859       	74.991035      	74.575455      	74.05185       	74.70462       	74.57185       	74.28371       	74.49557       	74.79089       	74.29381       	74.35431       	74.45109       	74.912575      	74.66337       	74.43486       	74.557304      	74.06126       	74.62683       	
74.509254      	74.50728       	74.72107       	74.589745      	74.950294      	74.47398       	74.024376      	74.322586      	74.82258       	74.591156      	74.44011       	75.13611       	74.14384       	74.83182       	73.92742       	75.064896      	74.27589       	75.09984       	74.08209       	74.355515      	74.37748       	71.59907       	72.7484        	73.07108       	73.485596      	74.46451       	74.764206      	74.34963       	74.6011        	74.62155       	74.46361       	74.74893       	74.297874      	74.850494      	74.37441       	74.58989       	74.55886       	74.512474      	74.49892       	74.47751       	74.74876       	74.358864      	74.689316      	74.48556       	74.83287       	74.487434      	74.50513       	74.40479       	74.63954       	74.624886      	74.364365      	74.54746       	74.702484      	74.45635       	74.19107       	74.87237       	74.3504        	74.533424      	75.74453       	75.750565      	77.691154      	76.726265      	74.2886        	74.229355      	73.935905      	74.5455        	74.67517       	74.79838       	74.68461       	74.587036      	74.3066        	74.78108       	74.277916      	74.40546       	74.92003       	74.02168       	74.096245      	74.92105       	74.50492       	74.486885      	74.60154       	74.65279       	74.570114      	74.57694       	74.38165       	74.78745       	74.23847       	74.284676      	74.699455      	74.56754       	74.596115      	74.277664      	74.61535       	74.37787       	74.90131       	74.379105      	74.76848       	74.278755      	74.39268       	75.00536       	
74.659996      	74.82441       	74.64741       	74.41735       	74.34654       	74.44927       	74.41131       	74.73081       	74.31274       	74.59443       	74.67948       	74.73217       	74.50899       	74.5193        	74.49406       	74.75038       	74.13282       	74.79751       	74.246765      	73.93823       	75.10029       	71.66031       	73.165825      	73.44843       	73.16838       	74.215836      	74.4787        	74.57693       	74.71227       	74.326805      	74.645485      	74.198395      	74.58253       	74.61593       	74.777435      	74.317184      	74.760735      	74.51862       	74.98751       	74.0117        	74.725204      	74.55281       	74.63551       	74.18679       	74.77114       	74.674934      	74.56647       	74.632576      	74.51826       	74.45926       	74.615585      	74.94326       	74.32168       	74.311455      	74.68751       	74.93723       	74.02382       	74.32031       	75.763466      	75.59941       	76.980385      	77.50521       	75.33914       	73.80432       	74.36038       	74.36996       	74.435104      	74.638664      	74.53442       	74.281456      	74.542076      	74.58041       	74.31623       	74.94818       	74.24748       	74.51677       	74.7228        	74.73082       	74.33522       	74.99188       	74.10514       	74.57729       	74.39636       	74.49032       	74.47059       	74.74343       	74.298065      	74.72283       	73.97462       	74.8052        	74.64237       	74.62601       	74.56033       	74.43485       	74.712456      	74.30903       	74.48477       	74.61626       	74.41024       	74.62016       	
74.48482       	74.76029       	74.64733       	74.26181       	74.186035      	74.601944      	74.36293       	74.576416      	74.59953       	74.44216       	74.26208       	74.13917       	74.20215       	74.90232       	75.21182       	74.2487        	74.36627       	74.748825      	74.208305      	74.78212       	74.48753       	72.78928       	72.30324       	72.98021       	73.055145      	73.650444      	74.6902        	74.76093       	74.04887       	74.92291       	74.62739       	74.30878       	74.562935      	74.53041       	75.00731       	74.32611       	74.1101        	74.93787       	74.38276       	75.00262       	74.370255      	74.52586       	74.69925       	74.30258       	74.867935      	74.65178       	74.0005        	74.1786        	74.49953       	74.93046       	74.307144      	74.46308       	74.44918       	74.504776      	74.69253       	74.613434      	74.93649       	74.67579       	74.70715       	75.68233       	76.466415      	76.792435      	76.121895      	73.851524      	73.82074       	74.53149       	74.44646       	74.491585      	74.36358       	74.44978       	74.781845      	74.111565      	74.670906      	74.45631       	74.338524      	74.474976      	74.73604       	74.65128       	74.39176       	74.74598       	74.35776       	74.68828       	74.70482       	74.18649       	74.73398       	74.46434       	74.43029       	74.50168       	74.37705       	74.40297       	74.792114      	74.4935        	74.528885      	74.65808       	74.57826       	74.3636        	74.002655      	74.80333       	74.78828       	74.5991        	
74.431816      	74.7955        	74.72082       	74.39536       	74.45198       	74.32027       	74.41212       	74.64653       	74.78015       	74.572296      	74.50146       	74.45871       	74.44111       	74.82011       	74.36427       	74.394005      	75.0164        	74.274185      	74.54695       	74.39713       	74.626595      	73.77607       	71.95225       	73.09421       	73.06802       	73.56662       	74.25045       	74.1995        	74.51201       	74.39203       	74.68208       	74.44047       	74.716354      	74.68068       	74.48925       	74.60806       	74.49358       	74.74001       	74.42694       	74.73754       	74.35112       	74.65489       	74.01802       	75.06061       	74.22462       	74.82949       	74.57798       	74.17656       	74.987114      	74.338585      	75.01309       	74.37259       	74.755516      	75.74556       	73.76736       	74.438446      	74.197075      	75.46984       	75.198425      	74.89041       	75.776985      	74.400246      	78.506256      	74.46565       	74.095634      	74.12537       	74.59393       	74.53994       	74.42184       	74.33934       	74.71027       	74.212975      	74.619896      	74.849686      	74.1238        	74.47642       	74.593895      	74.64719       	74.675224      	74.13144       	74.5354        	74.74335       	74.303986      	74.64251       	74.69826       	74.45295       	74.470604      	74.476074      	74.44168       	74.28397       	74.44103       	74.909134      	73.98008       	74.880424      	74.45641       	74.7586        	74.36396       	74.2281        	74.30305       	75.1781        	
74.44289       	74.50968       	74.79922       	74.71566       	74.6027        	74.33481       	74.57221       	74.76989       	74.40681       	74.617584      	74.29766       	74.746765      	74.385574      	74.58052       	74.56089       	74.66905       	74.5716        	74.33774       	74.78198       	74.55271       	74.41341       	74.30245       	71.802666      	72.735985      	73.52173       	72.96958       	74.4847        	74.79574       	74.25536       	74.498924      	74.5803        	75.41791       	74.31381       	73.94276       	74.69677       	74.18567       	74.9988        	74.337944      	74.61983       	74.61134       	74.32886       	74.70895       	74.32869       	74.820114      	74.34556       	74.44533       	74.95303       	74.68798       	75.21238       	74.58863       	74.74022       	73.87574       	75.16192       	75.07509       	74.26665       	75.25153       	73.8465        	74.93053       	75.10834       	74.850464      	74.88463       	75.11849       	78.19278       	73.29794       	74.09625       	74.48934       	74.4146        	74.93634       	74.25305       	74.52769       	74.2311        	74.43996       	74.81209       	74.44992       	74.6113        	74.54839       	74.67109       	74.63781       	74.392105      	74.37001       	74.468376      	74.534256      	74.35219       	74.90547       	74.33894       	74.17153       	74.67723       	74.588         	74.5107        	74.17361       	74.71439       	74.54221       	74.197914      	74.23856       	74.91726       	74.51498       	74.3709        	75.04645       	74.083374      	74.901825      	
74.52735       	74.483284      	74.50348       	74.731514      	74.64994       	74.51553       	74.59978       	74.43642       	74.26013       	75.390274      	73.913704      	75.100464      	74.27268       	74.3471        	74.66769       	74.40991       	74.67555       	74.67904       	74.413376      	74.602554      	74.49143       	74.38426       	72.28612       	72.68715       	73.58744       	73.08038       	74.20467       	74.315216      	74.690834      	74.624565      	74.60353       	74.85914       	74.21343       	74.45128       	74.88127       	74.24085       	74.70399       	74.588135      	74.49195       	74.49213       	74.54081       	74.62453       	74.93613       	74.44846       	74.84243       	74.20682       	75.13761       	74.11151       	75.011826      	74.08363       	74.32489       	74.72746       	75.20109       	75.4366        	73.74159       	74.994316      	73.91647       	74.909775      	75.35337       	74.93977       	75.56847       	75.451324      	75.160934      	73.85778       	74.15196       	74.3401        	74.614395      	74.383255      	74.38847       	74.28343       	75.701904      	73.656715      	74.27603       	74.81136       	74.55725       	74.42428       	74.40471       	75.21963       	74.20898       	74.03374       	74.76485       	74.61486       	74.24915       	74.6057        	74.53053       	74.777435      	74.37984       	74.42141       	74.56824       	74.41644       	74.520195      	74.70671       	74.74948       	74.50896       	74.37107       	74.131325      	74.36288       	74.37344       	74.75836       	74.94336       	
74.54299       	74.62046       	74.82708       	74.47016       	74.95499       	74.766495      	74.26336       	73.95575       	74.759575      	74.95272       	74.14861       	74.567924      	74.158585      	74.76644       	74.678085      	74.216415      	74.60647       	74.71966       	74.683876      	74.31956       	74.44085       	74.720665      	72.55932       	71.8199        	73.6138        	72.96636       	73.7204        	74.499626      	75.21394       	74.378174      	73.86014       	74.75983       	74.65011       	74.459015      	74.757095      	74.27832       	74.80158       	74.54259       	74.192154      	75.005875      	74.54661       	75.480484      	73.598976      	74.655045      	74.70753       	73.88782       	74.77888       	74.616776      	74.82629       	74.71291       	74.61207       	74.249146      	74.79239       	75.216194      	75.10946       	74.111015      	74.829636      	74.87982       	75.32115       	75.02494       	74.86075       	74.06527       	73.97177       	74.245636      	74.75668       	74.43876       	74.51034       	74.46785       	74.45434       	74.40447       	74.4529        	74.52425       	74.757095      	74.27385       	74.510345      	74.766174      	74.53697       	74.41333       	74.31478       	74.53938       	74.842094      	74.46812       	74.56667       	74.55039       	74.65503       	74.301         	74.741516      	74.54895       	74.35225       	74.404144      	74.91858       	74.254715      	73.93878       	74.54956       	74.7439        	74.435         	74.39424       	74.2771        	75.19734       	73.92386       	
74.50446       	74.48311       	74.84789       	74.84291       	74.62127       	74.46116       	74.708725      	74.451126      	74.79997       	74.381424      	74.75365       	74.28478       	75.03311       	74.15          	74.53793       	74.67226       	74.81027       	74.49033       	74.25922       	74.70375       	74.37582       	74.41932       	73.958405      	71.684395      	72.99795       	73.06896       	73.59279       	74.90579       	74.40499       	74.77893       	74.504135      	74.30154       	74.80804       	74.68239       	74.44575       	75.21079       	74.92612       	73.81567       	74.630554      	74.26717       	74.99403       	74.596214      	74.52174       	75.23277       	74.44211       	73.92358       	75.02821       	75.01791       	74.68551       	75.196495      	73.65561       	75.74037       	74.82747       	75.51927       	75.03133       	74.19839       	75.19578       	73.65519       	74.27551       	74.31459       	74.81233       	74.44068       	74.55661       	74.66794       	74.19077       	74.493286      	74.615395      	74.43681       	74.80056       	74.56465       	74.21882       	74.49683       	74.81412       	74.33698       	74.46709       	74.534904      	74.61689       	74.21781       	74.582405      	74.713585      	74.54172       	74.39277       	74.676315      	74.4331        	74.55577       	74.52473       	74.731384      	74.036606      	74.41663       	75.02638       	74.07957       	74.49457       	74.34133       	74.68615       	75.04776       	74.12346       	74.33373       	74.902596      	74.423645      	74.5421        	
74.64599       	74.72725       	74.654205      	74.37076       	74.47291       	74.37696       	74.26644       	74.732666      	74.911354      	74.143005      	74.30542       	74.963684      	74.46446       	74.535324      	74.29114       	74.51179       	74.69111       	74.47911       	74.570175      	74.51446       	74.44211       	74.65445       	74.02143       	72.04664       	73.02572       	73.16042       	73.50194       	74.32583       	74.52367       	74.758354      	74.878815      	74.81892       	74.901924      	75.063835      	74.5167        	73.95074       	75.26204       	74.28568       	74.32689       	74.626045      	74.786606      	74.81812       	75.44293       	74.669586      	74.86988       	75.06181       	74.77586       	75.6716        	74.683556      	75.32529       	74.71526       	73.310555      	74.09545       	74.520996      	74.78155       	74.261986      	74.40478       	74.267204      	74.61038       	74.529         	74.799         	74.84752       	74.31808       	74.0967        	74.84881       	74.861984      	74.33635       	74.390625      	74.49361       	74.550766      	74.980156      	74.53853       	74.23554       	74.91343       	74.194016      	74.398735      	74.906204      	74.069176      	74.52514       	74.60207       	74.54685       	75.71826       	73.77138       	74.47115       	74.69519       	74.27951       	74.736496      	74.566864      	74.17577       	74.385765      	74.37256       	74.870895      	74.29455       	74.892136      	74.17856       	74.81014       	74.15695       	74.95498       	74.41104       	75.05962       	
74.493546      	74.95196       	74.786         	74.48374       	74.82988       	74.52897       	73.742676      	74.881134      	74.36516       	74.75922       	74.4667        	74.735794      	74.55272       	74.13164       	74.68458       	74.29447       	74.7467        	74.6558        	74.527954      	74.47494       	74.66864       	74.35889       	74.6768        	72.355125      	72.66092       	73.50432       	73.806656      	74.22783       	74.08963       	74.8026        	74.773094      	75.694305      	74.72657       	74.6018        	75.15917       	74.82543       	73.76347       	74.83357       	74.663         	74.56641       	74.394966      	75.30697       	74.87432       	75.39536       	73.918106      	75.68446       	73.95324       	74.23921       	74.09445       	74.693085      	74.5829        	74.28308       	74.58424       	75.0459        	74.29397       	74.33125       	74.62297       	75.183426      	73.74835       	74.530106      	74.39928       	74.44947       	74.956665      	74.51904       	74.426155      	74.62086       	74.46856       	74.58221       	74.50794       	73.68209       	75.31313       	74.81709       	74.32842       	74.688736      	74.45415       	74.66135       	74.04763       	74.396         	74.63197       	74.4959        	74.83008       	74.14047       	74.77757       	74.474495      	74.48841       	74.27426       	74.89942       	74.4382        	74.10751       	74.685165      	74.17416       	74.62526       	74.64221       	74.4943        	74.45635       	74.394745      	74.59993       	74.34188       	74.91957       	74.18968       	
74.71461       	74.442245      	74.77306       	74.79305       	74.583786      	74.69671       	74.68718       	74.23476       	74.42091       	75.00068       	74.61502       	74.320175      	74.41133       	74.6618        	75.0047        	74.05584       	74.34769       	74.72919       	74.565         	74.25419       	74.54506       	74.88404       	74.32178       	74.163635      	73.07899       	73.673874      	73.59564       	74.29168       	73.00512       	74.69263       	74.77106       	75.41193       	75.07041       	74.455925      	74.242035      	75.093376      	73.79192       	74.61449       	76.01921       	74.83905       	74.061646      	75.60294       	74.153435      	74.33596       	74.15619       	74.48461       	74.29336       	74.68879       	74.62378       	74.5783        	74.657875      	74.361176      	74.57199       	74.47048       	74.626686      	74.78887       	74.31587       	74.51845       	74.00127       	75.08842       	73.98836       	74.87904       	74.67003       	74.824776      	74.759865      	74.44233       	74.36595       	74.631325      	74.38167       	74.59056       	74.889145      	74.120224      	74.534         	74.3554        	74.6305        	74.752335      	74.42231       	74.55797       	74.61624       	74.57354       	74.54749       	74.3807        	74.379265      	75.06883       	74.07386       	74.3553        	75.03901       	74.39152       	74.28759       	74.489174      	74.3171        	74.6539        	74.07161       	74.70138       	74.83604       	74.4772        	74.69709       	74.251144      	73.98895       	74.975655      	
74.53319       	74.59538       	75.11089       	74.445274      	74.12617       	75.26855       	74.11486       	74.27099       	74.728424      	74.32768       	74.78669       	74.329475      	74.449005      	74.59745       	74.547104      	74.605865      	74.44895       	74.81954       	74.38016       	74.58336       	74.58243       	74.80382       	74.42388       	74.94349       	74.3133        	73.79141       	73.15998       	74.15652       	74.74589       	73.94561       	74.26951       	75.101135      	75.1362        	74.553734      	74.96959       	75.51067       	74.56846       	74.92369       	73.4893        	74.18738       	74.6369        	74.675         	74.505066      	74.25396       	74.65386       	74.29718       	74.94544       	74.18197       	74.55161       	74.52377       	74.85522       	74.62011       	74.251785      	74.38296       	74.49981       	74.88066       	74.26088       	74.69613       	74.514984      	74.788734      	74.336525      	74.692314      	74.654305      	74.60295       	74.645615      	74.26399       	74.58352       	74.68913       	74.33971       	74.478226      	74.386566      	74.67021       	74.25838       	74.48191       	74.65482       	74.963135      	74.12179       	74.74266       	74.21767       	74.70487       	74.60276       	74.4281        	74.48902       	74.73465       	74.45595       	74.67425       	74.40439       	74.454636      	74.544304      	74.362236      	74.68252       	74.22865       	74.609856      	74.52835       	74.77002       	74.23514       	74.626495      	74.90279       	74.18579       	74.620834      	
74.751         	74.54519       	74.4985        	74.61941       	74.41084       	74.622536      	74.93662       	74.09889       	74.26172       	75.01712       	74.733055      	74.55244       	74.44489       	74.42369       	74.95507       	74.57376       	74.286575      	74.52086       	74.8072        	74.45012       	74.68264       	74.48214       	74.686935      	74.516174      	73.96454       	74.74559       	74.40243       	74.303764      	74.31785       	73.84509       	74.99084       	75.263245      	74.789665      	75.00938       	74.27581       	74.51662       	74.223175      	74.44276       	74.478386      	74.673485      	74.794075      	73.82286       	75.105774      	75.26436       	73.312965      	74.47916       	74.59862       	74.55911       	74.54488       	74.32847       	74.56467       	74.60218       	74.48649       	74.47008       	74.87376       	74.53492       	74.466934      	74.30293       	74.82046       	74.83343       	73.9889        	75.03024       	74.597404      	74.60278       	74.14965       	74.79309       	74.578156      	74.464134      	74.66511       	74.286934      	74.68019       	74.68668       	74.20323       	75.205826      	74.09178       	74.58909       	74.83121       	74.12766       	74.658264      	74.6224        	74.31354       	74.58023       	74.63933       	74.70516       	74.554306      	74.05036       	75.00537       	74.40599       	74.399025      	74.441956      	74.5682        	74.36596       	74.326775      	74.57449       	74.45277       	74.643196      	74.672104      	74.6451        	74.834656      	74.78924       	
74.10815       	73.994415      	73.44808       	73.90027       	74.28257       	74.56268       	74.34417       	74.53206       	74.67563       	74.348885      	74.39025       	74.82752       	74.78579       	74.558266      	74.68834       	74.100136      	74.45096       	75.118675      	74.188545      	74.34          	74.616936      	74.55299       	74.439026      	74.77046       	74.41427       	74.582924      	74.606575      	74.35958       	74.21291       	74.722374      	74.29855       	74.93313       	74.42915       	74.09229       	75.23535       	74.43677       	74.29645       	74.56543       	74.81923       	74.51823       	74.14209       	74.433556      	75.22109       	74.44835       	74.47472       	74.498764      	74.65965       	74.27302       	74.69005       	74.34551       	74.56737       	75.03802       	74.258896      	74.215485      	74.606         	74.48876       	74.522224      	74.55236       	74.58649       	74.64126       	74.580376      	74.79287       	74.81121       	73.490326      	75.101715      	75.00233       	74.34425       	74.48654       	74.60865       	74.83262       	74.44975       	74.10134       	74.92027       	74.36344       	74.864716      	74.49789       	74.48779       	74.67326       	74.46082       	74.51481       	74.53016       	74.51699       	74.45361       	75.116196      	74.68021       	73.8251        	74.73786       	74.52257       	74.49124       	74.42595       	74.702835      	74.1544        	74.42157       	74.64702       	74.541176      	74.615974      	74.932755      	74.420494      	74.4804        	74.62883       	
74.31744       	76.8598        	75.354         	73.24737       	74.796486      	74.19083       	74.74903       	73.95481       	74.84528       	74.32096       	74.779045      	74.47585       	74.31635       	74.61058       	74.515205      	73.99951       	74.99684       	74.83585       	74.18063       	74.48701       	74.709206      	74.58981       	74.54923       	74.442505      	74.51688       	74.69858       	74.37958       	74.395966      	74.79413       	73.98108       	74.36611       	74.801254      	74.55153       	74.27437       	74.87571       	74.62518       	74.551384      	74.85328       	74.2123        	74.81348       	74.605835      	74.53142       	74.52293       	74.44624       	74.68495       	74.44072       	74.44625       	74.470604      	74.92092       	74.47552       	74.6653        	74.266365      	74.94325       	74.17357       	74.738625      	74.79328       	74.10078       	74.46437       	74.50114       	74.67552       	74.77803       	74.44449       	74.847145      	74.50309       	74.51019       	74.69031       	74.86942       	74.24829       	74.65372       	74.49166       	74.429375      	74.346344      	74.720894      	74.51827       	74.721985      	74.26324       	74.135956      	75.03121       	74.64363       	74.584206      	74.326454      	74.539116      	74.52778       	74.3509        	74.87057       	74.645325      	74.59995       	74.65614       	74.5465        	74.24247       	74.60925       	74.379524      	74.55534       	74.47895       	74.66847       	74.471306      	74.17551       	74.62144       	74.73682       	74.76297       	
74.434494      	76.36935       	77.95778       	73.93208       	73.85047       	74.35142       	74.03792       	74.44775       	74.673134      	74.410446      	74.56041       	74.536674      	74.55974       	74.49798       	74.42525       	74.57956       	75.135475      	74.10759       	74.806145      	74.33708       	74.654625      	74.17786       	74.517494      	74.59679       	74.496544      	74.49138       	74.39705       	74.410225      	74.92087       	74.12504       	74.27872       	75.06206       	74.86977       	74.11822       	74.564575      	74.57702       	74.60857       	74.35272       	74.59022       	74.75019       	74.31363       	74.6338        	74.45902       	74.460175      	74.551956      	74.60047       	74.511505      	74.48067       	75.13429       	74.20921       	74.65894       	74.4071        	74.51453       	74.08073       	74.72109       	74.993965      	74.15975       	74.511         	74.63656       	74.2698        	75.20804       	74.42197       	74.73474       	74.476746      	74.28865       	74.72214       	74.631584      	74.22028       	74.79458       	74.472496      	74.318565      	74.666245      	74.670685      	74.41503       	74.64909       	74.88441       	74.14432       	74.72159       	74.45504       	74.81927       	74.180504      	74.7096        	74.19581       	74.99007       	74.11859       	74.70757       	74.71749       	74.557594      	74.54261       	74.466606      	74.37179       	73.99435       	74.532         	74.69118       	74.07252       	74.47165       	74.52416       	73.742134      	74.95423       	74.139854      	
74.51731       	76.04879       	78.726234      	75.3018        	73.80978       	74.2382        	74.41002       	74.629135      	74.54406       	74.29932       	74.25389       	74.93228       	74.86983       	74.16732       	74.229256      	74.86651       	74.13771       	74.478584      	74.91049       	74.32885       	74.57278       	74.33665       	74.807816      	74.57278       	74.46482       	74.12484       	74.67771       	74.24374       	74.78556       	74.10469       	74.80573       	74.44562       	74.50151       	74.56126       	74.413155      	74.67102       	74.478096      	74.50777       	74.57703       	74.63038       	74.576324      	74.587494      	74.389114      	74.54334       	74.72861       	74.40429       	74.73135       	74.39748       	74.82063       	74.4947        	74.874695      	74.24116       	74.45713       	74.47362       	74.75016       	74.80925       	74.36318       	74.21039       	74.75209       	74.64579       	75.5327        	75.42561       	74.024605      	73.89226       	74.51243       	74.59241       	74.77808       	74.3139        	74.572815      	74.08839       	75.095314      	74.46895       	74.56864       	74.484634      	74.33998       	74.72313       	74.2276        	74.15069       	74.855606      	74.96649       	74.4647        	74.22655       	74.22179       	74.92329       	74.37205       	74.681465      	74.57654       	74.46453       	74.52255       	74.891884      	74.07411       	74.69683       	74.26          	74.94774       	74.357994      	74.04856       	75.27001       	74.52783       	74.42564       	74.53294       	
74.451355      	75.95575       	79.18782       	75.93205       	73.268845      	74.081474      	74.60132       	74.343475      	74.89118       	74.175934      	75.17707       	74.06273       	74.38567       	74.576065      	74.40029       	74.57776       	74.53555       	74.490845      	74.517914      	74.738434      	74.60785       	74.39466       	74.53165       	74.52656       	74.58373       	74.22622       	74.73734       	74.46636       	74.54764       	74.5319        	74.97138       	74.13462       	74.5425        	74.4259        	74.77549       	74.499374      	74.667076      	74.69487       	74.515144      	74.51983       	74.4944        	74.52166       	74.40954       	74.68116       	74.60026       	74.51249       	74.877556      	74.505684      	74.4699        	74.521255      	74.78133       	74.30048       	74.43368       	74.69843       	74.234634      	74.821815      	74.463615      	74.59258       	74.36751       	74.43267       	75.07548       	74.275925      	74.41422       	74.75705       	74.89337       	75.27485       	73.571396      	74.67035       	74.56187       	74.27086       	74.564         	74.73299       	74.73388       	74.30875       	74.64533       	74.4339        	74.346245      	74.16385       	74.51501       	74.75353       	74.73848       	74.70233       	74.48934       	74.554535      	74.37943       	74.394295      	74.648865      	75.021255      	74.213394      	74.33951       	74.496574      	74.52627       	74.75484       	74.21616       	74.57813       	74.65495       	74.317726      	74.84342       	74.47981       	74.6868        	
74.64093       	75.97164       	78.36087       	76.71081       	73.34114       	74.6579        	73.98158       	74.273506      	74.55904       	74.572266      	74.77359       	74.4807        	74.314545      	74.85763       	74.22462       	74.83921       	74.40752       	74.45944       	74.52954       	74.65952       	74.537834      	74.49538       	74.45937       	74.886154      	74.384995      	74.34843       	74.77027       	74.47656       	74.13903       	74.506676      	74.50527       	74.38195       	74.77446       	74.67938       	74.439064      	74.502266      	74.66612       	74.653885      	74.4728        	74.62865       	74.42515       	74.55446       	74.654625      	74.344475      	74.72099       	74.44383       	74.64684       	74.40057       	74.88461       	74.104965      	74.8736        	74.39414       	74.718475      	74.09657       	75.49025       	74.811386      	73.7587        	74.44921       	74.72424       	74.172264      	74.657684      	74.87121       	74.17626       	74.669464      	74.67115       	74.597694      	74.43175       	74.60217       	74.12966       	74.695175      	74.45338       	74.63919       	74.44202       	74.4723        	74.53533       	74.74181       	74.657715      	74.59408       	74.65833       	74.065445      	74.88277       	74.26671       	74.82556       	74.268295      	74.5877        	74.400215      	74.42711       	74.61423       	74.335335      	74.61425       	75.07287       	74.39506       	74.346954      	74.44654       	74.49027       	74.712776      	74.42563       	74.68571       	74.46024       	74.66005       	
74.65791       	76.30689       	76.547676      	73.62735       	74.24281       	74.15499       	74.56049       	74.46466       	74.5323        	74.33897       	74.919655      	74.21951       	74.29722       	74.7981        	74.65007       	74.668816      	74.603714      	74.05587       	74.68288       	74.59136       	74.48821       	74.603035      	74.147026      	74.8915        	74.50963       	74.60911       	74.72676       	74.386116      	74.76371       	74.11312       	74.538246      	74.46995       	74.53617       	74.91467       	74.10394       	74.85816       	74.37365       	74.75746       	74.23139       	74.62854       	73.93307       	74.946625      	74.66904       	74.58112       	74.67647       	74.35291       	74.918755      	74.146576      	74.68306       	74.54183       	74.61531       	74.43399       	74.64467       	73.91963       	75.39128       	75.24574       	73.92279       	74.42962       	74.755424      	74.25842       	74.54094       	74.6223        	74.42717       	74.64448       	74.670815      	74.927826      	74.432         	74.20552       	74.81112       	74.94827       	74.1573        	74.77146       	74.55248       	75.00408       	74.1883        	74.5383        	74.60318       	74.36406       	74.80205       	74.54302       	74.275246      	74.53753       	74.72086       	74.22563       	74.77043       	74.687935      	74.92586       	73.72004       	74.49762       	74.98677       	74.41063       	74.72024       	74.0465        	74.43619       	74.64882       	74.080666      	74.943825      	74.74199       	74.19995       	74.74581       	
74.42458       	74.484985      	75.07684       	75.11058       	74.40249       	74.25311       	74.76149       	74.16153       	74.68426       	74.44383       	74.667885      	74.4391        	74.71522       	74.41766       	74.97294       	74.32335       	74.42898       	74.470505      	74.41468       	74.61214       	75.225945      	73.87762       	74.73447       	74.53033       	74.170906      	74.74532       	74.773834      	74.39229       	74.47344       	74.31132       	74.93601       	74.14427       	74.25517       	74.79956       	74.686066      	74.487015      	74.265236      	75.042564      	74.166626      	74.719284      	74.31902       	74.77917       	74.51827       	74.37136       	74.577385      	74.66665       	74.2902        	74.58603       	74.900894      	74.25134       	74.44665       	74.56194       	74.75875       	74.36643       	74.74106       	74.52342       	74.51158       	74.56412       	74.568665      	74.70827       	74.34068       	74.75811       	74.194305      	74.91069       	74.66522       	74.87161       	73.995834      	74.32544       	74.73948       	74.41166       	74.745186      	74.533104      	74.429504      	74.47937       	74.79031       	74.69742       	74.465355      	74.37895       	74.92801       	73.89607       	74.52749       	74.48437       	74.237236      	74.29749       	74.52997       	75.21247       	74.28042       	74.172005      	75.26049       	73.65437       	74.41558       	74.90707       	74.07948       	74.61118       	74.740906      	74.66965       	74.5187        	74.21365       	73.80793       	74.49171       	
74.43729       	74.658966      	75.42345       	75.22432       	73.79722       	74.36153       	74.66103       	74.70311       	74.67054       	74.27043       	74.64636       	74.43663       	74.79967       	74.55787       	74.73022       	73.8328        	74.669266      	74.83184       	74.54673       	74.49654       	74.52806       	74.60312       	75.32803       	73.878716      	74.20825       	74.901764      	74.626434      	74.73796       	74.44958       	74.33925       	74.076416      	74.38643       	74.627525      	74.45878       	74.6055        	74.68464       	74.4882        	74.56421       	74.50354       	74.85198       	74.26535       	74.319115      	74.56844       	74.84269       	74.40464       	74.62132       	74.498375      	74.58416       	74.465004      	74.70828       	74.554         	74.26753       	74.76855       	74.334816      	74.919174      	74.28971       	74.42891       	74.65226       	74.42054       	74.64645       	74.348854      	74.21482       	75.243454      	74.59722       	74.438         	74.79321       	74.69841       	74.54388       	74.872574      	73.953125      	74.60945       	74.77864       	74.40494       	74.73569       	74.5476        	74.32554       	74.05046       	75.00373       	74.7224        	74.65904       	74.47          	74.52989       	74.820984      	74.059654      	74.74044       	74.33768       	74.35347       	74.88836       	74.64273       	75.10761       	73.941315      	74.34112       	74.69342       	74.098206      	74.42872       	74.63563       	74.23633       	74.5904        	74.433395      	74.463745      	
74.57343       	75.0434        	75.09001       	74.933304      	74.420425      	73.517395      	74.34632       	74.8735        	74.66548       	74.36167       	74.32481       	74.42238       	74.426414      	74.60221       	74.47565       	74.79848       	74.68759       	74.51206       	74.61818       	74.192276      	74.52777       	74.71274       	74.35021       	74.54808       	74.4915        	74.618164      	74.51536       	74.587456      	74.559494      	74.73776       	74.38448       	74.19586       	74.81661       	74.50113       	74.74215       	74.330025      	74.57716       	74.72958       	74.47518       	74.40048       	74.694695      	74.63769       	74.51366       	74.54492       	74.11684       	74.529625      	74.66161       	74.194984      	74.7628        	74.684685      	74.37621       	74.6516        	74.45094       	74.6897        	74.64587       	74.39568       	74.763214      	74.38252       	74.49534       	74.824394      	74.17249       	74.77753       	74.373215      	74.94478       	75.04361       	73.93979       	74.76568       	74.79555       	74.272156      	74.44098       	74.83431       	74.39844       	74.97985       	74.37639       	74.68472       	74.59433       	74.47739       	74.59505       	74.34019       	74.9812        	74.02744       	74.54458       	74.807655      	74.4264        	74.40998       	74.48988       	74.34862       	74.59663       	74.93596       	74.71058       	74.24756       	74.66038       	74.46348       	74.5365        	74.41216       	73.03879       	72.54839       	73.36652       	73.80985       	74.26628       	
74.44626       	74.60354       	75.88658       	74.69697       	74.246254      	74.69424       	74.318756      	74.446556      	74.651344      	74.305145      	74.99363       	74.57588       	74.4124        	74.4323        	74.84627       	74.18795       	74.680305      	74.84801       	73.90052       	74.822685      	74.730255      	74.46339       	74.41661       	74.899925      	74.223564      	74.600075      	74.426796      	74.484726      	74.47112       	74.62386       	74.73549       	73.888115      	74.42637       	75.040245      	74.39035       	74.7624        	74.617645      	74.38115       	75.20252       	73.87788       	74.65366       	74.41904       	74.74328       	74.50713       	74.52561       	74.58143       	74.427         	74.697495      	74.68484       	74.70887       	75.173386      	74.09069       	74.75834       	74.22556       	74.53951       	74.5717        	74.38312       	74.75129       	74.50827       	74.60166       	74.40676       	74.78491       	74.011246      	74.358986      	74.75166       	75.43399       	73.50373       	75.09965       	74.96295       	74.09869       	74.57947       	74.44712       	74.80181       	74.37638       	74.66966       	74.32584       	74.70166       	74.59358       	74.57688       	74.9316        	74.08905       	74.4935        	74.5577        	74.54563       	74.64033       	75.22434       	73.99449       	74.53836       	74.64384       	74.9261        	74.06183       	74.57807       	72.82976       	71.55928       	72.03978       	73.67078       	74.001854      	74.28336       	74.02001       	74.26615       	
74.400925      	75.077545      	74.84331       	74.26781       	74.58324       	74.627075      	74.37808       	74.71207       	74.6394        	74.309456      	75.007996      	74.4792        	74.42755       	74.16603       	74.70617       	74.66095       	74.47601       	74.4016        	74.349236      	74.38175       	73.927086      	74.90449       	74.59656       	74.845116      	74.28704       	74.36066       	74.864655      	74.250534      	74.45077       	74.63311       	74.349106      	74.64906       	74.47322       	74.94873       	73.982155      	74.765564      	74.764366      	74.34335       	74.48157       	74.45315       	74.90372       	74.82892       	74.12253       	74.668396      	74.231895      	74.24025       	74.61024       	74.49326       	74.80785       	74.60907       	74.11064       	75.27048       	74.60257       	74.28373       	74.75854       	74.17683       	74.6212        	74.4375        	75.122574      	74.13873       	74.33733       	74.53077       	74.67764       	74.37229       	74.64629       	75.02          	74.29527       	74.63111       	74.71571       	74.297905      	74.057884      	74.40951       	74.67438       	75.19295       	74.30407       	74.54342       	74.53424       	74.61411       	74.62662       	74.58827       	74.298355      	74.53401       	74.43831       	74.6234        	74.35997       	74.74022       	74.564865      	73.53679       	74.9841        	75.61845       	73.81528       	74.24742       	71.059685      	72.26782       	73.34396       	73.98736       	75.104065      	73.90142       	74.33301       	74.68436       	
