# www.neaspec.com
# Scan:	 	Whitelight Imaging
# Project:	 	20251007_PS
# Description:	 	
# Date:	 	10/07/2025 14:41:49
# Scanner Center Position (X, Y):	[µm]	49.66	48.17	 
# Rotation:	[°]	0	 	 
# Scan Area (X, Y, Z):	[µm]	5.000	5.000	0.000
# Pixel Area (X, Y, Z):	[px]	100	100	1
# Interferometer Center/Distance:	[µm]	288.577	0.000	 
# Averaging:	 	1	 	 
# Integration time:	[ms]	5	 	 
# Wavenumber Scaling:	 	1.000000	 	 
# Laser Source:	 	4.5-15 µm nano-FTIR laser
# Detector:	 	R
# Target Wavelength:	[µm]	10.000	 	 
# Demodulation Mode:	 	Fourier
# Tip Frequency:	[Hz]	241,340.500	 	 
# Tip Amplitude:	[mV]	45.700	 	 
# Tapping Amplitude:	[nm]	74.245	 	 
# Modulation Frequency:	[Hz]	0.000	 	 
# Modulation Amplitude:	[mV]	0.000	 	 
# Modulation Offset:	[mV]	0.000	 	 
# Setpoint:	[%]	79.75	 	 
# Regulator (P, I, D):	 	4.206850	8.625812	1.000000
# Tip Potential:	[mV]	0.000	 	 
# M1A Scaling:	[nm/V]	0.426	 	 
# M1A Cantilever Factor:	 	1,000	 	 
# Q-Factor:	 	487.4	 	 
# Version:	 	2.1.11536.0
76.130066      	76.20146       	76.69781       	75.84187       	75.13174       	74.69419       	74.33012       	74.435936      	74.48759       	74.782974      	74.50173       	74.39201       	74.52452       	74.586296      	74.68492       	74.25505       	74.64065       	74.58273       	74.1992        	74.79158       	73.762886      	75.01927       	74.44872       	74.049225      	74.83928       	74.59666       	74.50418       	74.71544       	74.34586       	74.704926      	74.82493       	74.48313       	74.64687       	74.47851       	74.32658       	74.946526      	74.664986      	73.68368       	72.872665      	72.837975      	71.18205       	73.96773       	74.31548       	74.54616       	74.74048       	74.42392       	74.61165       	74.552025      	74.36792       	74.39049       	74.38962       	74.14152       	74.823975      	74.22874       	74.384834      	74.339645      	74.83852       	74.44161       	74.210075      	74.226875      	74.720245      	74.424614      	74.17946       	73.531746      	78.26302       	76.55402       	75.795654      	75.78623       	74.74509       	74.88025       	74.385826      	74.48054       	74.65239       	74.33066       	74.650475      	74.54575       	73.95845       	75.15853       	74.45469       	74.63683       	74.38675       	74.51878       	74.23783       	74.54384       	74.75558       	74.4733        	74.73527       	74.109184      	74.74493       	74.56234       	74.32958       	74.316574      	74.72681       	74.57959       	74.58967       	74.5038        	74.33464       	74.617256      	74.62441       	74.42824       	
73.30639       	76.79489       	76.43388       	75.79397       	75.3246        	74.494774      	74.27902       	74.752594      	74.33374       	74.57961       	74.17335       	74.927185      	74.16393       	75.07734       	74.489174      	74.61251       	73.997574      	74.62519       	74.68881       	74.40311       	74.82287       	74.277695      	75.04796       	74.29926       	74.270805      	74.183334      	74.6859        	74.90421       	73.983826      	74.811195      	74.526085      	74.5984        	74.53142       	74.54197       	74.382256      	74.82623       	74.67823       	74.09192       	73.45959       	72.897575      	71.27405       	72.34695       	74.724335      	74.729675      	74.21524       	74.27066       	74.92518       	74.51904       	74.3264        	74.46584       	74.431786      	74.352196      	74.57879       	74.353         	74.53833       	74.28252       	74.40862       	74.375824      	74.89767       	74.37668       	74.15593       	74.17157       	74.399376      	72.98545       	78.56824       	76.640114      	75.62461       	75.73488       	75.399055      	74.377846      	74.74777       	74.38175       	74.280594      	74.94754       	74.13238       	75.065735      	74.0314        	74.4988        	74.61109       	74.276535      	74.24081       	74.893616      	74.49606       	74.65132       	74.052986      	74.84971       	74.286156      	74.561485      	74.61271       	74.5277        	74.70841       	74.311745      	74.24291       	75.06709       	74.12212       	74.26005       	74.38347       	75.03053       	75.02475       	74.89643       	
73.872284      	76.53344       	76.4871        	75.95221       	75.8198        	74.702995      	74.43996       	74.31352       	74.477905      	74.61034       	74.571686      	74.88476       	74.36937       	74.046906      	74.71242       	74.68239       	74.25209       	74.613174      	74.83265       	73.99851       	74.905464      	74.67832       	74.35864       	74.54945       	74.604256      	74.22909       	74.438         	74.65181       	74.81248       	74.030556      	74.910866      	74.25536       	74.67426       	74.5111        	74.672554      	74.07578       	75.1164        	74.33822       	73.2892        	72.78149       	72.48594       	72.21622       	74.10426       	74.40725       	74.79687       	74.30839       	74.4323        	74.51738       	74.24838       	74.49367       	74.478096      	74.67853       	74.33164       	74.44293       	74.97158       	74.40878       	74.1946        	74.38426       	74.82637       	74.267044      	74.127014      	74.27777       	74.56018       	73.032326      	77.31066       	76.77599       	76.37214       	75.9178        	75.50728       	74.65284       	74.156906      	74.49233       	74.502335      	74.65785       	74.46236       	75.04673       	74.190895      	74.41978       	74.599815      	74.37695       	74.640625      	74.23292       	74.90601       	74.692085      	74.22053       	74.77236       	74.01133       	74.769165      	74.45653       	74.61617       	74.22012       	75.08229       	73.88103       	74.736694      	74.37424       	74.53884       	73.17136       	74.62883       	75.57985       	74.88175       	
73.64162       	77.660904      	76.42077       	75.82026       	75.394135      	75.35923       	74.5149        	74.44979       	73.805725      	75.0668        	74.393974      	74.48457       	74.98069       	74.05966       	74.47816       	74.68833       	74.45756       	74.36213       	74.379776      	74.45587       	74.64123       	74.678024      	74.36707       	74.30663       	74.57727       	74.60585       	74.71637       	74.39422       	74.26279       	75.185394      	74.08419       	74.77637       	74.288475      	74.63357       	74.42839       	73.71747       	75.591644      	74.91253       	73.547485      	71.89004       	72.68538       	72.49502       	73.468124      	74.50745       	74.46454       	74.841934      	74.255936      	74.144325      	74.781136      	74.695496      	74.27002       	74.692795      	74.40509       	73.98491       	74.83685       	74.72269       	74.04994       	74.773895      	74.552475      	74.34011       	73.87976       	74.09878       	74.733574      	73.94477       	76.03606       	76.40199       	76.21757       	75.9978        	75.94832       	74.47279       	74.48727       	74.45154       	74.74785       	74.29226       	74.70726       	74.4443        	74.424         	74.10607       	74.56186       	74.83642       	74.64787       	74.121254      	74.88321       	74.632645      	74.388954      	74.73945       	74.251305      	74.484245      	74.423584      	74.439735      	74.89569       	74.518265      	74.0104        	74.683044      	74.33591       	75.06459       	74.46728       	74.2123        	74.45988       	74.94557       	
74.1195        	78.020676      	76.49146       	76.43025       	75.56742       	75.93715       	74.29077       	74.60695       	74.07807       	74.708755      	74.279755      	74.60754       	74.26664       	74.70408       	74.22702       	74.81873       	74.17721       	74.69587       	73.83163       	75.19406       	74.34761       	74.623764      	74.37643       	74.539986      	75.017876      	74.28733       	74.187546      	74.39597       	75.04529       	74.44421       	74.158844      	74.81632       	74.52301       	74.6113        	73.86337       	75.08316       	74.31784       	74.71101       	73.691635      	73.09235       	72.16988       	72.13491       	73.91904       	74.72731       	74.26855       	74.19855       	74.69436       	74.382324      	74.39784       	74.64882       	74.5064        	74.343414      	74.49552       	74.533005      	74.61181       	74.444305      	74.448494      	74.5939        	74.2594        	74.438576      	74.473045      	74.36426       	74.26481       	73.50311       	76.24567       	76.8597        	75.770386      	75.623856      	76.46346       	74.51156       	74.68121       	74.49299       	74.2257        	74.45587       	74.46481       	74.62425       	74.37306       	74.53504       	74.46492       	74.60353       	74.56088       	74.49102       	74.446495      	74.96292       	74.105064      	74.7955        	74.30033       	74.52362       	74.75444       	74.56609       	74.51236       	74.42344       	74.61088       	74.208145      	74.63041       	74.55614       	74.17336       	74.3404        	74.56954       	74.35505       	
74.01687       	75.73518       	77.49875       	75.53615       	75.96995       	76.152336      	74.16734       	74.357895      	74.66027       	74.45143       	74.6582        	74.29864       	74.80537       	74.61405       	74.26253       	74.61497       	74.3196        	74.704025      	74.42245       	74.36326       	74.70258       	74.706184      	74.34569       	74.48252       	74.760445      	74.33413       	74.673485      	74.13021       	74.98163       	74.44822       	74.2884        	74.440346      	74.383514      	74.87966       	74.38595       	74.616035      	74.47297       	75.058945      	73.99071       	73.262665      	71.40228       	72.50643       	70.6604        	74.595604      	74.30642       	74.656685      	74.63444       	74.3387        	74.61867       	74.515396      	74.610054      	74.7095        	74.33351       	74.3457        	74.25713       	74.9021        	74.43266       	74.166145      	74.60721       	74.7112        	73.705315      	74.964806      	73.47178       	74.74514       	74.68313       	76.905235      	76.3018        	76.08217       	76.022545      	74.67418       	74.35762       	74.77592       	74.26711       	74.5991        	74.563194      	74.90997       	74.27762       	74.31136       	74.13282       	75.20192       	74.56821       	74.2839        	73.779274      	75.07466       	74.455086      	74.57488       	74.77385       	74.254036      	74.70473       	74.53272       	74.64364       	74.415985      	74.44984       	74.76869       	74.36664       	73.98307       	74.05419       	73.02447       	74.02916       	74.720406      	
74.27026       	74.05443       	78.26404       	76.57829       	75.909515      	76.007774      	74.37321       	74.12649       	74.44487       	74.836716      	74.49637       	74.595985      	74.015305      	74.918495      	74.53196       	74.56058       	74.21609       	74.49622       	74.61753       	74.49236       	74.23307       	74.80611       	74.15511       	74.992744      	74.030136      	74.33935       	74.762115      	74.43733       	74.5537        	74.52743       	74.33875       	74.547905      	74.24492       	74.979805      	74.33494       	74.64303       	74.44048       	74.92423       	74.22482       	73.68677       	73.040146      	71.38368       	72.57467       	74.50156       	74.26339       	74.79657       	74.214645      	74.620026      	74.6501        	74.23964       	74.5019        	74.61677       	74.401764      	74.450775      	74.49257       	74.66358       	74.344086      	74.4639        	74.701866      	74.50415       	74.034584      	74.53674       	74.46225       	74.167         	73.18213       	78.3647        	76.259346      	75.731575      	75.64273       	75.279144      	74.500565      	74.51224       	74.75327       	74.77092       	74.21704       	74.22035       	74.48008       	75.05442       	73.913605      	74.546196      	74.62148       	74.52361       	74.39225       	74.4511        	74.692345      	74.71225       	74.52496       	74.64552       	74.40618       	74.58081       	74.16426       	74.397705      	74.42636       	74.20518       	74.41727       	73.40873       	73.741646      	73.79883       	74.01759       	73.7732        	
74.42512       	75.01          	77.72268       	75.896774      	75.637695      	76.41218       	74.95568       	74.261116      	74.76668       	74.22607       	74.60517       	74.83745       	73.93116       	74.86998       	74.28183       	74.32471       	74.581696      	74.65136       	74.464775      	74.3946        	74.68082       	74.65362       	74.04362       	74.65175       	74.64887       	74.471466      	74.81309       	74.50016       	74.42866       	74.502396      	74.42286       	74.5238        	74.6042        	74.54046       	74.35912       	74.59634       	74.51885       	74.32326       	74.85131       	73.53575       	73.00784       	71.942215      	72.30128       	73.83662       	74.24494       	74.75312       	74.10185       	74.84331       	74.49337       	74.52887       	74.16513       	74.43798       	74.63303       	74.38742       	74.41105       	74.9204        	74.78052       	74.12411       	74.43401       	74.12711       	74.90099       	74.225815      	74.49203       	74.33772       	73.02642       	77.410126      	76.12573       	76.10268       	75.86118       	75.83888       	74.64417       	74.54717       	74.18134       	74.90464       	74.298325      	74.66376       	74.40122       	74.61255       	74.353195      	74.304405      	74.39391       	74.4699        	75.01133       	74.38518       	74.36717       	74.621414      	74.34255       	74.482         	74.18032       	74.0546        	74.24885       	73.65832       	74.04483       	73.84953       	74.70561       	73.961845      	73.83489       	73.56321       	72.75052       	72.47503       	
74.39013       	73.84091       	77.93342       	76.782646      	75.857605      	75.76085       	75.24179       	74.28397       	74.50204       	74.4992        	74.636696      	74.396454      	74.13555       	74.46608       	74.74501       	74.404015      	74.33838       	74.68122       	74.41088       	74.549446      	74.8487        	74.2087        	74.62905       	74.44875       	74.48394       	74.15678       	75.060844      	74.59133       	74.26779       	74.220474      	74.61144       	74.820984      	74.63728       	74.239105      	75.08064       	74.51886       	74.20537       	74.849945      	74.59066       	74.02779       	72.98202       	71.47267       	72.21234       	73.71504       	74.18064       	74.769585      	74.60154       	74.29984       	74.53059       	74.75135       	74.74288       	74.07465       	74.40673       	74.53892       	74.422005      	74.44565       	74.630394      	74.55137       	74.41604       	74.39621       	74.716965      	74.05159       	74.08412       	74.467896      	74.31913       	74.49539       	77.732346      	76.175575      	75.888115      	75.64247       	73.92756       	75.17764       	74.58334       	74.62185       	74.171005      	74.28619       	74.42783       	74.71726       	74.40382       	74.57476       	74.32873       	74.03202       	73.44127       	74.30905       	74.90405       	75.22578       	74.67156       	74.677925      	73.51062       	73.73996       	74.03991       	74.11727       	74.20918       	74.22754       	74.44566       	72.98893       	72.331825      	74.3985        	75.214554      	74.35002       	
74.564766      	73.226814      	78.69499       	76.67851       	76.1207        	75.78369       	75.64403       	73.986626      	74.39615       	74.21398       	74.71198       	74.50378       	74.090164      	74.88271       	74.532684      	74.24267       	74.408646      	74.6793        	74.328415      	74.33017       	75.05763       	74.5711        	74.304794      	74.25752       	74.50783       	74.62631       	74.267876      	74.62778       	74.58527       	74.47216       	74.359924      	74.63801       	74.40019       	74.48766       	74.33869       	74.99914       	74.29467       	74.7798        	74.69112       	74.37792       	73.168205      	72.56504       	71.41247       	72.82021       	74.64155       	74.51053       	74.52996       	74.421135      	74.40125       	74.45835       	74.64786       	74.29957       	74.647606      	74.38447       	74.535774      	74.42138       	74.48354       	74.35217       	74.57812       	74.37446       	74.537506      	74.547325      	73.8927        	74.67788       	74.07974       	74.74596       	77.931526      	76.33167       	75.934906      	75.84597       	75.1523        	74.36762       	74.43508       	74.43979       	74.19589       	74.67225       	74.56123       	74.49677       	74.094345      	74.76676       	74.22817       	73.64212       	74.455345      	74.54064       	74.01689       	74.2171        	74.53468       	72.99433       	73.87287       	74.28075       	73.91842       	73.57352       	73.762474      	73.775345      	72.500824      	73.04014       	73.98095       	75.26466       	74.876236      	73.26797       	
74.33689       	73.716606      	77.10937       	76.99134       	75.632484      	75.52628       	75.662125      	74.90451       	74.25743       	74.62864       	74.4829        	74.35884       	74.422035      	74.33335       	74.653755      	74.489685      	74.358505      	74.54927       	74.45653       	74.56191       	74.69175       	74.44196       	74.64452       	74.4036        	74.379364      	74.64713       	75.163826      	74.06742       	74.43362       	74.66553       	74.6447        	73.95873       	74.94136       	74.287285      	74.503654      	74.55385       	74.87231       	74.13961       	75.034744      	74.378944      	73.39856       	72.77132       	71.46797       	72.00497       	74.19149       	74.530266      	74.57022       	74.46641       	74.62112       	74.29743       	74.730316      	74.10032       	75.097885      	74.173355      	74.51472       	74.554726      	74.532364      	74.47277       	74.419         	74.59301       	74.3676        	74.679344      	73.78299       	74.417206      	74.39723       	73.666         	78.244934      	76.1501        	76.00114       	75.51746       	75.45864       	74.49255       	74.56585       	74.14925       	74.82475       	74.29893       	74.06815       	74.53344       	73.76341       	74.34731       	74.17247       	73.87675       	74.4447        	74.47882       	73.86597       	74.30666       	74.40287       	74.14847       	73.77488       	74.05694       	73.36553       	72.60458       	74.63166       	74.44778       	74.27692       	74.360954      	74.16384       	74.71872       	75.05969       	74.84313       	
74.57766       	73.93478       	74.569756      	78.26656       	76.31264       	75.86831       	75.969086      	75.096954      	74.45598       	74.546844      	74.547295      	74.43754       	74.77145       	74.06904       	74.40281       	74.73611       	74.37118       	74.38155       	74.47069       	74.693184      	74.09448       	74.58037       	74.68022       	74.46803       	74.51979       	74.717545      	74.34001       	74.55904       	74.701744      	74.516624      	74.229996      	74.57331       	74.65107       	74.4554        	74.27475       	74.71401       	74.56164       	74.521965      	74.51625       	74.62672       	73.64491       	72.7569        	71.7558        	72.64109       	74.07226       	74.39759       	74.426994      	74.59829       	74.467354      	74.69411       	74.15535       	74.56923       	74.463005      	74.74127       	74.53092       	75.03904       	73.85461       	74.4249        	74.32107       	74.64596       	74.54964       	74.79031       	74.16758       	74.37105       	73.95312       	73.70489       	76.952896      	77.11012       	75.858215      	74.895256      	74.507774      	74.89613       	75.22413       	74.60702       	74.52479       	74.33572       	74.3749        	74.132706      	73.28634       	74.13439       	74.17233       	73.983376      	73.9958        	74.2832        	73.05817       	73.81304       	73.55965       	74.788155      	74.474915      	74.309         	74.76115       	74.507416      	74.573524      	74.43672       	74.640945      	74.56905       	74.231766      	73.69171       	74.548874      	75.640495      	
74.14978       	74.24292       	73.38241       	78.140945      	77.00986       	75.85841       	76.13991       	75.321014      	73.59264       	74.82317       	75.0834        	73.827576      	74.61641       	74.494         	74.48429       	74.60919       	74.496475      	74.42467       	74.64071       	74.40621       	74.58412       	74.356964      	74.85416       	74.54139       	74.08272       	74.517975      	74.88973       	74.60172       	74.46024       	74.538895      	74.918         	74.117294      	74.63541       	74.3271        	74.55066       	74.67526       	74.58942       	74.41503       	74.60771       	74.73096       	74.09489       	72.75398       	71.601906      	72.424065      	73.66226       	74.52496       	74.530426      	74.694145      	74.30192       	74.5064        	74.362404      	74.53823       	74.47576       	74.35393       	74.7085        	74.36475       	74.60926       	74.45781       	74.6753        	74.53642       	74.27567       	74.403145      	74.61282       	74.28592       	74.43816       	74.28956       	74.5789        	77.081696      	74.57706       	75.25749       	75.352455      	75.91367       	74.606575      	75.02808       	73.83198       	74.041664      	72.96967       	73.1644        	73.53577       	74.5366        	73.25173       	73.02868       	74.26935       	74.44597       	74.23455       	74.21002       	74.87921       	74.64794       	74.17707       	75.0564        	74.287315      	74.59003       	74.36684       	74.37285       	74.35203       	74.33773       	74.77932       	74.61384       	74.7639        	74.34438       	
74.02154       	74.1359        	74.26382       	77.78709       	76.73731       	76.076324      	75.844574      	75.499855      	73.943245      	73.8661        	74.77737       	74.3299        	74.52425       	74.21662       	74.57903       	74.585045      	74.26736       	74.79624       	74.25805       	74.75313       	74.34991       	74.66404       	74.53753       	74.47537       	74.44346       	74.661354      	74.37346       	74.5063        	74.74338       	73.92118       	74.793045      	74.898796      	74.15256       	74.65309       	74.694405      	74.36329       	74.60826       	74.62937       	74.86186       	74.35673       	73.58456       	73.761086      	73.04075       	71.41877       	72.83462       	74.58879       	74.42253       	74.72746       	74.63727       	74.42943       	74.55561       	74.24385       	74.727615      	74.1733        	74.43983       	74.52835       	74.41636       	74.780846      	74.20013       	74.76252       	74.315414      	74.11894       	74.56232       	74.63799       	74.32169       	74.31299       	73.60285       	75.16837       	75.184425      	76.4363        	75.61608       	74.35882       	75.42955       	74.28996       	73.655556      	74.9335        	74.01467       	72.81564       	73.38614       	74.36783       	74.4224        	74.6029        	73.94379       	74.5038        	74.58769       	74.50265       	74.42111       	74.64124       	74.553566      	74.550865      	74.43354       	74.13935       	74.85042       	74.268875      	74.30519       	74.40858       	74.76735       	74.44298       	74.29019       	74.6593        	
74.55288       	74.399506      	73.50292       	77.678024      	77.14754       	75.59747       	75.306435      	75.7457        	74.68598       	73.7085        	74.869125      	74.77714       	74.365135      	74.530495      	74.174         	74.70266       	74.49802       	74.729095      	74.12508       	74.655754      	74.29699       	74.52232       	74.65034       	74.16106       	74.78668       	74.260216      	74.506325      	74.61569       	74.27348       	74.40406       	74.80469       	74.40247       	74.5013        	74.9473        	74.53624       	74.27181       	74.23069       	75.12487       	74.23814       	74.67543       	74.50575       	73.65475       	71.654045      	72.119835      	72.53757       	74.07378       	74.4575        	74.31092       	74.67365       	74.81078       	74.38377       	74.321106      	74.53776       	74.67571       	74.468834      	74.41352       	74.48153       	74.40753       	74.63128       	74.54034       	74.48128       	74.108734      	74.44628       	74.47363       	74.39672       	74.70231       	74.3237        	74.038124      	74.49811       	75.88584       	75.21723       	74.58381       	74.71705       	74.264595      	73.6726        	74.80987       	74.70178       	74.23837       	74.42782       	74.638596      	74.461525      	74.39418       	74.23739       	74.64317       	74.39143       	74.65669       	74.47117       	74.75204       	74.17732       	74.786835      	74.562744      	74.38403       	74.78918       	74.25457       	74.749664      	74.35308       	74.486855      	73.705154      	74.83822       	74.61746       	
74.6977        	74.24543       	73.45904       	76.25371       	77.20047       	76.34032       	75.690216      	75.85656       	74.881836      	74.65336       	74.44677       	74.369415      	74.38496       	74.5865        	74.42748       	74.26341       	74.61488       	74.63296       	74.379364      	74.46545       	74.45534       	74.79159       	74.488495      	74.5265        	74.41299       	74.64844       	74.51067       	74.58092       	74.46203       	74.872284      	74.42301       	73.97636       	74.856766      	74.38089       	74.20273       	74.76246       	74.448074      	74.5409        	74.671585      	74.68426       	74.67643       	73.808014      	73.16442       	71.39503       	72.28232       	73.96832       	74.484406      	74.46239       	74.55157       	74.68834       	74.34954       	74.48967       	74.184265      	74.34809       	74.96297       	74.333916      	74.7253        	74.3979        	74.222694      	74.6324        	74.46388       	74.55644       	74.27313       	74.75          	74.00704       	74.866646      	74.61693       	74.72423       	74.476364      	74.57159       	74.34659       	74.847015      	74.35969       	74.36655       	74.6222        	74.55273       	74.50367       	74.5786        	74.40644       	74.58038       	74.62536       	74.330765      	74.6264        	74.30587       	74.46569       	74.70355       	74.2005        	74.89213       	74.57027       	74.550095      	74.53357       	74.23829       	74.63818       	74.25629       	74.5418        	74.167786      	74.61361       	74.51694       	74.556786      	74.64305       	
74.36648       	74.289635      	74.116684      	73.52167       	78.113754      	75.74866       	76.85396       	75.93156       	74.85638       	74.921074      	74.39916       	74.487076      	74.540054      	74.869545      	74.117775      	74.16224       	74.8612        	74.1999        	74.48434       	74.68867       	74.36559       	74.37874       	74.57768       	74.8525        	74.70851       	74.4193        	74.36186       	74.67965       	74.4955        	74.19383       	74.98948       	74.55294       	74.52778       	74.47064       	74.62845       	74.269745      	74.57169       	74.62096       	74.642494      	74.54181       	74.39169       	74.1469        	72.81232       	71.89023       	72.41084       	73.81804       	74.423386      	74.44845       	74.68651       	74.57106       	74.44458       	74.345634      	74.44924       	74.4586        	74.46982       	74.536575      	74.506714      	74.52528       	74.08786       	74.83287       	74.21092       	74.87314       	74.56412       	74.12598       	74.83056       	74.565         	74.50276       	74.603645      	74.60546       	74.56858       	74.3324        	74.74148       	74.37812       	74.835815      	74.26427       	74.37772       	74.6923        	74.32202       	74.85634       	74.53926       	74.17302       	74.59717       	74.45992       	74.43883       	74.589714      	74.3111        	74.458176      	74.636635      	74.621056      	74.621185      	74.42394       	74.55862       	74.45506       	74.45143       	74.36008       	74.79825       	74.40563       	74.47198       	74.563034      	74.64122       	
74.53588       	74.585396      	74.16597       	73.37243       	77.38485       	76.82877       	76.53833       	76.00676       	74.927505      	74.900894      	74.414246      	74.2249        	74.57069       	74.23889       	74.57205       	74.39139       	74.78928       	74.43402       	74.6276        	74.39871       	74.316574      	74.45994       	74.530624      	74.66118       	74.52009       	74.52171       	74.4204        	74.65906       	74.45676       	74.31059       	74.74769       	74.22788       	74.69604       	74.72917       	74.47195       	74.577934      	74.61831       	74.512215      	74.62151       	74.62446       	74.8559        	73.92611       	73.13722       	72.688866      	71.56869       	73.11342       	74.39506       	74.51415       	74.5498        	74.498886      	74.49383       	74.512726      	74.452614      	74.31629       	74.61847       	74.410515      	74.448074      	74.478165      	74.442795      	74.33403       	74.72493       	74.42951       	74.40444       	74.17156       	74.935104      	74.538055      	74.39401       	74.90264       	74.62952       	73.84535       	75.21828       	74.559456      	74.79712       	74.03679       	74.3179        	74.5747        	74.728355      	74.392784      	74.71769       	74.364716      	74.571754      	74.477875      	74.47244       	74.22743       	74.6255        	74.55513       	74.18781       	74.899895      	74.26339       	74.40279       	74.68654       	74.547386      	74.37079       	74.71035       	74.562035      	74.31028       	74.00438       	74.59962       	75.18708       	74.80442       	
74.554375      	74.39822       	74.20739       	73.70556       	76.54061       	77.764915      	75.878654      	75.45173       	75.830124      	74.43063       	74.54189       	74.65779       	73.99993       	74.73972       	74.56138       	74.320076      	74.72044       	74.464134      	74.46049       	74.79031       	74.063866      	74.8569        	74.3016        	74.46418       	74.63591       	74.541916      	74.446075      	74.483475      	74.703896      	74.35728       	74.70252       	74.44118       	74.54796       	74.60589       	74.47433       	74.59212       	74.55072       	74.44076       	74.57303       	74.70919       	74.46654       	74.06213       	73.2168        	72.90755       	72.173485      	72.91174       	74.17195       	74.51242       	74.54672       	74.51465       	74.631134      	74.39646       	74.73934       	74.56461       	74.26617       	74.1755        	74.56032       	74.69399       	74.56566       	74.38762       	74.4442        	74.571945      	74.36056       	74.48594       	74.3952        	74.81708       	74.48767       	74.48695       	74.44297       	74.49887       	74.417         	74.94729       	74.457794      	74.297516      	74.728615      	74.26991       	74.46683       	74.49759       	74.85598       	74.44704       	73.820595      	75.143456      	74.626854      	74.419785      	74.351326      	74.84662       	74.32523       	74.6475        	74.43245       	74.397415      	74.31206       	74.53892       	74.41288       	74.6392        	74.4055        	74.312294      	74.35933       	74.45417       	74.74368       	74.5187        	
74.36444       	74.43894       	74.35387       	73.908325      	75.36049       	77.56616       	75.936516      	76.06758       	76.1365        	74.663704      	74.72672       	73.907166      	75.501816      	73.74677       	74.63187       	74.30333       	74.72982       	74.3059        	74.55075       	74.47962       	74.86843       	74.16093       	74.143936      	74.549484      	74.58379       	74.46439       	74.6504        	74.49834       	74.83593       	74.22063       	74.58173       	74.58497       	74.425224      	74.49955       	74.82969       	74.21003       	73.9902        	74.25311       	74.96739       	74.25445       	73.83307       	74.35186       	74.02651       	73.60384       	72.44898       	72.57671       	74.070786      	74.26665       	74.56708       	74.58893       	74.423386      	74.6276        	74.27439       	74.62717       	74.56115       	74.376015      	74.45384       	74.81386       	74.159485      	74.581085      	74.78282       	74.54754       	74.313034      	74.528015      	74.457535      	74.28315       	74.730286      	74.36112       	74.994514      	74.56133       	74.11218       	74.93378       	74.255486      	74.798         	74.26516       	74.91446       	74.26086       	74.49049       	74.45676       	74.89064       	74.49245       	74.3836        	74.44163       	74.87046       	73.91108       	74.7088        	74.263885      	74.66683       	74.656876      	74.37625       	74.74712       	74.49749       	74.37162       	74.41572       	74.65841       	74.41997       	74.78652       	74.51616       	74.51437       	74.189964      	
74.47729       	74.35046       	74.34329       	74.38333       	73.44575       	78.26223       	76.796524      	76.215225      	74.90695       	74.69233       	74.19131       	75.99208       	74.971115      	73.54114       	74.49255       	74.13888       	74.801895      	74.62596       	74.48771       	74.3246        	74.72125       	74.44651       	74.37479       	74.60453       	74.51857       	74.40752       	74.53906       	74.536705      	74.61461       	73.99307       	74.78559       	74.71535       	73.78146       	74.391335      	74.50855       	73.95768       	74.1459        	74.00993       	74.75793       	74.37276       	73.81064       	73.5926        	74.42836       	73.14036       	73.65034       	72.90229       	74.06505       	74.258224      	74.615486      	74.76653       	74.393585      	74.466095      	74.37604       	74.696655      	74.46064       	74.37612       	74.6407        	74.18222       	74.47712       	74.87665       	74.67337       	74.509094      	74.18515       	74.50831       	74.65479       	74.00278       	74.580185      	75.01426       	74.23971       	74.57233       	74.560295      	75.00244       	74.48492       	74.21822       	74.48814       	74.51033       	74.70295       	74.15034       	74.68107       	74.41477       	74.554245      	74.65233       	74.62542       	74.36028       	74.26514       	74.48535       	74.6856        	74.54242       	74.689926      	74.22528       	74.536514      	74.51097       	74.460915      	74.71818       	74.41039       	74.58624       	74.50868       	74.48303       	74.44994       	74.43464       	
74.55593       	74.516045      	74.48815       	74.05391       	73.248024      	78.4503        	76.617195      	75.980515      	76.208565      	74.87703       	74.6353        	74.44966       	74.38891       	74.57346       	74.33998       	74.31194       	74.48285       	74.50152       	74.56932       	74.61912       	74.41491       	75.00291       	74.03879       	74.592285      	74.38478       	74.53292       	74.4067        	74.46109       	74.345894      	74.32758       	73.97353       	74.31384       	74.23662       	73.893684      	74.488846      	74.33799       	74.54847       	74.00993       	74.35544       	73.89741       	74.27507       	73.68621       	73.10774       	74.65627       	72.22328       	73.88041       	74.58546       	74.61612       	74.4236        	74.770706      	74.20684       	74.588745      	74.41407       	74.58591       	74.4973        	74.58624       	74.51477       	74.48771       	74.46322       	74.479034      	74.35422       	74.395256      	74.629234      	74.27942       	74.652054      	74.501366      	74.65116       	74.54983       	74.23967       	74.74451       	74.53417       	74.95153       	74.31453       	74.297485      	74.77278       	74.56089       	74.38962       	74.25282       	74.78159       	74.279724      	74.678825      	74.438896      	74.44572       	74.51059       	74.53513       	74.558395      	74.60361       	74.25816       	74.679214      	74.55036       	74.5974        	74.19129       	74.72264       	74.524666      	74.68458       	74.426384      	74.54554       	74.56139       	74.33966       	74.515396      	
74.533646      	74.20478       	74.514084      	74.432144      	73.37413       	77.74344       	76.809425      	75.923996      	75.875114      	75.89236       	74.287415      	74.5813        	74.645615      	74.48002       	74.4656        	74.14056       	74.40957       	74.52187       	74.8981        	74.44797       	74.59114       	74.56102       	74.436485      	74.21127       	74.06054       	74.172485      	74.06938       	73.353134      	74.86735       	74.06961       	74.39392       	74.18142       	74.04104       	74.11589       	73.77015       	74.41938       	74.34353       	73.67045       	73.47074       	74.84656       	73.715416      	74.00695       	74.448265      	74.45912       	74.520424      	74.29306       	74.44441       	74.73055       	74.15785       	74.49309       	75.00925       	74.28552       	74.14433       	74.57614       	74.62916       	74.22081       	74.62717       	74.58321       	74.1172        	74.5206        	74.758385      	74.57777       	74.57957       	74.13239       	74.56127       	74.71424       	74.20534       	74.6818        	74.56705       	74.487045      	74.44824       	74.50764       	75.034676      	74.2873        	74.4313        	74.58597       	74.230446      	74.83886       	74.40706       	74.66528       	74.32238       	74.41875       	74.849945      	74.39714       	74.39269       	74.8959        	74.262054      	74.562164      	74.46666       	74.61935       	74.333115      	74.591866      	74.5874        	74.70929       	74.350426      	74.28404       	74.25798       	74.425705      	74.36814       	74.74          	
74.47187       	74.63597       	74.5531        	74.07964       	73.65313       	75.925285      	77.45677       	75.93215       	76.08609       	75.94468       	74.402214      	74.455864      	74.56458       	74.53177       	74.53412       	74.66415       	74.357864      	74.30407       	74.340225      	74.63361       	74.42454       	73.88099       	74.57494       	73.664925      	74.380196      	74.361916      	74.53698       	73.248825      	74.12985       	73.34806       	74.081924      	73.548706      	73.706825      	73.95931       	74.381805      	73.260544      	75.007355      	74.20325       	74.17602       	74.82135       	74.51525       	74.51833       	74.857796      	73.94557       	74.608025      	74.05381       	74.57318       	74.61939       	74.36288       	74.56769       	74.59204       	74.3518        	74.80801       	74.19013       	74.37694       	74.50147       	74.41176       	74.73469       	74.43439       	74.43058       	74.658165      	74.43428       	74.26043       	74.60152       	74.57049       	74.42841       	74.38925       	74.545784      	74.746956      	74.63659       	74.465706      	74.27069       	75.15877       	74.48196       	74.186325      	74.565445      	74.54668       	74.41158       	74.40229       	74.378525      	74.735245      	74.610275      	74.18065       	74.67524       	74.77537       	74.34234       	74.44439       	74.44575       	74.72969       	74.39714       	74.64627       	74.44284       	74.37486       	74.5519        	74.5744        	74.53628       	74.55415       	74.34384       	74.424515      	74.384254      	
74.088875      	74.84168       	73.701164      	75.053856      	74.196144      	73.74783       	78.138336      	76.11033       	75.85586       	76.199104      	75.23878       	74.58231       	73.91169       	74.563675      	74.55828       	73.70143       	74.00725       	74.33848       	74.9834        	73.509735      	74.10571       	74.91937       	73.895935      	74.49417       	74.09354       	74.27246       	74.1072        	74.239265      	73.2674        	74.30215       	72.66272       	73.6105        	74.29606       	74.17062       	74.54116       	74.5082        	74.51168       	74.49599       	74.420586      	74.53302       	74.569275      	74.65217       	74.5593        	74.32961       	74.27408       	74.51505       	74.23334       	74.75642       	74.55263       	74.43237       	74.58793       	74.63626       	74.3785        	74.498856      	74.542076      	74.40535       	74.52273       	74.634834      	74.38014       	74.60312       	74.18201       	74.98589       	74.30135       	74.27824       	74.50569       	74.616394      	74.31616       	74.59036       	74.42031       	74.97661       	74.4148        	74.46334       	74.79288       	74.20605       	74.590836      	74.65601       	74.77467       	74.56802       	74.16754       	75.01077       	74.170334      	74.28873       	74.35984       	74.70981       	74.44174       	74.380005      	74.55844       	74.46882       	74.39344       	74.335884      	74.513245      	74.78393       	74.32694       	74.47787       	74.50535       	74.47536       	74.65171       	74.60946       	74.48678       	74.45797       	
74.460075      	74.35228       	74.726974      	74.27259       	74.18099       	73.51823       	78.01198       	76.39336       	75.58085       	75.77152       	75.40376       	74.71279       	74.38782       	74.13544       	73.97376       	74.435165      	73.84185       	73.80666       	73.88222       	74.85197       	73.59287       	73.62879       	74.16179       	74.13031       	74.16683       	73.76795       	73.89377       	72.95511       	74.243805      	74.752846      	74.5144        	74.54141       	74.42696       	74.45474       	74.37242       	74.74275       	74.41086       	74.31321       	74.659256      	74.56649       	74.2479        	74.91725       	74.37034       	74.16121       	74.500595      	74.327896      	74.62681       	74.61981       	74.29196       	74.621826      	74.69563       	74.11514       	74.610344      	74.69848       	74.3411        	74.52269       	74.53382       	74.44195       	74.41837       	74.66399       	74.38654       	74.28636       	74.50994       	74.42549       	74.6719        	74.448616      	74.33868       	74.543205      	74.52468       	74.46452       	74.68054       	74.40533       	74.63924       	74.37312       	74.99801       	74.28183       	74.42842       	74.26717       	74.784424      	74.54571       	74.446014      	74.71544       	74.40736       	74.51101       	74.35656       	74.67736       	74.227196      	74.24636       	74.91921       	74.506065      	74.32655       	74.348434      	74.60209       	74.44612       	74.41341       	74.21122       	74.31447       	74.62205       	74.740974      	74.8298        	
74.4659        	74.43993       	74.65508       	74.15401       	74.32298       	73.804955      	76.465034      	77.160706      	75.46583       	74.98672       	74.44472       	75.479164      	74.02524       	73.33533       	73.474556      	74.31118       	73.681114      	73.01838       	74.732704      	74.39253       	73.386024      	73.13443       	73.542946      	74.24773       	74.76021       	74.97574       	74.04751       	74.41519       	74.16539       	74.644875      	74.38666       	74.561066      	74.451805      	74.48713       	74.370415      	74.43095       	74.63774       	74.51126       	74.33456       	74.58009       	74.87219       	74.13394       	74.56366       	74.46653       	74.28968       	74.451706      	74.51957       	74.47731       	74.63986       	74.15642       	74.62271       	74.502655      	74.44181       	74.52359       	74.54356       	74.26806       	74.55463       	74.233574      	74.71697       	74.577156      	74.498215      	74.504326      	74.47272       	74.610535      	74.68839       	74.44326       	74.47672       	74.452515      	74.39953       	74.39004       	74.63895       	74.43755       	74.64372       	74.38914       	74.87674       	74.36651       	74.415726      	74.760826      	74.636185      	74.26174       	74.721886      	74.40825       	74.48062       	74.48943       	74.60347       	74.69568       	74.15067       	74.27885       	74.68275       	74.480965      	74.40471       	74.536285      	74.684746      	74.204956      	74.35279       	74.25766       	74.79986       	74.45998       	74.36739       	74.404144      	
74.5184        	74.247475      	74.79437       	74.37722       	74.25663       	74.317         	73.39956       	76.69917       	74.45816       	75.93491       	75.74795       	75.285286      	74.65726       	73.06844       	74.32376       	73.894196      	73.26269       	74.050896      	73.22548       	74.45731       	74.15125       	74.408394      	74.64447       	74.20507       	75.015274      	74.5125        	74.53008       	74.26911       	74.59761       	74.32991       	74.597305      	74.81902       	74.149445      	74.520836      	74.50479       	74.53324       	74.49327       	74.60381       	74.18957       	74.656456      	74.45034       	74.83598       	74.515236      	74.41495       	74.22301       	74.67039       	74.29727       	74.29837       	74.692055      	74.38209       	74.68545       	74.5769        	74.3196        	74.445015      	74.738556      	74.41871       	74.61171       	74.480255      	74.48782       	74.40992       	74.507126      	74.57514       	74.41112       	74.56467       	74.521324      	74.03753       	75.03509       	74.37885       	74.49359       	74.558876      	74.44117       	74.3378        	74.63177       	74.87179       	74.28077       	74.54392       	74.719864      	74.56006       	74.5097        	74.47454       	74.70613       	74.38325       	74.35015       	74.56115       	74.39277       	74.63637       	74.330894      	74.5959        	74.57425       	74.63924       	74.328186      	74.58633       	74.3085        	74.50747       	74.614204      	73.41968       	74.68815       	74.608284      	74.5997        	74.13558       	
74.35348       	74.39007       	74.51419       	74.61401       	74.647285      	74.5112        	74.010925      	74.244514      	74.49859       	76.588036      	75.607796      	74.07418       	75.30261       	74.30232       	71.70435       	74.24913       	74.86529       	74.39827       	74.48381       	74.72951       	74.56626       	74.5808        	74.341675      	74.72403       	74.292854      	74.83045       	74.360535      	74.57783       	74.42395       	74.37671       	74.311806      	74.766785      	73.93992       	75.22525       	74.17865       	74.74227       	74.342674      	74.48276       	74.69529       	74.37423       	74.57784       	74.39765       	74.61721       	74.50009       	74.47533       	74.19886       	74.78422       	74.34952       	74.46933       	74.347404      	74.58886       	74.51834       	74.392914      	74.53006       	74.414116      	74.76831       	74.56946       	74.334885      	74.366135      	74.57014       	74.430466      	74.45578       	74.55176       	74.503265      	74.52323       	74.38691       	74.731606      	74.35533       	74.7243        	74.56191       	74.12831       	74.658844      	74.59111       	74.671486      	74.562         	74.69522       	74.58181       	74.43754       	74.39081       	74.71783       	74.43676       	74.40048       	74.37845       	74.67106       	74.67027       	74.17999       	74.67444       	74.613434      	74.480965      	74.41474       	74.5733        	74.28881       	74.57538       	74.60181       	74.37868       	74.23997       	74.164696      	74.42925       	75.112465      	74.67073       	
74.25192       	74.16451       	74.574394      	74.371185      	74.10628       	75.04103       	74.5775        	74.34302       	74.509674      	74.727165      	74.214966      	74.99529       	74.66397       	74.410225      	74.34164       	74.46549       	74.73211       	74.39629       	74.70321       	74.339455      	74.50963       	74.35249       	74.43974       	74.747925      	74.531685      	74.4637        	74.58189       	74.43709       	74.6815        	74.20973       	74.28274       	74.78553       	74.43788       	74.418175      	74.46385       	74.40467       	74.43261       	74.44455       	74.84218       	74.411964      	74.37015       	74.504395      	74.56583       	74.5405        	74.56145       	74.297226      	74.70163       	74.35664       	74.50692       	74.45942       	74.474266      	74.44969       	74.56495       	74.4393        	74.41912       	74.64102       	74.47506       	74.39361       	74.505516      	74.663315      	74.544975      	74.606895      	74.372284      	74.486824      	74.64455       	74.52919       	74.38633       	74.60727       	74.458534      	74.373085      	74.4683        	74.672424      	74.43838       	74.55719       	74.72355       	74.47566       	74.63747       	74.74813       	74.25881       	74.38377       	74.834724      	74.68197       	74.17694       	74.520096      	74.47682       	74.50533       	74.68199       	74.58584       	74.579765      	74.45648       	74.421486      	74.54322       	74.412506      	74.688385      	74.51529       	74.628654      	74.34106       	74.45959       	74.572365      	74.413086      	
74.7478        	74.512         	74.19639       	74.6436        	74.97036       	74.47362       	74.264946      	74.71724       	74.61543       	74.12928       	74.74435       	74.81114       	74.64378       	74.3265        	74.04293       	74.70781       	74.633156      	74.479935      	74.57402       	74.332695      	74.43356       	74.61392       	74.4549        	74.38525       	74.63926       	74.72049       	74.557655      	74.44133       	74.7616        	74.22046       	74.42578       	74.43307       	74.41852       	74.48251       	74.63498       	74.26799       	74.50985       	74.65746       	74.771126      	74.1945        	74.55172       	74.4088        	74.77929       	74.69349       	74.32323       	74.19056       	74.73457       	74.39271       	74.20589       	74.51904       	74.83952       	74.155525      	74.68403       	74.38298       	74.46828       	74.486015      	74.57887       	74.38921       	74.50551       	74.633514      	74.47685       	74.482056      	74.68752       	74.40052       	74.66022       	74.49496       	74.40257       	74.37231       	74.44883       	74.439476      	74.50682       	74.26912       	74.6343        	74.732574      	74.63569       	74.357216      	74.59832       	74.779205      	74.37367       	74.45724       	74.88135       	74.121544      	74.484955      	74.22708       	74.861244      	74.43362       	74.42908       	74.78488       	74.15921       	74.612335      	74.61536       	74.41766       	74.88613       	74.26717       	74.454605      	74.50815       	74.35501       	74.4428        	74.59092       	74.47485       	
74.53032       	74.48399       	74.51869       	74.365944      	74.58252       	74.42238       	74.74267       	74.3731        	74.51535       	74.090645      	75.277374      	74.34845       	74.58996       	74.53487       	74.24207       	74.82873       	74.149826      	74.70068       	74.03675       	75.10016       	74.16402       	74.589355      	74.21799       	74.40716       	74.36594       	74.905334      	74.256966      	74.811714      	74.232994      	74.662315      	74.67785       	74.3583        	74.39029       	74.543         	74.70819       	74.03107       	74.643394      	74.4983        	74.72077       	74.04843       	74.70905       	74.67994       	74.45818       	74.29442       	74.81673       	74.221634      	74.15          	74.74859       	74.49449       	74.43115       	74.47755       	74.75705       	74.54768       	74.12668       	74.58686       	74.40732       	74.59521       	74.4084        	74.79985       	74.42352       	74.37282       	74.59707       	74.55046       	74.53908       	74.49053       	74.273415      	74.73038       	74.383286      	74.51501       	74.41886       	74.25496       	74.726105      	74.72069       	74.4603        	74.61711       	74.695694      	74.34063       	74.87252       	74.41634       	74.33821       	74.893684      	74.80148       	74.33765       	74.38446       	74.43948       	74.54738       	74.571175      	74.22718       	74.500694      	74.692444      	74.42369       	74.48114       	74.45012       	74.57938       	74.369484      	74.6101        	74.44317       	74.67143       	74.49857       	74.56688       	
74.46927       	74.768105      	74.142075      	73.87729       	75.09988       	74.64494       	74.62806       	74.353226      	74.269714      	75.25557       	74.20763       	74.678894      	74.43331       	74.38851       	74.64008       	74.356674      	74.52018       	74.40848       	74.61642       	74.66376       	74.51373       	74.49954       	74.34148       	74.70306       	74.387         	74.45994       	74.59172       	74.57812       	74.40836       	74.61641       	74.47317       	74.686615      	74.52154       	74.260124      	74.619         	74.510185      	74.49694       	74.4601        	74.54011       	74.7101        	74.37276       	74.635895      	74.683105      	74.425934      	74.56983       	74.341385      	74.2868        	74.40539       	74.51337       	74.76256       	74.41513       	74.298935      	74.54527       	74.66572       	74.62333       	74.35552       	74.55761       	74.45376       	74.35189       	74.456085      	74.716644      	74.61854       	74.1597        	74.46439       	74.60605       	74.55321       	74.491844      	74.3661        	74.70651       	74.345085      	74.61379       	74.46596       	74.34306       	74.42621       	74.69582       	74.88702       	74.34123       	74.80213       	74.2927        	74.62317       	74.24123       	74.76502       	74.527466      	74.62961       	74.35484       	74.40408       	74.46408       	74.68084       	74.41469       	74.52617       	74.41924       	74.44618       	74.45167       	74.3212        	74.9787        	74.4333        	74.39615       	74.525536      	74.645226      	74.673065      	
74.75733       	74.8325        	74.448746      	74.21772       	74.439964      	74.481224      	74.695335      	74.212906      	74.23235       	75.344406      	74.49657       	74.80955       	74.17089       	74.36681       	74.77703       	74.02972       	74.68857       	74.586845      	74.64082       	74.423805      	74.48697       	74.747185      	74.1754        	74.28267       	74.55389       	74.580536      	74.28268       	74.60047       	74.49565       	74.52477       	74.361015      	74.93543       	74.528984      	74.40883       	74.364624      	74.57346       	74.32117       	74.48442       	74.630226      	74.71031       	74.27455       	74.65334       	74.35768       	74.548         	74.88047       	74.19827       	74.22109       	74.81612       	74.3871        	74.862946      	73.92475       	74.738884      	74.76502       	74.12188       	74.37455       	74.74104       	74.31917       	74.567665      	74.41416       	74.59486       	74.3314        	74.59044       	74.597046      	74.63093       	74.403755      	74.54757       	74.46945       	74.40604       	74.70341       	74.621445      	74.2851        	74.45858       	74.62201       	74.40365       	74.71901       	74.60971       	74.5427        	74.67863       	74.55484       	74.48993       	74.56352       	74.70944       	74.53602       	74.41944       	74.25436       	74.49939       	74.738785      	74.41904       	74.63368       	74.564445      	74.346924      	74.40848       	74.50462       	74.765945      	74.52208       	74.44862       	74.35175       	74.49557       	74.81109       	74.8504        	
74.53478       	74.46127       	74.527214      	74.455956      	74.53315       	74.41486       	74.56927       	74.70275       	74.36351       	74.39825       	74.672455      	74.727455      	74.539665      	74.5061        	74.42922       	74.378136      	74.62602       	74.386284      	74.79232       	74.44704       	74.374504      	74.6046        	74.48643       	74.52818       	74.81269       	74.12115       	74.79894       	74.4083        	74.56604       	74.39846       	74.90681       	74.07646       	74.67609       	74.48864       	74.56454       	74.42754       	74.49059       	74.46662       	74.70902       	74.552536      	74.50156       	74.20635       	74.426636      	74.67257       	74.60678       	74.55594       	74.16416       	74.48711       	74.52327       	74.45663       	74.66378       	74.45022       	74.48536       	74.302505      	74.867744      	74.44282       	74.18081       	74.80048       	74.54557       	74.454445      	74.3776        	74.468864      	74.58248       	74.38416       	74.62712       	74.516045      	74.549576      	74.56416       	74.61568       	74.52645       	74.292145      	74.408775      	74.43182       	74.65559       	74.469284      	74.89715       	74.32145       	74.83991       	74.273994      	74.63434       	74.67759       	74.750244      	73.95427       	74.70984       	74.69113       	74.25418       	74.64781       	74.29481       	74.519646      	74.56862       	74.45854       	74.413895      	74.53888       	74.36002       	74.5009        	74.36718       	74.0682        	73.93135       	75.10481       	76.87209       	
74.49572       	74.39167       	74.53796       	74.2125        	74.364716      	74.65188       	74.33996       	74.72202       	74.45219       	74.84763       	74.807175      	74.6901        	74.25836       	74.68491       	74.09116       	74.38445       	74.81712       	74.57612       	74.28252       	74.95253       	74.21563       	74.26156       	74.59943       	74.415504      	74.545845      	74.41112       	74.64635       	74.609795      	74.348274      	74.474174      	74.61545       	74.577736      	74.19511       	74.7307        	74.30201       	74.40012       	74.49793       	74.607025      	74.56024       	74.42219       	74.72923       	74.40579       	74.21645       	74.70477       	74.499176      	74.66554       	74.21586       	74.56771       	74.358925      	74.89863       	74.07084       	74.667175      	74.46881       	74.35069       	74.47934       	74.659195      	74.327675      	74.50787       	74.61227       	74.58371       	74.53116       	74.45821       	74.68033       	74.219864      	74.576065      	74.53281       	74.43872       	74.55372       	74.28881       	74.63976       	74.475624      	74.463615      	74.413734      	74.52133       	74.69237       	74.64137       	74.587166      	74.48138       	74.76673       	74.27996       	74.452675      	74.72668       	74.40928       	74.6594        	74.503525      	74.21353       	74.378265      	74.726135      	74.34648       	74.160675      	74.50148       	74.487595      	74.27634       	74.27253       	73.8675        	77.38395       	77.72605       	76.793144      	76.12373       	75.76163       	
74.47396       	74.65619       	74.4591        	74.32182       	74.56994       	74.5067        	74.425575      	74.45983       	74.59311       	74.20341       	75.11154       	74.62427       	74.56168       	74.16023       	74.65921       	74.63546       	74.30425       	74.80825       	74.32974       	74.484474      	74.51358       	74.56299       	74.56984       	74.463234      	74.52717       	74.56768       	74.435555      	74.57514       	74.56942       	74.46583       	74.394135      	74.43766       	74.62738       	74.59868       	74.423676      	74.51059       	74.44124       	74.25428       	74.64154       	74.46959       	74.4797        	74.588234      	74.508804      	74.373825      	74.62941       	74.705635      	74.172516      	74.6436        	74.36148       	74.697754      	74.58834       	74.51079       	74.55232       	74.25601       	74.431465      	74.531044      	74.238976      	75.017654      	74.33772       	74.546         	74.26476       	74.62543       	74.603424      	74.43884       	74.55641       	74.46305       	74.47139       	74.50111       	74.46656       	74.510155      	74.66245       	74.21689       	74.60672       	74.30525       	74.51321       	74.79152       	74.581         	74.42447       	74.58587       	74.37794       	74.544464      	74.50683       	74.892746      	74.47496       	74.13199       	74.48864       	74.97596       	74.21818       	74.17209       	74.1759        	74.4989        	77.35168       	75.62094       	75.490524      	75.091385      	76.13493       	75.45595       	75.37576       	74.758835      	74.55089       	
74.44747       	74.792366      	74.33276       	74.32428       	74.61437       	74.34219       	74.875595      	74.65459       	74.537834      	74.248764      	74.23381       	74.72593       	75.05378       	74.1736        	74.39481       	74.62437       	74.62902       	74.45325       	74.57557       	74.3878        	74.67428       	74.40527       	74.66798       	74.48797       	74.30689       	74.70496       	74.6594        	74.37508       	74.46164       	74.54408       	74.46834       	74.51739       	74.50629       	74.50475       	74.40336       	74.49769       	74.70453       	74.24188       	74.25508       	74.793785      	74.34333       	74.467476      	74.4848        	74.6634        	74.34696       	74.661896      	74.65544       	74.350555      	74.23757       	74.774635      	74.44615       	74.11027       	74.87894       	74.38172       	74.783905      	74.51788       	74.12037       	74.63876       	74.44856       	74.700096      	74.1239        	74.62262       	74.39348       	74.57013       	74.48293       	74.338005      	74.63031       	74.36953       	74.50514       	74.79193       	74.25549       	74.60357       	74.38794       	74.57068       	74.31068       	74.667595      	74.89435       	74.36199       	74.43458       	74.50894       	74.35123       	74.61107       	74.4788        	73.675446      	74.72264       	76.48612       	74.92594       	75.753395      	75.1234        	75.07577       	75.87339       	75.74179       	75.0474        	74.71384       	74.63397       	74.48196       	74.325775      	74.61783       	74.37904       	74.48832       	
74.69153       	74.41961       	74.41295       	74.608696      	74.49666       	74.381035      	74.58792       	74.39746       	74.35746       	74.797005      	74.35695       	74.65526       	74.925545      	74.05579       	74.5191        	74.797195      	74.371666      	74.50195       	74.34763       	74.681305      	74.64772       	74.42772       	74.55256       	74.29566       	74.709236      	74.53662       	74.22595       	74.71934       	74.41776       	74.537315      	74.54685       	74.4284        	74.95817       	74.22022       	74.17349       	74.856804      	74.6332        	74.2761        	74.326385      	74.61339       	74.44189       	74.42341       	74.756584      	74.49972       	74.327866      	74.42967       	74.650764      	74.532265      	74.133705      	74.34796       	74.6107        	74.49383       	74.45729       	74.612404      	74.83534       	74.30088       	74.23504       	74.48986       	74.516556      	74.689026      	74.19357       	74.79911       	74.400085      	74.32025       	74.710106      	74.44781       	74.648315      	74.32209       	74.45588       	74.597         	74.303246      	74.54445       	74.58049       	74.56531       	74.57977       	74.54786       	74.42744       	74.86339       	74.28265       	74.42908       	74.81097       	74.39484       	73.50653       	77.40378       	76.70225       	75.736275      	75.04549       	75.05123       	74.78053       	74.22695       	75.34822       	74.42901       	74.403824      	74.38529       	74.68851       	74.24063       	74.04293       	74.40519       	75.04583       	74.83676       	
74.25158       	74.65342       	74.580666      	74.351746      	74.56145       	74.38965       	74.41027       	74.52066       	74.53081       	74.524994      	74.863655      	74.36385       	74.68229       	74.61158       	74.54633       	74.59634       	74.18821       	74.521416      	74.62102       	74.3781        	74.529915      	74.39754       	74.72218       	74.55161       	74.3841        	74.69664       	74.43977       	74.556335      	74.6078        	74.569664      	74.336555      	74.333954      	74.86886       	74.3838        	74.207275      	74.562096      	74.73329       	74.558876      	74.35015       	74.63716       	74.4098        	74.43403       	74.44883       	74.57533       	74.60675       	74.3165        	74.8632        	74.269165      	74.30219       	74.59778       	74.38683       	74.27863       	74.72057       	74.42438       	74.46493       	74.5492        	74.49384       	74.55806       	74.64531       	74.11501       	74.62932       	74.56513       	74.472664      	74.361244      	74.524445      	74.48875       	74.77076       	74.34842       	74.196014      	74.59332       	74.1946        	74.77099       	74.43378       	74.60228       	74.39693       	74.32419       	74.5687        	74.32441       	76.77503       	75.382835      	75.87649       	75.64315       	74.7787        	75.08209       	75.6006        	74.81066       	74.48687       	74.58366       	74.63902       	74.41357       	74.616196      	74.51316       	74.59975       	74.26468       	74.46289       	74.353836      	74.3444        	74.409225      	74.71339       	74.3925        	
74.25889       	74.474495      	74.39111       	74.795296      	74.22921       	74.657074      	74.35792       	74.43235       	74.85092       	74.50969       	74.488205      	74.47153       	74.34494       	74.9888        	74.255806      	74.40461       	74.53846       	74.493065      	74.69778       	74.37305       	74.69646       	74.31734       	74.525375      	74.55162       	74.57984       	74.45635       	74.46317       	74.60206       	74.413635      	74.208305      	74.70116       	74.57742       	74.38157       	74.42276       	74.757645      	74.37231       	74.683174      	73.99261       	75.08248       	74.34749       	74.402145      	74.37609       	74.820885      	74.337006      	74.17699       	74.59241       	74.49446       	74.43735       	74.540474      	74.50976       	74.46611       	74.46623       	74.31217       	74.48295       	74.85699       	73.95541       	74.92673       	74.15509       	74.86186       	74.21595       	74.6666        	74.18469       	74.70234       	74.452835      	74.73992       	74.36205       	74.50702       	74.30355       	74.497055      	74.48526       	74.07348       	74.66028       	74.06717       	74.44035       	74.55951       	73.00009       	77.243614      	77.45887       	75.58656       	75.00258       	74.97015       	75.10653       	74.66547       	74.49844       	74.21511       	74.51629       	74.574554      	74.36257       	74.376305      	74.79896       	74.374176      	74.49957       	74.309525      	74.74318       	74.552246      	74.50371       	74.55867       	74.52083       	74.52867       	74.68441       	
74.61729       	74.53294       	74.39451       	74.642166      	74.43685       	74.381134      	74.55039       	74.346825      	74.652275      	74.63142       	74.637405      	74.26301       	74.57162       	75.20047       	74.219215      	74.18402       	74.67721       	74.485596      	74.47882       	74.62331       	74.50242       	74.352615      	74.51875       	74.915665      	74.27839       	74.40983       	74.355095      	75.0995        	74.21818       	74.57821       	74.45514       	74.5249        	74.39486       	74.02824       	74.767914      	74.05674       	74.81715       	74.586975      	74.45482       	74.20822       	74.9918        	74.16526       	74.38108       	74.70748       	74.62619       	74.22205       	74.72376       	74.475075      	74.4267        	74.012314      	74.3624        	74.489105      	74.60745       	74.32341       	74.57151       	74.4135        	74.51532       	74.6403        	74.55583       	74.535866      	74.36904       	74.66523       	74.4945        	74.48291       	74.752945      	74.29496       	74.489716      	74.46716       	74.253395      	74.671646      	74.1827        	74.46668       	74.2856        	74.388145      	74.36117       	77.98695       	76.8515        	76.325294      	75.14699       	74.50537       	74.54761       	74.41368       	74.7036        	74.673         	74.31658       	74.669655      	74.53711       	74.486015      	74.52863       	74.60312       	74.481834      	74.40188       	74.5871        	74.56055       	74.38125       	74.157684      	74.53446       	74.588234      	74.56604       	74.6058        	
74.74851       	74.53544       	74.45138       	74.66009       	74.56324       	74.34895       	74.555244      	74.648415      	74.3876        	74.534386      	74.394455      	74.70675       	74.547585      	74.66337       	74.395134      	74.62591       	74.59738       	74.650536      	74.50242       	74.55451       	74.3615        	74.38662       	74.45567       	74.67192       	74.36339       	74.47933       	74.668526      	74.251656      	74.58116       	74.37697       	74.38852       	74.484604      	74.83486       	74.507416      	74.47612       	74.24712       	75.14821       	74.59032       	73.811775      	74.63543       	74.70068       	74.556274      	74.371445      	74.372185      	74.43366       	74.835754      	74.325325      	73.96724       	74.733894      	74.12359       	74.534645      	74.523506      	74.54829       	74.45225       	74.353836      	74.57994       	74.88274       	74.329475      	74.050735      	74.74999       	74.63472       	74.19001       	74.549385      	74.446785      	74.5495        	74.38756       	74.87917       	74.49387       	74.298035      	74.14737       	74.99071       	73.89992       	74.32392       	73.87048       	75.82125       	77.041885      	76.22384       	75.82551       	75.3214        	74.74287       	74.553444      	74.28647       	74.50307       	74.367455      	74.784         	74.4986        	74.3873        	74.6956        	74.60735       	74.251045      	74.58992       	74.52941       	74.32696       	73.150444      	75.89225       	74.640854      	74.57561       	74.630615      	74.79518       	74.33457       	
75.10132       	74.848076      	74.00605       	74.57606       	74.89092       	74.120865      	74.340485      	74.40679       	74.4952        	74.745255      	74.609116      	74.34425       	74.358765      	74.723915      	74.61181       	74.526085      	74.65584       	74.15386       	74.62185       	74.525276      	74.46829       	74.51455       	74.45116       	74.50082       	74.259735      	74.58552       	74.580666      	74.32322       	74.47658       	74.69813       	74.46426       	74.62923       	74.577995      	74.268135      	74.76486       	74.49661       	74.239105      	74.80544       	74.40676       	74.271545      	74.48032       	74.411514      	75.02319       	74.34161       	74.367134      	74.789024      	74.10626       	74.69246       	74.28754       	74.47616       	74.19831       	74.93341       	74.51314       	74.878716      	73.9399        	74.62124       	74.78075       	73.99904       	74.57943       	74.38946       	74.6329        	74.02915       	75.0241        	74.22626       	74.54677       	74.708885      	74.528114      	74.55103       	73.88227       	74.43125       	74.66073       	74.25338       	74.28698       	73.96077       	75.872795      	77.39911       	75.94984       	75.95819       	76.14354       	74.49784       	74.54129       	74.40896       	74.733116      	74.52367       	74.285614      	74.84782       	74.50619       	74.5424        	74.47798       	74.39026       	74.4624        	74.53731       	74.41823       	74.477066      	74.53372       	74.14567       	74.65946       	74.4027        	74.52789       	74.44441       	
74.57565       	74.7904        	74.19633       	74.797424      	74.29594       	74.3172        	74.73914       	74.43716       	74.55088       	74.19898       	74.858315      	74.46358       	74.42254       	74.6438        	74.58952       	74.55949       	74.4096        	74.57476       	74.612564      	74.27083       	74.49593       	74.68837       	74.34416       	74.40874       	74.72449       	74.41163       	74.40726       	74.753784      	74.347855      	74.39074       	74.3083        	74.66331       	74.816956      	74.70641       	74.69766       	74.34985       	74.589584      	74.15342       	74.34653       	74.351585      	74.69521       	74.37028       	74.53082       	74.90914       	74.38095       	74.31369       	74.75561       	74.38524       	74.52033       	74.18292       	74.05243       	74.49196       	74.50464       	74.66938       	74.32471       	74.44167       	74.90699       	74.16352       	74.484314      	74.512985      	74.59567       	74.56626       	74.63169       	74.40189       	74.29363       	74.27986       	74.89255       	74.321526      	74.38706       	74.90558       	74.34428       	74.245094      	74.53344       	73.96391       	74.217766      	78.2152        	76.53575       	75.82989       	75.908394      	74.71779       	74.640724      	74.31638       	74.691734      	74.39922       	74.64265       	74.40397       	74.60316       	74.53002       	74.434006      	74.36642       	74.48391       	74.44633       	74.49758       	74.51188       	74.62598       	74.52456       	74.553825      	74.58196       	74.63046       	74.70459       	
74.58259       	74.39627       	74.57721       	74.6032        	74.47812       	74.29995       	74.64916       	74.63159       	74.3907        	74.39307       	74.77267       	74.49311       	74.57844       	74.489746      	75.103615      	74.10453       	74.47915       	74.523415      	75.05521       	73.98581       	74.46766       	74.56014       	74.37166       	74.71083       	74.82292       	74.05956       	74.64973       	74.647766      	74.26425       	74.86918       	74.12097       	74.54298       	74.34605       	74.58948       	74.7363        	74.27629       	74.5544        	74.47663       	74.416435      	74.74505       	74.35718       	74.35274       	75.16982       	74.08027       	74.640274      	74.09503       	74.49767       	74.448166      	74.688354      	74.19851       	74.4824        	74.732056      	74.530426      	74.241905      	74.705376      	74.447         	75.24494       	73.76674       	74.519615      	74.22796       	74.73375       	74.99236       	74.34499       	74.20924       	74.316864      	74.61223       	74.32378       	74.83538       	74.10098       	74.685295      	74.35566       	74.70653       	73.81021       	74.30012       	74.07732       	77.89915       	76.74229       	75.83736       	75.524376      	74.88607       	74.29982       	74.66283       	74.51683       	74.386284      	74.75127       	74.3353        	74.49028       	74.460724      	74.54755       	74.492775      	74.96242       	74.30365       	74.36355       	74.32634       	74.5957        	74.06565       	74.53641       	73.64991       	74.95312       	75.82266       	
74.80973       	74.44255       	74.12003       	74.28855       	74.643684      	74.63386       	74.7295        	74.761505      	74.25984       	74.611824      	74.59495       	74.461876      	74.37631       	74.44644       	74.869545      	74.341064      	74.284584      	74.70035       	74.730034      	74.332794      	74.54764       	74.36844       	74.74667       	74.42906       	74.23206       	74.61267       	74.81683       	74.36024       	74.38998       	74.472084      	74.746445      	74.159355      	74.24935       	74.95066       	74.45626       	74.08384       	74.55717       	74.417534      	74.793396      	74.68645       	74.54656       	74.181         	74.661736      	74.5949        	74.71431       	74.44201       	74.307846      	74.30167       	74.741714      	74.12371       	74.19949       	74.75783       	74.698364      	74.42683       	74.6659        	74.409874      	74.19742       	74.88739       	74.36847       	74.44229       	74.68623       	74.18673       	74.46059       	74.58323       	74.525894      	74.59604       	74.37719       	74.53238       	74.53016       	74.65782       	74.519684      	74.368095      	74.36129       	74.10413       	73.67939       	77.97297       	75.93872       	75.98803       	75.596565      	76.274086      	74.223885      	74.71839       	74.49473       	74.37243       	74.60107       	74.446945      	74.70311       	74.252335      	74.703545      	74.49453       	74.62411       	74.24903       	74.64369       	74.66284       	74.43452       	74.35999       	74.425896      	74.51249       	74.68496       	74.5292        	
74.18836       	74.54063       	74.67308       	74.276184      	74.415565      	74.6736        	74.31089       	74.42626       	74.4992        	74.66447       	74.17687       	74.8229        	74.43577       	74.500206      	74.91161       	74.373245      	74.42547       	74.576744      	74.43535       	74.69809       	74.410095      	74.31432       	74.26343       	74.557335      	74.5748        	74.51983       	74.55196       	74.573715      	74.39199       	74.73924       	74.48479       	74.21621       	74.73996       	74.42413       	74.63594       	74.4936        	74.377945      	74.88814       	74.27021       	74.04724       	74.51673       	74.44439       	74.277306      	74.30634       	76.686615      	75.985         	75.59899       	74.77162       	74.01269       	73.440445      	73.47579       	72.569725      	70.946526      	74.18195       	74.45319       	74.89465       	74.42608       	74.61443       	74.86259       	74.08898       	74.55972       	74.07323       	74.69671       	74.89153       	73.8602        	74.8966        	74.479454      	73.84279       	74.55349       	74.911224      	74.42063       	74.278145      	74.136406      	74.2969        	74.28197       	75.27445       	77.44555       	76.39253       	75.948135      	75.644714      	74.63719       	74.02594       	74.79055       	74.24859       	74.84914       	74.46285       	74.723595      	74.1275        	74.67876       	74.81604       	74.32117       	74.238945      	74.598854      	74.6406        	74.556145      	74.48687       	74.87493       	74.35248       	74.73519       	74.59093       	
74.220436      	74.44127       	74.66787       	74.465706      	74.34638       	74.79765       	74.726585      	74.507614      	74.114296      	74.648476      	74.61671       	74.48308       	74.43499       	74.5243        	74.50172       	74.461945      	74.79624       	74.38496       	74.293045      	74.57865       	74.57204       	74.2565        	74.32028       	74.91086       	74.69108       	74.008255      	74.32369       	74.86752       	74.30106       	74.44542       	74.62165       	74.44958       	74.47043       	74.69388       	74.82245       	73.852745      	74.27908       	74.26303       	74.11246       	75.56913       	75.82412       	75.122765      	76.09344       	75.45959       	75.60341       	75.71605       	74.64053       	75.116875      	74.292496      	73.65919       	72.86454       	73.07282       	69.4304        	74.32562       	74.46219       	74.59602       	74.35272       	74.43205       	74.552185      	75.234314      	74.25105       	74.02399       	74.487885      	74.396965      	74.41934       	74.902084      	74.52523       	74.161194      	74.4875        	74.2021        	74.690575      	74.407646      	74.307594      	74.45084       	73.81546       	75.00296       	77.99977       	76.50771       	75.35176       	75.810616      	75.76097       	73.72823       	74.2069        	74.6858        	75.01268       	74.04239       	74.36478       	74.54674       	74.53693       	74.119934      	75.19618       	74.15115       	74.46345       	74.42374       	74.70836       	74.5469        	74.430595      	74.64093       	74.582825      	74.29081       	
74.617714      	74.4764        	74.35581       	74.33423       	74.6125        	74.44881       	74.676765      	74.54793       	74.68824       	74.38292       	73.906006      	75.07837       	74.47184       	74.5512        	74.62495       	74.58391       	74.53381       	74.512474      	74.120964      	74.68994       	74.14922       	74.993546      	74.436386      	74.53594       	74.47335       	74.39748       	74.56281       	74.43213       	74.53347       	74.67482       	74.59676       	73.83093       	74.85202       	74.29618       	74.24925       	74.021454      	75.21763       	76.41823       	76.113014      	75.81558       	75.531265      	74.695244      	74.95988       	75.113365      	74.72653       	74.066185      	74.91844       	74.44135       	74.617065      	74.35321       	73.08552       	72.67509       	70.69476       	73.64627       	74.44289       	74.502266      	74.440834      	74.62442       	74.59136       	74.65919       	74.26213       	75.03674       	73.742134      	74.57926       	74.44135       	74.77092       	74.51256       	74.724754      	74.09294       	74.19773       	74.710175      	74.3292        	74.57105       	74.11324       	74.098785      	74.21446       	77.940414      	76.25423       	75.96809       	75.667244      	75.17926       	74.69536       	74.381096      	74.82583       	74.09601       	74.625         	74.70569       	74.41704       	74.50484       	74.74645       	74.52041       	74.54195       	74.83555       	73.83512       	74.41636       	74.6539        	73.974525      	74.519936      	75.463844      	75.20496       	
74.635155      	74.53541       	74.59393       	74.75122       	74.32705       	74.72208       	73.91933       	74.557465      	74.80378       	74.130775      	74.74863       	74.44748       	74.41052       	74.826805      	74.288506      	74.775734      	74.44194       	74.63884       	74.42796       	74.38836       	74.457466      	74.55393       	74.47727       	74.620834      	74.3971        	74.62121       	74.458855      	74.32371       	74.33104       	74.531494      	74.42168       	73.61045       	76.9071        	76.15371       	76.02924       	75.01265       	75.59495       	75.41857       	74.97519       	74.230835      	74.755455      	75.129906      	74.66086       	73.84133       	74.267136      	74.7394        	73.51059       	75.198906      	75.01901       	74.368195      	73.331726      	73.02365       	71.40351       	72.70506       	73.95187       	74.56147       	74.59099       	74.387405      	74.7803        	74.46133       	74.17019       	74.468094      	74.46436       	74.609505      	74.28273       	74.49871       	74.66275       	74.41069       	74.79575       	73.80604       	74.806755      	74.09449       	74.41791       	74.638885      	73.82708       	73.809654      	76.64132       	76.89438       	76.23718       	75.70028       	75.74997       	74.64687       	74.63537       	74.42461       	74.25236       	75.17596       	74.41037       	73.888725      	74.77412       	74.514145      	74.29839       	74.461464      	74.97018       	74.79479       	74.14927       	73.906975      	73.50137       	75.270874      	75.35286       	74.17584       	
74.50676       	74.5104        	74.58523       	74.444084      	74.42659       	74.61435       	74.571396      	74.27807       	74.6695        	74.48108       	74.64134       	74.487015      	74.605835      	74.26792       	74.49224       	74.57498       	74.78709       	74.51776       	74.41554       	74.64292       	74.00168       	74.65752       	74.72679       	74.13888       	74.50328       	74.59624       	74.17624       	73.91758       	76.36093       	75.98481       	76.11906       	74.834816      	76.608864      	74.790565      	75.048775      	74.39888       	74.74946       	74.360535      	74.59203       	74.48877       	74.45281       	74.677444      	74.56215       	74.34577       	74.901024      	74.122505      	75.01755       	74.58807       	74.297516      	74.41065       	73.480675      	73.01622       	71.84291       	72.47012       	73.73731       	74.454636      	74.625275      	74.82692       	74.02713       	74.49142       	75.161446      	74.37256       	74.04297       	74.28138       	74.678955      	74.61034       	74.6552        	74.08351       	74.49769       	74.53795       	74.305885      	74.6415        	73.92054       	74.79736       	74.22433       	73.65594       	75.75861       	77.10904       	76.50025       	76.05351       	75.63032       	75.35          	74.206085      	74.512184      	74.02678       	74.54274       	74.9474        	74.64313       	74.54964       	74.13795       	74.254295      	74.64703       	74.50887       	74.34176       	74.519005      	74.55042       	74.277664      	74.71355       	74.67187       	74.592186      	
73.89577       	74.450455      	74.2807        	74.59877       	74.37127       	74.53944       	74.603424      	74.33775       	74.989655      	74.25334       	74.48624       	74.428764      	74.39728       	74.44482       	74.64716       	74.64662       	74.788994      	74.37291       	74.85516       	73.969315      	74.69134       	74.484726      	74.245155      	74.4695        	75.78386       	76.20609       	75.58122       	76.099594      	75.60969       	74.562965      	74.74318       	74.57199       	74.78742       	74.31914       	74.868835      	74.61537       	74.66974       	73.8015        	74.768295      	74.5676        	74.97625       	74.32812       	74.677345      	74.64819       	74.43464       	74.686165      	74.65614       	74.59739       	74.190254      	74.52657       	73.47124       	72.83253       	72.22599       	72.14287       	73.77689       	74.6098        	74.5926        	74.570984      	74.58883       	74.5848        	74.07975       	74.5292        	74.55782       	74.47826       	74.619545      	74.41946       	74.273445      	74.80604       	74.633446      	73.8442        	74.97348       	74.39446       	74.10325       	74.480804      	74.27239       	73.827324      	75.31547       	77.013405      	75.89483       	76.27369       	76.13635       	74.88455       	74.95147       	73.70073       	74.762955      	74.91195       	73.769104      	74.61967       	74.44484       	74.782524      	74.55993       	73.48024       	75.04691       	74.488625      	74.447815      	74.1597        	74.26605       	74.69935       	74.49523       	74.706024      	
74.806366      	74.27009       	74.60075       	74.00626       	74.4059        	74.57322       	74.345856      	75.23823       	73.95079       	74.38379       	74.22131       	74.84801       	74.96171       	73.85846       	74.26329       	74.50655       	75.032616      	74.373         	73.77625       	74.79064       	75.87427       	75.93026       	76.381424      	75.82525       	75.86627       	74.39921       	74.50847       	74.853806      	74.65111       	74.28348       	74.51589       	74.61218       	74.67512       	74.18585       	74.589775      	74.49926       	74.67236       	74.37264       	74.40026       	74.65193       	74.65671       	74.51016       	73.99709       	74.61263       	74.81879       	74.64675       	74.552185      	74.70699       	74.46923       	74.91312       	74.318954      	73.08274       	72.72973       	70.73907       	72.7863        	74.76034       	73.956985      	74.52988       	74.50335       	74.371         	74.38181       	74.54163       	74.6333        	74.456         	74.481384      	74.59614       	74.2676        	74.65076       	74.36323       	74.834946      	74.26953       	73.984566      	74.68296       	74.64459       	74.035515      	74.08691       	74.22919       	77.14042       	76.70146       	75.9217        	75.80669       	75.395134      	74.95855       	73.87144       	74.70889       	74.17154       	74.44948       	74.279106      	74.23176       	74.83559       	74.84283       	74.15917       	74.12808       	74.877174      	74.982376      	73.95846       	74.96579       	74.52726       	74.22061       	74.35549       	
74.36733       	74.53653       	74.749825      	74.179955      	75.00478       	74.60272       	74.64741       	74.19835       	74.809654      	74.17277       	74.63589       	74.64732       	73.85849       	74.33881       	74.22394       	73.48409       	76.07543       	77.73116       	75.03607       	74.92946       	75.74254       	74.715965      	75.790306      	73.99863       	74.60804       	74.520966      	74.55014       	74.316864      	75.053795      	74.15389       	74.88632       	74.572495      	73.61669       	75.153206      	74.01147       	74.8111        	74.96558       	73.768616      	75.05589       	74.17737       	74.19422       	74.73411       	74.31281       	74.68644       	74.41044       	74.74216       	75.06145       	73.88351       	74.43125       	74.61812       	74.24244       	73.587265      	73.02227       	71.578995      	72.36717       	74.13799       	74.2854        	74.76377       	74.48709       	74.55039       	74.61726       	74.34343       	74.410934      	74.778824      	74.362915      	74.44079       	74.66516       	74.69378       	74.2471        	74.01433       	74.947685      	74.50567       	74.452286      	74.005806      	74.45149       	74.49581       	73.27743       	77.7295        	75.83242       	76.37602       	75.99219       	75.20486       	74.521805      	74.35558       	74.80654       	74.22801       	74.81936       	74.54174       	74.5092        	74.57041       	74.83368       	74.399864      	73.91818       	74.59928       	75.12676       	74.267166      	74.08223       	74.383995      	74.55741       	74.36677       	
74.391426      	74.58397       	74.58835       	74.381165      	74.95079       	74.05804       	74.31035       	74.45993       	74.65926       	74.35457       	74.307396      	74.518005      	74.447624      	74.33743       	73.858826      	78.265625      	77.05365       	76.75129       	74.79066       	74.442345      	74.56595       	74.46955       	74.34745       	74.76496       	74.32453       	74.19272       	74.713936      	74.59871       	74.22191       	74.416725      	74.749435      	74.46728       	74.47239       	74.53442       	74.534874      	74.88306       	74.49362       	74.18508       	74.33007       	74.90222       	74.32296       	74.19377       	75.11639       	73.66534       	74.413124      	74.82253       	74.73087       	74.4599        	74.66909       	74.47983       	74.23171       	73.87333       	72.74908       	71.82413       	72.398026      	74.00307       	74.56325       	74.87691       	73.86846       	74.76519       	74.552986      	74.064156      	74.48003       	74.62065       	74.435715      	74.6036        	74.65956       	74.4597        	74.44259       	74.23733       	74.87983       	74.1326        	74.10602       	74.33589       	74.840546      	74.28627       	73.67652       	76.353836      	77.139946      	76.153984      	75.637314      	75.54037       	74.63684       	75.11232       	74.30275       	74.09118       	74.76917       	74.619934      	74.45755       	74.50394       	74.310425      	74.56401       	74.58329       	74.50847       	74.44481       	74.54931       	74.637825      	74.51396       	74.42992       	74.22689       	
74.51105       	74.91296       	74.02778       	74.15657       	75.15766       	73.79734       	74.68091       	75.307434      	74.03019       	74.275314      	74.47964       	74.093124      	74.2475        	73.20946       	78.125626      	77.567024      	76.21718       	75.96005       	74.60948       	73.71949       	74.60493       	74.58688       	74.23585       	74.55878       	74.6203        	74.516556      	74.36669       	74.63437       	74.03951       	74.85012       	74.318756      	74.596         	74.71953       	74.21462       	74.63518       	74.896385      	74.29615       	74.443985      	74.669395      	74.57532       	74.12521       	74.57307       	74.60495       	74.30799       	74.63365       	74.72615       	74.418625      	74.399994      	74.54557       	74.57585       	74.66066       	73.74058       	73.28059       	71.1578        	72.63954       	73.61346       	74.78076       	74.20025       	75.00163       	74.47446       	73.704765      	74.88594       	74.73811       	74.45173       	74.18869       	74.89504       	74.32708       	74.414764      	74.64927       	74.58359       	74.01512       	74.307785      	74.56748       	74.54429       	74.305984      	74.340576      	73.72682       	74.53323       	77.880196      	76.20627       	75.557014      	75.45657       	75.48763       	74.32632       	74.482216      	74.568054      	74.47197       	74.55371       	74.30281       	74.757935      	74.30484       	74.18196       	74.88323       	74.651085      	74.58065       	74.37787       	74.61641       	73.868095      	74.104195      	75.567924      	
74.426155      	74.1352        	74.63674       	74.49752       	74.413574      	74.65855       	74.9053        	74.10552       	74.864784      	74.13588       	74.40135       	74.34425       	74.32825       	73.33252       	78.70666       	76.07794       	75.43753       	76.1881        	75.52563       	74.042366      	74.672134      	74.80957       	74.30926       	74.437035      	74.536575      	74.59511       	74.48567       	74.553604      	74.71994       	74.11916       	74.39106       	74.66644       	75.19193       	73.73379       	74.63934       	74.62677       	74.224266      	74.43192       	75.19051       	73.925934      	75.06683       	74.419754      	74.71385       	74.228935      	74.619385      	74.66173       	74.33293       	74.63543       	74.46329       	74.37349       	74.42509       	73.99382       	73.234184      	71.12824       	73.03963       	73.658035      	74.170906      	74.59402       	74.66393       	74.28775       	75.269005      	74.41312       	73.8546        	74.30416       	74.603905      	74.62315       	74.416         	75.069824      	74.42533       	74.379486      	74.43282       	74.70883       	74.17303       	74.16784       	74.37583       	74.627815      	74.1233        	73.99887       	75.575424      	77.20766       	76.84747       	75.72861       	75.54785       	74.606575      	74.302765      	74.448326      	74.65925       	74.71501       	74.38337       	74.170715      	74.64215       	74.53843       	74.304115      	74.497055      	74.75459       	74.40616       	74.445305      	74.53073       	74.87817       	74.845085      	
73.985306      	74.759796      	74.38707       	74.34338       	74.70755       	74.46253       	74.07778       	74.64489       	74.28446       	74.52727       	74.32188       	74.33991       	74.171074      	74.112495      	76.00352       	77.682076      	76.2365        	75.50768       	75.678116      	74.45385       	74.53985       	74.42732       	74.57402       	74.245705      	74.65805       	74.80709       	74.65353       	74.31748       	74.66729       	74.61588       	74.33417       	74.16773       	74.15373       	74.719154      	74.93918       	74.18146       	74.06794       	75.12481       	74.40313       	74.29041       	74.72337       	74.653915      	74.072105      	74.7444        	74.50245       	74.55146       	74.17512       	74.87541       	74.62952       	74.55013       	74.38299       	73.85439       	73.97923       	72.07416       	72.22078       	71.96569       	74.34149       	75.279434      	73.71166       	74.621376      	74.16837       	74.12122       	74.67408       	74.27886       	75.03023       	74.057686      	74.65464       	75.25768       	73.18303       	75.3421        	74.21864       	74.22787       	74.074524      	74.51918       	74.48779       	74.56704       	74.274765      	73.99067       	75.363045      	77.92972       	75.85804       	75.779396      	75.9124        	74.1892        	74.25282       	74.5442        	74.71961       	74.47437       	74.372986      	74.62424       	74.92143       	74.209045      	74.509865      	74.36907       	74.72191       	74.28481       	74.4009        	74.67477       	74.70215       	74.579285      	
74.29599       	74.41559       	74.728004      	74.25725       	74.48323       	74.343895      	74.38036       	74.42185       	74.4059        	74.79336       	74.28865       	74.804535      	73.90748       	74.11431       	74.734375      	78.16487       	75.72758       	75.486145      	75.87301       	75.0008        	74.35397       	74.72927       	74.33132       	74.43817       	74.78485       	74.4677        	74.479576      	74.728745      	74.40446       	74.44261       	74.70482       	74.64677       	74.14904       	74.46337       	74.53092       	74.60282       	74.59521       	74.17539       	74.923355      	74.40179       	74.39471       	74.92501       	74.26869       	74.4884        	74.55892       	74.576614      	74.2761        	74.74054       	74.470604      	74.51533       	74.640015      	74.55302       	73.829735      	72.851036      	71.26107       	72.19429       	74.55508       	74.431046      	74.18601       	74.84439       	74.309494      	74.19973       	74.6181        	74.39095       	74.4757        	74.81846       	74.71764       	74.40527       	74.443634      	74.32852       	74.469925      	74.55416       	74.73191       	74.23692       	74.48027       	73.937004      	74.51199       	73.69116       	75.0932        	77.847275      	76.26199       	75.66076       	75.6867        	74.92436       	74.376274      	74.24417       	74.63369       	74.39394       	74.56992       	74.63506       	74.410446      	74.53359       	74.5466        	74.286736      	74.88577       	74.38627       	74.71579       	74.42667       	74.8038        	74.4778        	
74.17014       	74.13964       	74.74341       	74.515045      	74.46777       	74.02699       	74.33249       	74.412895      	74.25065       	74.604454      	74.88676       	74.097755      	74.63981       	73.89813       	73.42401       	77.8336        	76.4467        	75.51827       	76.555824      	75.02848       	74.37429       	74.68862       	74.06988       	74.690895      	74.59978       	74.304665      	75.15611       	74.29161       	74.4399        	74.65465       	74.44023       	74.27101       	74.830864      	74.08882       	74.848305      	74.01366       	74.65062       	74.541435      	74.72448       	74.502106      	74.28261       	74.58256       	74.57812       	74.512436      	74.52985       	74.52147       	74.283356      	74.98882       	73.93494       	74.66464       	74.74238       	74.22175       	73.799774      	73.06899       	71.84446       	72.06774       	74.26031       	73.94829       	74.546196      	74.861115      	74.50392       	74.29043       	74.01145       	74.45793       	74.29959       	74.584335      	74.82681       	74.03973       	74.17332       	75.02083       	74.54164       	74.42952       	74.42438       	74.41068       	74.272896      	74.284454      	74.48372       	74.32741       	74.528824      	77.54975       	75.99563       	75.595406      	76.32822       	75.15278       	74.63976       	73.89531       	74.45679       	74.64172       	74.61239       	75.03868       	73.637856      	74.52664       	74.45618       	74.83489       	74.34216       	74.559525      	74.41018       	74.41318       	74.857056      	74.61742       	
74.508255      	74.410614      	74.56869       	74.150734      	75.068924      	73.90485       	74.557236      	74.48564       	74.40546       	74.424866      	74.47282       	74.55713       	74.43974       	74.13948       	73.9189        	76.42672       	76.990135      	75.90037       	75.95175       	75.562195      	74.19607       	75.12588       	73.97157       	74.30913       	74.806625      	74.441376      	74.48507       	74.70388       	74.88474       	74.55713       	74.685974      	73.78419       	74.61404       	74.43965       	74.64693       	74.38113       	74.62375       	74.43941       	74.56232       	74.89592       	74.680695      	73.98202       	74.51675       	74.19167       	75.126854      	74.36483       	74.32713       	74.47904       	74.59197       	74.68104       	74.38933       	74.66874       	73.26967       	72.67612       	73.009056      	72.36953       	73.71564       	74.1688        	74.24546       	74.52325       	74.961426      	74.302315      	74.26776       	74.01562       	74.66547       	74.352036      	74.73542       	74.77214       	74.520905      	74.51303       	74.363625      	74.25576       	74.46056       	74.22977       	74.368935      	74.86844       	73.97821       	74.17496       	73.34908       	78.377         	76.51993       	75.85302       	76.113594      	74.924614      	74.972206      	74.060135      	74.37741       	74.266624      	74.48901       	74.604225      	74.248474      	74.84836       	74.59707       	74.26044       	74.3272        	74.54702       	74.233086      	74.41042       	74.90698       	74.56071       	
74.560715      	74.47938       	74.917984      	74.27004       	74.74123       	74.16313       	74.45564       	74.81718       	74.5516        	74.181305      	74.02806       	75.18968       	73.692276      	74.63993       	73.92785       	74.98971       	77.50802       	76.190796      	75.965675      	75.8865        	74.67491       	74.36233       	74.41318       	74.91638       	74.360146      	74.43621       	74.63583       	74.15274       	75.08894       	73.70657       	74.48486       	74.574745      	74.35711       	74.50566       	74.50616       	74.53115       	74.67624       	74.6259        	74.308         	74.507065      	74.64238       	74.42759       	74.47341       	74.53196       	74.63215       	75.09739       	73.76784       	75.12123       	74.4343        	74.71489       	73.60457       	75.12252       	74.13022       	73.11974       	73.39206       	70.71712       	73.38866       	74.17447       	74.64819       	74.56272       	74.2786        	74.20062       	74.861275      	74.08514       	74.12796       	75.072205      	74.696205      	74.31407       	74.185074      	74.191895      	74.50538       	74.38658       	74.64829       	74.15759       	75.2084        	73.66977       	74.6762        	74.397675      	73.08656       	77.55935       	75.69174       	76.709435      	75.73595       	76.25779       	74.31505       	74.06642       	74.525894      	74.581184      	74.17982       	74.537384      	74.42669       	74.54327       	74.54423       	74.41823       	74.756424      	74.40024       	74.3423        	74.639305      	74.51263       	74.62441       	
74.59818       	74.36502       	74.56129       	74.26007       	74.80116       	74.44959       	74.37105       	74.48123       	74.62612       	74.481445      	74.477844      	74.59477       	74.007835      	74.40977       	74.45261       	72.99453       	78.578255      	76.799194      	75.89277       	75.636055      	74.90351       	74.31495       	74.45277       	74.68017       	74.58186       	74.419235      	74.55624       	74.31688       	74.571434      	74.61957       	74.508514      	74.17102       	74.70759       	74.65613       	74.36117       	74.317924      	74.78181       	74.449066      	74.47662       	74.51872       	74.603165      	74.53899       	74.18415       	74.66275       	74.7536        	74.25512       	74.63848       	74.639244      	74.61313       	74.17454       	74.221466      	75.269485      	74.347404      	73.711494      	73.293274      	71.41112       	71.98231       	74.49073       	74.802826      	74.310486      	74.50332       	73.89207       	74.95579       	73.77456       	75.19437       	74.506714      	74.04258       	74.643036      	74.292694      	74.78477       	74.35746       	74.22127       	74.49841       	74.32243       	74.42846       	74.15459       	74.533424      	74.16784       	73.02145       	77.06385       	76.89251       	76.570724      	75.62514       	75.45689       	73.701546      	75.16312       	74.67283       	74.22175       	74.832436      	74.26166       	75.19125       	73.81189       	74.668915      	74.321075      	74.613976      	74.54294       	74.50248       	74.75176       	74.651985      	74.57179       	
75.140884      	75.2123        	74.1631        	74.30952       	74.53048       	74.60612       	74.50977       	74.39449       	74.64466       	74.291695      	74.43182       	74.541         	73.97469       	74.82685       	74.64447       	73.167625      	78.4535        	75.85283       	75.77536       	75.79509       	75.34146       	74.55005       	74.37463       	74.51923       	74.415436      	74.49493       	74.67127       	74.50261       	74.908676      	74.077934      	74.345406      	74.554596      	74.50344       	74.32427       	74.78229       	74.507866      	74.641205      	74.36502       	74.67811       	74.6262        	74.386345      	74.42811       	74.58002       	74.46958       	74.42965       	74.56948       	74.61564       	74.29714       	74.68772       	74.334076      	74.7171        	75.16035       	74.2659        	73.78332       	72.14091       	72.29652       	72.49228       	73.81321       	74.74421       	74.35843       	74.1499        	74.358604      	74.44603       	74.23422       	74.87482       	74.25799       	74.264854      	74.67824       	74.36062       	74.55306       	74.39137       	74.46389       	74.91595       	74.03423       	74.41642       	74.60959       	74.24269       	74.535034      	73.87045       	75.27915       	77.383         	76.273346      	75.31325       	75.98256       	74.89087       	74.75074       	74.16764       	74.564125      	75.02339       	73.69602       	74.4052        	74.897606      	73.81913       	74.559326      	74.40486       	74.44004       	74.36092       	74.362114      	74.66591       	74.266556      	
74.38557       	74.34832       	74.46164       	74.132774      	74.758766      	74.541954      	74.398224      	74.98865       	74.21655       	74.734924      	73.92766       	74.86874       	74.34953       	74.38608       	73.90586       	73.811165      	76.73069       	76.02163       	76.37422       	75.86922       	75.59526       	74.52534       	75.028206      	73.99358       	74.78856       	74.28531       	74.65194       	74.41779       	74.57765       	74.43015       	74.50002       	74.56707       	74.4479        	74.812675      	73.91181       	74.48114       	74.534904      	74.308975      	75.26768       	73.93811       	74.440384      	74.73647       	74.069016      	74.44648       	74.53403       	74.605835      	75.02455       	74.47396       	74.5535        	74.65499       	74.36311       	74.68671       	74.61436       	73.776695      	73.03307       	72.46758       	72.4535        	71.55111       	74.96477       	74.40257       	74.61226       	74.15428       	74.30394       	74.691124      	74.41998       	74.413376      	74.42256       	74.44208       	74.59595       	74.50695       	74.53228       	74.71183       	74.352264      	74.63378       	74.609116      	73.72924       	74.61497       	74.16698       	74.14868       	73.87904       	78.364456      	76.13622       	75.1744        	76.579994      	74.968735      	74.39385       	74.64981       	74.62489       	74.2576        	75.02589       	73.91192       	74.46912       	74.708466      	74.457054      	74.25625       	74.351654      	74.65404       	74.34337       	74.42206       	74.55418       	
74.563446      	74.37727       	74.6054        	74.31049       	74.51528       	73.93754       	75.07279       	74.14377       	74.34997       	74.15654       	74.576164      	74.60143       	74.89888       	74.10558       	74.08673       	74.17296       	75.63705       	76.66284       	76.067726      	75.363815      	76.13274       	74.45728       	74.94571       	74.17405       	74.64189       	74.5681        	74.48211       	74.42326       	74.81478       	74.41488       	74.4334        	74.54308       	74.72854       	74.20063       	74.58624       	74.43616       	74.527985      	74.598145      	74.468475      	74.351074      	74.63893       	74.5399        	74.32886       	74.83615       	74.42016       	74.77473       	74.32624       	74.49588       	74.62552       	74.59066       	74.52737       	74.36458       	74.82467       	74.40134       	74.04824       	73.03426       	71.60755       	71.75646       	74.44672       	74.584946      	74.39775       	74.54479       	74.451775      	74.39428       	74.51203       	74.52628       	74.61438       	74.21504       	74.685394      	74.33616       	74.42528       	74.428894      	74.88494       	74.18699       	74.57923       	74.24015       	74.61315       	74.39208       	74.14616       	73.76934       	77.690285      	76.89802       	76.00835       	75.647606      	75.36261       	74.28769       	74.55625       	74.44365       	74.302765      	74.9653        	74.31083       	74.36335       	74.48151       	74.51269       	74.55847       	74.82984       	74.44207       	73.945175      	74.25367       	74.49752       	
74.28916       	74.6582        	74.55074       	74.32345       	74.504974      	74.96931       	73.994896      	74.71969       	74.276245      	74.38418       	74.38465       	74.65973       	74.58973       	74.62411       	74.7091        	73.900055      	74.52043       	77.1924        	76.07167       	75.52865       	76.227615      	74.90617       	74.52417       	74.346466      	74.48334       	74.43195       	74.66544       	74.66959       	74.40489       	74.56037       	74.36378       	74.565056      	74.56339       	74.27264       	74.69716       	74.41272       	74.42254       	75.23774       	73.978424      	74.15634       	75.089005      	73.96825       	74.76115       	74.63887       	74.65757       	74.420784      	74.09244       	75.09437       	74.18584       	74.909225      	73.88991       	74.38856       	75.02494       	74.608284      	73.72718       	72.71532       	72.25591       	71.68658       	74.130196      	73.94438       	74.61574       	74.4376        	74.556305      	74.219025      	74.38663       	74.55085       	74.29616       	74.596725      	74.65438       	74.42374       	74.41989       	74.44861       	74.88998       	74.657776      	74.01081       	74.31479       	74.68136       	74.32197       	74.15386       	73.29046       	77.96044       	76.60631       	75.67533       	75.49911       	75.81742       	74.73423       	74.46647       	74.42612       	74.588646      	74.56155       	74.315575      	74.94149       	74.25967       	74.57095       	74.37266       	74.272415      	73.923004      	73.5213        	73.602554      	73.455505      	
74.30966       	74.60717       	74.14298       	74.65748       	74.63399       	74.32847       	75.08097       	74.07982       	74.41879       	74.120094      	75.408936      	74.11667       	74.174965      	74.413994      	74.43694       	74.687706      	72.89639       	78.10043       	75.97762       	76.331535      	76.107346      	75.37282       	73.98943       	74.22915       	75.31735       	74.28226       	74.71851       	73.81408       	74.610954      	74.652176      	74.49508       	74.25987       	74.935974      	74.18445       	74.50278       	74.32357       	74.75281       	74.24937       	74.58139       	74.52405       	74.6311        	74.350464      	74.53179       	74.466156      	75.156395      	74.09371       	74.63766       	74.21765       	74.80135       	74.23332       	74.50554       	74.524864      	74.45307       	74.713974      	74.025986      	71.86634       	73.14964       	72.421295      	73.5588        	74.2173        	74.53075       	74.20356       	74.49949       	74.763916      	74.43071       	74.4419        	73.91604       	74.90409       	74.50889       	73.81661       	74.46987       	74.53269       	74.3453        	74.6317        	74.944786      	74.338585      	74.24766       	74.30903       	74.530334      	73.778305      	75.32591       	77.218956      	76.17369       	76.1463        	75.63883       	75.11664       	74.65888       	74.34743       	74.38933       	73.932594      	74.8334        	74.31914       	74.53983       	73.92344       	74.243286      	73.403336      	74.1353        	73.771034      	72.88932       	72.11684       	
74.442726      	74.535416      	74.627335      	74.46705       	74.28599       	74.41605       	74.51375       	74.55595       	74.52558       	74.33165       	74.58901       	74.49308       	74.58135       	74.33972       	74.17105       	74.43859       	73.39177       	76.828995      	77.13431       	75.98351       	75.87702       	75.255516      	74.24864       	74.57612       	74.53391       	74.489525      	74.39022       	74.462036      	74.773636      	74.32067       	74.32202       	74.49486       	74.68832       	74.384865      	74.676704      	74.59963       	74.55166       	74.286995      	74.54174       	74.595985      	74.65616       	74.4561        	74.41456       	74.74242       	74.41963       	74.855865      	74.60907       	74.42843       	73.96122       	75.14426       	74.09055       	74.27113       	74.50458       	74.914734      	73.84754       	73.36376       	72.56613       	72.092445      	72.86898       	74.37642       	74.69471       	74.26755       	74.197655      	74.2096        	74.76691       	74.31373       	74.39641       	74.77782       	74.2219        	74.616585      	74.4078        	74.649445      	74.660904      	74.16421       	74.44697       	74.5587        	74.560295      	73.73877       	74.70534       	73.777985      	74.23333       	78.44523       	76.23208       	75.711         	75.458824      	75.48548       	74.45215       	74.461624      	73.9315        	73.66707       	73.95815       	75.2641        	73.34995       	75.07454       	73.95478       	72.84435       	73.618004      	73.04153       	72.54855       	73.18768       	
74.45592       	74.44081       	74.4393        	74.37039       	74.4781        	74.6986        	74.34118       	74.49112       	74.54592       	74.52028       	74.27404       	74.564384      	74.581505      	74.418045      	74.17569       	74.50013       	73.55878       	77.02698       	76.79089       	76.49355       	74.959854      	75.631424      	75.058075      	74.03454       	74.41062       	74.441216      	74.637955      	74.42574       	74.44521       	74.89496       	74.3262        	74.41937       	74.64216       	74.49784       	74.449875      	74.633026      	74.459206      	73.96756       	75.18287       	74.37199       	74.33981       	75.20056       	74.0233        	74.665474      	74.27026       	74.64236       	74.60283       	74.272736      	74.57684       	74.7016        	74.393654      	74.16047       	74.850296      	74.95376       	74.35942       	73.22864       	72.6796        	71.81628       	71.75401       	73.47382       	74.66988       	74.8769        	73.87185       	74.697         	74.34026       	74.48081       	74.53448       	74.93164       	74.11879       	74.28638       	74.71163       	74.36301       	74.45333       	74.57353       	74.32207       	74.41475       	74.52316       	74.47017       	74.27208       	74.382675      	73.27315       	78.33609       	76.7496        	75.019165      	74.58517       	75.31227       	75.634254      	74.26029       	73.41857       	74.21759       	74.140854      	74.33772       	73.90638       	72.87021       	74.485756      	73.6261        	73.08652       	72.25385       	72.41928       	72.61821       	
74.349174      	74.39334       	74.53346       	74.56632       	74.30167       	74.91056       	74.041756      	74.663895      	74.54015       	74.36173       	74.4306        	74.52818       	74.57226       	74.44854       	74.319244      	74.32612       	73.92441       	75.29601       	77.37224       	76.06193       	76.0766        	75.57763       	75.33046       	73.756775      	74.464294      	74.42003       	74.63504       	74.43082       	74.56283       	74.95469       	73.80542       	74.613976      	74.49225       	74.64995       	74.44297       	74.363014      	74.63262       	74.42129       	74.70382       	74.49566       	74.64897       	74.44637       	74.59925       	74.35912       	74.58529       	74.51533       	74.52194       	74.671         	74.66234       	74.35929       	74.49299       	74.445786      	74.51691       	74.623886      	74.46129       	73.48908       	72.94838       	71.87572       	71.78147       	74.458534      	74.55462       	74.59354       	74.433266      	74.16062       	74.84909       	74.06759       	74.16564       	74.768616      	74.52005       	74.307365      	74.74099       	74.28912       	74.296165      	74.3999        	74.90236       	74.29173       	74.05739       	74.47442       	74.535286      	74.25059       	73.652145      	75.424385      	76.41444       	75.16067       	75.82686       	75.477356      	74.582664      	74.17222       	73.056465      	74.474495      	73.69989       	72.48518       	74.70088       	73.99562       	73.6255        	71.986626      	74.05373       	75.11216       	74.94098       	74.51259       	
74.54385       	74.396935      	74.35684       	74.67685       	74.60575       	73.99323       	75.03101       	74.47192       	74.15503       	74.63051       	74.419754      	74.70896       	74.12473       	74.39502       	74.90166       	74.019104      	74.163246      	73.08351       	78.46809       	75.89691       	75.91894       	75.77816       	75.61198       	74.448326      	74.57342       	74.502525      	74.48483       	74.48269       	74.474815      	74.588165      	74.74816       	74.36549       	74.36163       	74.611626      	74.47731       	74.42598       	74.47867       	75.17145       	74.04973       	74.61506       	74.1455        	74.8275        	74.41622       	74.00273       	74.80879       	74.270226      	74.41174       	74.63477       	74.410095      	74.64191       	74.526634      	74.427         	74.87944       	74.32368       	74.66051       	73.84911       	72.794945      	72.09117       	71.85293       	73.59781       	74.62303       	74.65101       	74.45427       	74.33968       	74.57071       	74.47539       	74.325264      	74.724075      	74.30667       	74.738266      	74.04591       	74.72291       	74.41592       	74.30703       	74.52488       	74.51961       	74.4068        	74.64295       	74.32598       	74.54336       	74.06039       	73.8598        	74.56445       	76.40657       	76.1312        	75.04563       	74.28032       	75.517235      	74.25126       	73.23899       	73.06496       	74.38103       	74.04505       	74.6659        	74.74503       	74.1253        	74.860374      	73.2789        	74.91091       	75.02388       	
74.310585      	73.647896      	73.02826       	74.53178       	74.4697        	73.43635       	73.74094       	75.17127       	73.885414      	72.451195      	73.79219       	74.91832       	73.3635        	72.87352       	74.96924       	73.97269       	72.42751       	72.89599       	75.4627        	76.38179       	74.91752       	76.53111       	75.7457        	72.82237       	73.464195      	75.060265      	73.67707       	73.66453       	74.498825      	74.830864      	73.771255      	74.7634        	74.54506       	74.64993       	74.58555       	74.19389       	74.60745       	74.3526        	74.645966      	74.46563       	74.5426        	75.00822       	74.4951        	73.91879       	75.05313       	74.64655       	74.438736      	74.61016       	73.91147       	74.83087       	74.73154       	74.563484      	74.57453       	73.694984      	74.741295      	73.73222       	73.00832       	72.57676       	71.69805       	73.41313       	74.50193       	74.66714       	74.18135       	74.22575       	75.29562       	74.664085      	74.30889       	74.487206      	74.58655       	74.186584      	74.29619       	74.73418       	74.25353       	73.95126       	74.4515        	74.50754       	74.28424       	74.67209       	74.6358        	74.479126      	74.512024      	73.88055       	74.706276      	74.566414      	74.97562       	74.29855       	75.13608       	74.50611       	74.10132       	74.684525      	74.23792       	74.56191       	74.60016       	74.614204      	74.242355      	74.50219       	74.39702       	73.99067       	74.343895      	75.38619       	
74.24534       	74.84294       	74.309135      	74.73151       	74.165436      	74.59376       	74.64212       	74.227615      	74.52893       	74.72057       	74.29017       	74.49396       	74.486176      	74.47917       	74.2654        	74.84408       	74.14338       	74.016396      	74.76504       	78.28094       	76.02826       	75.45694       	76.067444      	74.83711       	74.14545       	74.60626       	75.0206        	74.40764       	73.91312       	74.609055      	74.5708        	74.16205       	74.61444       	74.54347       	74.68479       	74.20435       	74.46183       	74.234825      	74.64556       	74.480095      	74.74015       	74.82897       	74.155556      	75.2313        	73.5733        	74.826485      	74.598785      	74.26971       	74.03969       	74.89082       	74.597786      	74.29281       	74.50523       	75.00416       	73.94465       	73.868645      	73.6872        	72.87644       	71.71041       	72.710144      	74.6773        	74.11513       	74.7485        	74.09478       	74.69043       	74.9239        	73.98781       	74.63468       	74.51506       	74.204605      	74.213425      	75.25774       	73.88454       	74.00828       	75.01775       	74.88947       	74.051094      	74.59529       	74.62854       	74.387886      	74.56817       	74.45399       	74.062675      	74.98138       	74.36154       	74.21528       	75.5011        	73.855675      	74.76412       	74.04433       	74.76916       	74.59627       	74.898895      	74.07369       	74.42715       	74.72776       	74.58642       	74.5596        	74.41444       	74.27744       	
75.170616      	74.42236       	74.66463       	74.27713       	74.57621       	74.41152       	74.50964       	74.49815       	74.68523       	74.219345      	74.72173       	74.25917       	74.46748       	74.45144       	74.62354       	74.40286       	74.36154       	74.01203       	73.60206       	78.41308       	76.77803       	75.77333       	75.541214      	75.73532       	74.24658       	74.15393       	74.97255       	74.35182       	74.65866       	73.73954       	74.86308       	74.60962       	74.07487       	74.22721       	74.78815       	74.62239       	73.76074       	74.496864      	74.69413       	74.16766       	74.35668       	74.78827       	74.83348       	74.68945       	74.384735      	74.19281       	74.66213       	74.56545       	74.53484       	74.31374       	74.64912       	74.3791        	74.06288       	74.902855      	74.69857       	74.51957       	73.82974       	73.02667       	71.10169       	72.043625      	74.43146       	74.57709       	74.419304      	74.300644      	74.54312       	74.57599       	74.499855      	74.42174       	74.577446      	74.51222       	74.48448       	74.622604      	74.56033       	74.276474      	74.36343       	74.69871       	74.587         	74.40124       	74.38773       	74.38431       	74.64857       	74.61882       	74.25931       	74.871346      	74.46819       	74.37224       	74.9383        	74.43824       	74.36179       	74.5213        	74.37945       	74.55699       	74.60151       	74.467         	74.14405       	74.712326      	73.46156       	75.24529       	75.8005        	74.74941       	
74.39396       	74.457985      	74.75216       	74.31253       	74.37153       	74.4917        	74.66089       	74.6666        	74.09125       	74.66969       	74.507324      	74.10253       	74.65618       	74.24583       	74.5869        	74.75878       	74.62501       	73.87377       	73.04566       	79.346924      	75.70549       	75.73772       	75.39731       	76.14769       	74.49675       	74.07832       	74.28921       	74.93997       	73.83536       	74.47259       	74.41676       	74.74129       	74.24212       	74.660355      	74.82379       	74.03458       	74.62612       	74.540886      	74.37899       	74.36108       	74.49376       	74.6618        	74.50227       	74.14602       	74.76981       	74.464226      	74.336044      	74.88868       	74.59628       	74.805855      	74.569534      	74.47181       	74.4897        	74.19687       	74.76525       	74.501884      	74.08711       	73.069534      	72.249565      	71.75315       	73.81448       	74.28049       	74.39856       	74.49229       	74.54822       	74.416176      	74.47606       	74.45714       	74.60681       	74.45399       	74.59562       	74.367676      	74.80356       	74.214836      	74.63437       	75.30949       	73.97866       	74.2539        	74.34689       	74.66946       	74.3801        	74.27418       	74.518265      	75.2872        	74.119644      	73.96534       	75.216385      	74.36011       	74.607666      	74.040825      	74.28445       	75.4021        	74.2447        	74.122894      	74.704605      	74.06638       	73.48253       	75.27423       	75.552124      	73.470024      	
74.50449       	74.606895      	74.98238       	74.21332       	74.52206       	74.79724       	74.433174      	74.13294       	74.59977       	74.33875       	74.547424      	74.42273       	74.649635      	74.2722        	74.25769       	74.275055      	74.768105      	74.21913       	73.51573       	77.15768       	76.34059       	76.62872       	75.60314       	75.61705       	74.523636      	74.65052       	74.208664      	74.39454       	74.66042       	74.72557       	74.33476       	74.45085       	74.50767       	74.51804       	74.43526       	74.49065       	74.84212       	74.184845      	74.74099       	73.988754      	75.05777       	74.22135       	74.81562       	74.55166       	74.552826      	74.57097       	74.255714      	74.60651       	74.753716      	74.455956      	74.44162       	74.428474      	74.34639       	74.867226      	73.99329       	73.98103       	73.83704       	73.48586       	73.03658       	72.26591       	71.86755       	74.43124       	74.48757       	74.355774      	75.091675      	74.323906      	74.486824      	74.41746       	74.32418       	74.6058        	74.67378       	73.98188       	74.3882        	75.17787       	73.80332       	74.64719       	74.56623       	74.170654      	75.0396        	74.23422       	74.44518       	75.05244       	73.53074       	75.08427       	74.13323       	75.153854      	74.9782        	74.35061       	74.77162       	74.34784       	74.673965      	73.96322       	74.35745       	74.665794      	74.756905      	74.448494      	74.60722       	74.488686      	74.51311       	74.28951       	
74.62948       	74.97068       	74.11743       	74.28491       	74.95767       	74.517075      	74.06508       	74.33098       	74.54844       	74.47922       	74.15714       	74.64256       	74.44285       	74.39843       	74.38513       	74.37068       	74.40491       	74.27282       	74.51957       	74.58432       	77.96596       	75.70279       	75.83072       	76.03924       	74.656555      	74.50158       	74.41809       	74.70207       	74.705925      	74.327484      	74.55832       	74.405525      	74.623955      	74.33804       	74.78106       	74.339836      	74.95843       	74.516304      	74.256195      	74.60215       	74.692314      	74.32249       	74.47105       	74.82657       	74.30805       	74.68278       	73.71258       	74.58493       	75.06467       	74.18922       	74.111046      	73.31445       	73.56788       	73.56506       	74.87591       	73.340675      	73.38047       	73.412704      	74.87104       	72.51466       	72.57263       	73.890335      	74.89261       	74.132935      	74.790146      	74.052025      	74.52453       	74.89501       	74.23206       	74.70875       	74.12473       	74.572784      	74.40536       	74.59198       	74.77297       	74.35381       	74.41743       	74.47911       	74.573654      	74.59604       	74.17874       	74.610115      	74.43547       	74.40236       	74.72638       	74.55382       	74.60164       	74.4908        	74.76595       	74.30613       	74.593094      	74.06068       	74.28312       	74.98538       	74.73824       	74.53129       	73.910286      	74.60717       	73.8703        	75.48847       	
74.502785      	74.415146      	74.532425      	74.51111       	74.365234      	74.78751       	74.28788       	74.6108        	74.79101       	74.2795        	74.42446       	74.55464       	74.59531       	74.39313       	74.41656       	74.48525       	74.296555      	74.33612       	74.45045       	73.289185      	78.76166       	76.4455        	75.559616      	76.01399       	75.35354       	74.33498       	74.215935      	74.629265      	74.56406       	74.36331       	74.48571       	74.43016       	74.40253       	74.63694       	74.75527       	74.319115      	74.30101       	74.66195       	74.62608       	74.72097       	74.43414       	74.4901        	74.29883       	74.70801       	74.05071       	74.25152       	74.45705       	73.95846       	72.903656      	74.7014        	74.13027       	74.09361       	73.26119       	74.25644       	75.165276      	72.92577       	73.34826       	74.08917       	74.143135      	73.42611       	73.01021       	74.56165       	74.37369       	74.45721       	74.65867       	74.17391       	74.71128       	74.335         	74.52387       	74.83266       	74.55739       	74.30203       	74.66324       	74.26826       	74.73358       	74.07814       	74.85318       	74.4108        	74.43637       	73.97429       	74.79768       	74.42299       	74.54258       	74.84824       	74.14394       	74.62944       	74.46358       	74.887436      	74.731575      	74.2266        	74.30276       	74.78892       	74.31379       	74.43838       	74.298485      	74.5179        	73.0583        	74.59014       	75.98168       	75.13629       	
74.25987       	74.47971       	74.30617       	74.87596       	74.28615       	74.66477       	74.82284       	74.02102       	74.604385      	74.283585      	74.59855       	74.50812       	74.051956      	74.393715      	74.51398       	74.59919       	74.50871       	74.373276      	74.16876       	73.6946        	77.48537       	76.354515      	76.109474      	75.99873       	75.61846       	74.57524       	74.34001       	74.65548       	74.276764      	74.55669       	74.350716      	75.00977       	74.385826      	74.73526       	74.44605       	74.35374       	74.61049       	74.61879       	73.94379       	74.624435      	74.361755      	74.03403       	74.22238       	73.69463       	74.007904      	74.38599       	73.725494      	74.286415      	74.41411       	73.85335       	73.42112       	74.04148       	74.63157       	73.555595      	73.867355      	74.24321       	73.48054       	73.3972        	73.60668       	74.43036       	74.46807       	74.62863       	74.29613       	74.39063       	74.713036      	74.51785       	74.99542       	73.965515      	74.629105      	74.34633       	74.499         	74.573654      	74.47318       	74.455124      	74.612526      	74.421715      	74.54312       	74.31849       	74.8936        	74.40801       	73.961914      	74.66936       	74.63776       	74.426315      	74.608826      	74.36176       	74.67692       	74.80213       	74.231285      	74.61689       	74.20937       	74.64856       	74.757416      	74.209854      	74.7032        	74.28332       	74.233505      	74.94559       	74.80025       	74.09385       	
74.399254      	75.11051       	74.10595       	74.55775       	74.40205       	74.36287       	74.42681       	74.225296      	74.630295      	74.3076        	74.717476      	74.55534       	74.32078       	74.93331       	74.16845       	74.13042       	74.4762        	74.49527       	74.53057       	73.56828       	75.93029       	76.80087       	76.69074       	75.75085       	75.631386      	74.802185      	74.34281       	74.65668       	74.932594      	74.26359       	74.76098       	74.16457       	74.892204      	74.24666       	73.8836        	73.80504       	75.02103       	73.979416      	74.426056      	73.04666       	74.91662       	73.91515       	73.10737       	74.36406       	74.59454       	74.15503       	74.71199       	74.30649       	74.564026      	72.95626       	74.36104       	74.79976       	74.42285       	72.72203       	74.36834       	74.43008       	74.1089        	74.33108       	74.47673       	74.42955       	74.10557       	74.4584        	75.012146      	73.97528       	74.92397       	73.87028       	75.11581       	73.8976        	74.38129       	74.726654      	74.5843        	74.43477       	74.500946      	74.49231       	74.47985       	74.68069       	74.505775      	74.50401       	74.467155      	74.40712       	74.6214        	74.60333       	74.20749       	75.16777       	73.96782       	74.697365      	74.507545      	74.52508       	74.792915      	74.40345       	74.40413       	74.55935       	74.38908       	74.369125      	74.76366       	74.26119       	73.23387       	75.2415        	75.339096      	73.60559       	
74.6455        	74.35776       	74.467026      	74.759254      	74.49954       	74.464355      	74.50214       	74.54773       	74.42718       	74.44622       	74.41179       	74.80986       	74.21974       	74.44985       	74.664635      	74.28855       	74.19626       	74.45325       	74.44914       	74.31308       	74.487564      	77.790405      	76.00575       	75.82792       	76.07581       	74.5705        	74.69016       	74.469826      	74.77167       	74.58223       	74.28717       	74.31704       	74.239075      	73.95335       	73.692856      	73.55601       	73.43501       	74.63349       	73.78901       	72.82392       	73.7364        	73.153915      	73.76188       	74.6997        	74.963425      	73.09345       	74.16565       	72.64152       	74.4357        	74.427         	74.15613       	74.826866      	73.977425      	74.37079       	75.01721       	74.41925       	74.163895      	74.44103       	74.482056      	74.11147       	74.56624       	75.06474       	74.217415      	74.373055      	74.66719       	74.437195      	74.337166      	74.08175       	74.81741       	74.259094      	74.535614      	74.560936      	74.19224       	74.856834      	74.19212       	75.04462       	74.32172       	74.72491       	74.40036       	74.571014      	74.49822       	74.47677       	74.492744      	74.41971       	74.39845       	74.590355      	74.25836       	74.65357       	74.862434      	74.3052        	74.53344       	74.56648       	74.57259       	74.37624       	74.56814       	74.26865       	74.56915       	74.87291       	74.74929       	74.21724       	
74.64642       	74.00702       	74.36825       	74.53161       	74.728935      	74.50355       	74.3414        	74.375465      	74.68979       	74.59059       	74.185745      	74.65983       	74.69841       	74.323044      	74.60041       	74.66953       	74.39618       	74.19928       	73.88537       	74.6737        	73.95087       	78.76874       	76.04493       	75.6318        	75.80803       	75.07898       	74.54382       	74.08463       	73.82371       	74.22266       	74.53674       	74.41231       	74.1098        	72.91107       	74.59044       	73.730774      	73.61908       	74.07815       	74.313         	73.8017        	73.3451        	73.87898       	72.96676       	73.890884      	74.12618       	74.57116       	74.304924      	75.32537       	74.027916      	74.46947       	74.44699       	74.28739       	75.02131       	73.803535      	74.79669       	74.79523       	74.49896       	74.40928       	74.62691       	73.95707       	74.763         	74.60178       	74.09347       	74.63556       	74.46172       	74.57257       	74.67491       	74.51456       	74.20798       	74.3954        	74.37341       	74.55889       	74.686775      	74.452354      	74.46893       	74.72966       	74.27081       	74.522675      	74.51376       	74.82519       	74.14334       	74.8296        	74.35441       	74.65926       	74.511986      	74.55706       	74.608475      	74.68002       	74.32771       	74.48822       	74.61833       	74.41649       	74.91894       	74.43867       	74.63114       	74.51155       	74.18499       	74.84888       	74.940285      	74.67344       	
74.731224      	74.46127       	74.37103       	74.3671        	74.5799        	74.45247       	74.472176      	74.54445       	74.41444       	74.32636       	74.44168       	74.81237       	74.426         	74.71815       	74.44998       	74.35966       	74.18855       	74.70976       	74.09597       	74.4107        	73.629326      	78.39046       	76.51946       	75.58056       	74.91228       	74.95162       	74.82046       	73.21787       	74.45156       	74.25852       	73.74634       	73.888985      	74.241554      	73.43674       	74.2168        	74.43309       	73.75366       	74.15825       	73.72084       	73.00041       	74.3466        	74.33963       	74.44441       	74.86942       	74.474495      	74.40681       	74.448044      	74.410194      	74.606445      	74.43826       	74.61867       	74.450226      	74.5458        	74.37891       	74.453964      	74.580956      	74.693474      	74.64157       	74.61825       	73.99934       	74.43207       	74.67158       	74.31428       	74.339966      	74.68919       	74.550064      	74.23847       	74.760864      	74.629585      	74.34292       	74.45746       	74.51081       	74.4216        	74.65844       	74.390335      	74.55077       	74.35747       	74.65291       	74.67647       	74.73411       	74.20622       	74.40159       	74.60014       	74.563416      	74.222435      	74.709045      	74.40365       	74.83357       	74.395454      	74.54888       	74.80891       	74.30014       	74.89051       	75.07046       	74.2151        	74.233         	74.57938       	74.57356       	74.27745       	74.67142       	
74.76194       	74.5054        	74.177864      	74.45886       	74.79512       	74.39122       	74.47255       	74.503006      	74.48913       	74.56869       	74.31678       	74.52316       	74.62417       	74.24028       	74.60098       	74.50177       	74.2792        	74.58737       	74.49102       	74.1825        	73.18072       	75.938484      	76.38312       	74.798996      	75.83213       	75.40112       	75.69378       	74.42228       	73.57276       	74.47399       	73.31109       	73.91131       	73.94787       	73.99406       	73.31377       	73.367546      	74.78658       	74.55298       	74.49465       	74.58558       	74.3444        	74.39506       	74.56389       	74.65112       	74.670296      	74.3852        	74.466194      	74.41335       	74.4188        	74.58432       	74.48348       	74.641685      	74.38565       	74.58066       	74.60136       	74.42848       	74.71714       	74.203156      	74.65309       	74.1082        	74.5332        	74.46064       	74.06635       	74.64323       	74.955345      	74.033356      	74.29176       	74.784195      	74.370094      	74.70237       	74.46776       	74.45877       	74.68007       	74.52058       	74.40454       	74.68422       	74.31404       	74.47809       	74.41968       	74.45649       	74.89151       	74.43611       	74.438896      	74.96868       	74.04074       	74.81082       	74.72064       	74.28884       	74.547325      	74.923744      	73.9953        	75.04266       	74.216194      	74.91463       	74.14143       	74.19991       	73.54535       	74.40489       	76.070564      	74.476425      	
74.4104        	75.049576      	74.323875      	74.29274       	74.84489       	74.422775      	74.38956       	74.32068       	74.50426       	74.64653       	74.46549       	74.23922       	74.7234        	74.639275      	74.22944       	74.50827       	74.3083        	74.57221       	74.51437       	74.2784        	74.24504       	73.92698       	74.94059       	75.796234      	76.285736      	75.18535       	74.57584       	75.04859       	74.366905      	74.08123       	72.822365      	73.30098       	74.71164       	74.41547       	74.38771       	74.43245       	74.75217       	74.35704       	74.60102       	74.57129       	74.30368       	74.47107       	74.624985      	74.65233       	74.35039       	74.558044      	74.74788       	74.43066       	74.34114       	74.499596      	74.72983       	74.52038       	74.14036       	74.8661        	74.49864       	74.39935       	74.54012       	74.54498       	74.43311       	74.3056        	74.55197       	74.683235      	74.15613       	74.79502       	74.102455      	75.004555      	74.45632       	74.87301       	74.23542       	74.28965       	74.18047       	74.52466       	74.234695      	74.530464      	75.19993       	74.12948       	74.43728       	74.34021       	74.65673       	74.57524       	74.5825        	74.31343       	74.56261       	74.62165       	74.57745       	74.39296       	74.49032       	73.99178       	74.57279       	74.38662       	74.77507       	74.769516      	74.29497       	74.37437       	74.60186       	74.19706       	73.27321       	74.89793       	76.11076       	74.67403       	
74.47339       	74.97589       	74.14877       	74.30629       	74.67581       	74.58618       	74.34347       	74.70784       	74.410385      	74.45074       	74.7433        	74.6481        	73.93597       	74.34107       	74.80639       	74.938194      	73.96837       	74.86575       	74.50568       	74.1855        	74.29527       	74.80789       	74.365425      	73.599335      	75.29724       	74.8508        	74.83024       	74.56308       	74.17784       	74.682686      	74.294014      	74.53251       	74.760086      	74.32803       	74.57995       	74.44105       	74.52665       	74.133125      	74.63932       	74.67218       	74.25357       	74.62525       	74.52959       	74.54604       	74.4277        	74.5205        	74.74315       	74.372955      	74.40264       	74.71557       	74.30189       	74.5685        	74.33561       	74.28113       	74.985664      	74.291275      	74.388756      	74.86224       	74.17476       	74.60407       	74.12707       	74.76066       	74.41463       	74.54604       	74.53229       	74.527756      	74.346085      	74.64308       	74.36012       	74.562904      	74.529205      	74.51442       	74.46575       	74.3293        	74.48726       	74.76866       	74.635544      	74.428055      	74.28757       	74.92652       	74.411674      	74.26697       	74.7001        	74.3876        	74.596664      	74.61077       	74.558         	74.62098       	74.49386       	74.48407       	74.59904       	75.01654       	74.19096       	72.71354       	75.24036       	75.821266      	74.53677       	74.326294      	73.591705      	73.367386      	
74.74767       	75.13543       	74.52287       	73.84058       	74.466675      	74.81227       	74.47858       	74.322044      	74.59016       	74.48619       	74.65279       	73.804634      	74.792984      	75.037445      	73.98621       	74.590965      	74.57996       	74.14528       	74.172966      	74.81262       	74.65712       	74.20603       	74.60823       	74.44061       	74.55275       	74.47522       	75.06514       	74.51352       	74.605965      	73.91067       	74.800156      	74.406555      	74.30468       	74.60761       	74.36653       	74.77966       	74.5947        	74.35249       	74.38459       	74.53323       	74.73297       	74.35221       	74.435425      	74.42681       	74.66803       	74.23428       	74.53068       	74.897385      	74.167175      	74.46397       	74.42311       	74.627396      	74.240524      	74.7119        	74.67488       	74.59104       	74.37676       	74.68227       	74.49259       	74.373314      	74.23145       	74.75415       	74.39143       	74.558495      	74.36349       	74.402374      	74.57216       	74.48869       	74.47619       	74.55653       	74.65319       	74.476395      	74.48921       	74.31261       	74.55122       	74.6126        	74.396645      	74.44539       	74.606804      	74.43117       	74.56029       	74.22848       	74.712715      	74.50311       	74.419556      	74.541374      	74.73704       	74.50682       	74.42033       	74.57575       	74.416565      	74.52661       	74.9601        	74.335266      	74.4935        	74.52373       	74.48134       	74.599915      	74.749         	74.43401       	
74.07171       	74.98862       	74.474976      	74.52725       	74.14272       	74.26376       	74.36035       	74.53072       	74.55828       	74.391014      	74.526215      	74.40677       	74.55236       	74.74796       	74.376816      	74.640366      	74.225655      	75.09603       	73.82603       	74.70094       	74.78556       	74.781105      	74.4722        	74.362         	74.69127       	74.29153       	74.29168       	74.772705      	74.69631       	74.11795       	74.4232        	74.743866      	74.46586       	74.42295       	74.39906       	74.47194       	74.77077       	74.23274       	74.54156       	74.61533       	74.431305      	74.535835      	74.49504       	74.55666       	74.53548       	74.394325      	74.59374       	74.58336       	74.353516      	74.61049       	74.47701       	74.50724       	74.46603       	74.35755       	74.46012       	74.68807       	74.58743       	74.31212       	74.45743       	74.79082       	74.67111       	74.34578       	74.77484       	73.861115      	74.41245       	74.73734       	74.42311       	74.584366      	74.56247       	74.31118       	74.49392       	74.53809       	74.52008       	74.56747       	74.625374      	74.43873       	74.41601       	74.965645      	74.56303       	74.05848       	74.64702       	74.12367       	74.75497       	74.34655       	74.45915       	74.57819       	74.79794       	74.70133       	73.939995      	74.68708       	74.58238       	74.371414      	74.60966       	74.30317       	74.49618       	74.624115      	74.24582       	74.84717       	75.01963       	75.2573        	
73.98516       	74.9131        	74.60749       	74.46801       	74.84143       	74.33123       	74.408615      	74.467865      	74.8068        	74.119316      	74.59184       	74.44834       	74.69428       	73.93764       	74.632996      	74.614525      	74.5088        	74.17212       	74.648636      	74.33277       	74.79992       	74.482056      	74.49347       	74.59267       	74.61497       	74.69059       	74.26492       	74.36241       	75.07071       	74.28068       	74.14168       	74.63296       	74.560555      	74.30086       	74.636604      	74.594246      	74.34224       	74.600426      	74.72408       	74.255295      	74.799194      	74.04068       	74.63319       	74.3831        	74.55297       	74.50455       	74.720795      	74.25802       	74.683685      	74.65221       	74.164955      	74.57792       	74.800705      	74.24226       	74.66677       	74.23869       	74.87243       	74.28943       	74.53054       	74.39568       	74.64752       	74.16635       	74.778824      	74.02938       	74.83786       	74.59494       	74.44402       	74.51149       	74.2618        	75.33002       	73.81962       	74.629684      	74.28918       	74.417366      	74.65457       	74.42404       	74.562195      	74.61433       	74.25159       	74.52884       	74.488716      	74.512886      	74.644806      	74.21492       	74.819595      	74.36769       	74.479576      	74.74111       	74.796776      	74.345924      	74.17024       	74.25948       	74.8689        	74.84064       	74.45403       	74.33545       	73.35567       	74.60262       	75.27858       	75.05139       	
72.91997       	75.089935      	74.35474       	74.850136      	74.02075       	74.83918       	74.44991       	74.5388        	74.114235      	74.61071       	74.414825      	74.633415      	74.58012       	74.19133       	74.78325       	74.322914      	74.42492       	74.5218        	74.75715       	74.6344        	74.96893       	74.21329       	73.98648       	75.06042       	74.29158       	74.363205      	74.49329       	74.430305      	74.65198       	74.42155       	74.258736      	74.69202       	74.664406      	74.06752       	74.99035       	74.3768        	74.464874      	74.596664      	74.36896       	74.5253        	74.780106      	74.284935      	74.55745       	74.52632       	74.2816        	74.702194      	74.386024      	74.521614      	74.540565      	74.235466      	74.759155      	74.4544        	74.40555       	74.40289       	74.61023       	74.60254       	74.66528       	74.227325      	74.36433       	74.46269       	74.618546      	74.518486      	74.224106      	74.63227       	74.36557       	74.37862       	74.523964      	74.78003       	74.25013       	74.70689       	74.412315      	74.45679       	74.56892       	74.462715      	74.51655       	74.63513       	74.28918       	74.59137       	74.328415      	74.69687       	74.58983       	74.37634       	74.576744      	74.38335       	74.625626      	74.48188       	74.618355      	74.35051       	74.55171       	74.4469        	74.711365      	74.46452       	75.129295      	74.25166       	74.49085       	74.03571       	74.27113       	74.4888        	74.85583       	75.18653       	
73.24498       	74.12809       	74.528885      	74.46825       	74.21896       	74.90921       	74.30175       	74.72784       	74.30507       	74.885414      	74.29038       	74.17424       	74.42763       	74.44403       	74.309074      	75.04374       	74.564384      	74.14134       	74.49361       	74.392395      	74.74456       	74.28977       	74.47078       	74.4728        	74.47998       	74.84206       	74.312515      	75.066345      	74.81114       	74.381035      	74.47419       	74.363304      	74.379555      	74.71053       	74.58425       	74.072685      	74.630135      	74.28939       	74.59285       	74.46575       	74.51344       	74.24429       	74.38066       	74.274185      	74.494965      	74.41824       	74.683525      	74.69752       	74.60699       	74.72418       	74.432045      	74.68794       	74.416664      	74.1531        	74.50669       	74.25215       	74.66282       	74.19568       	74.205345      	74.687004      	74.44171       	74.149895      	74.566055      	74.63167       	74.453865      	74.364105      	74.71772       	74.25055       	74.615204      	74.68668       	74.36822       	74.57046       	74.44271       	74.21506       	74.666176      	74.62568       	74.32076       	74.59692       	74.496315      	74.43347       	74.59223       	74.90914       	74.40638       	74.59566       	74.25956       	74.287895      	74.77477       	74.52075       	74.46164       	74.401985      	74.66483       	74.50865       	74.62647       	74.36833       	75.27964       	74.00179       	74.14733       	74.01469       	74.97055       	75.3396        	
73.61888       	74.50251       	74.61574       	74.495674      	74.55402       	74.40204       	74.341515      	74.468994      	74.6091        	74.50527       	74.472435      	74.40271       	74.71054       	74.35999       	74.518555      	74.717964      	74.51229       	74.309235      	74.275444      	74.69119       	74.49871       	74.33988       	74.729515      	74.28002       	74.675995      	74.38978       	74.82422       	74.754425      	74.36528       	74.56327       	74.36033       	74.99043       	74.07393       	74.76168       	74.04772       	74.61948       	74.41956       	74.4125        	74.723854      	74.26438       	74.40208       	75.414185      	73.73344       	74.6569        	74.340546      	74.47371       	74.62223       	74.43714       	74.60079       	73.76258       	75.45654       	74.59647       	74.1869        	74.72685       	74.44971       	74.51126       	74.45574       	74.84995       	74.24642       	74.40487       	74.519554      	74.2791        	74.48644       	74.36699       	75.1189        	74.64589       	73.830376      	74.49386       	74.685974      	74.211815      	74.54923       	74.39689       	74.59216       	74.44131       	74.55299       	74.43908       	74.34282       	74.68007       	74.92799       	74.05116       	74.75143       	74.3961        	74.31422       	74.59298       	75.27086       	74.3505        	73.790565      	74.40502       	74.88394       	74.539116      	74.47548       	74.420975      	74.602196      	74.39721       	74.55971       	74.133224      	74.4997        	74.04516       	74.92053       	74.56249       	
74.69132       	74.456894      	74.45315       	75.036896      	74.45093       	74.51745       	74.00546       	74.92068       	74.30626       	74.490974      	74.4254        	74.508         	73.99177       	74.84446       	74.40453       	74.344025      	74.87247       	74.159706      	74.04368       	74.695564      	74.51095       	74.40808       	74.503845      	74.21212       	74.825676      	74.55615       	74.6497        	74.61865       	74.46623       	74.55747       	74.4668        	74.54288       	74.20532       	74.63517       	74.580956      	74.41386       	74.46246       	74.5799        	74.47199       	74.42314       	74.86811       	74.576035      	73.87175       	74.846794      	74.40407       	74.41028       	74.7009        	74.41975       	72.91481       	74.020454      	75.79709       	75.05624       	73.9565        	74.405075      	74.577415      	74.50581       	74.44822       	74.39371       	75.15763       	74.42437       	74.153824      	74.38323       	74.38204       	74.27764       	74.873344      	74.34856       	74.67212       	74.499855      	74.449326      	74.676865      	74.46697       	74.42118       	74.601845      	74.39622       	74.81035       	74.20402       	74.39788       	74.53218       	74.34928       	74.556274      	74.63025       	74.40201       	74.63394       	74.52136       	74.573784      	74.62963       	74.58664       	74.44383       	74.44899       	74.510376      	74.772514      	74.45394       	74.41541       	74.754         	74.409935      	74.39198       	74.389565      	74.58709       	74.82662       	74.58502       	
74.607445      	74.38999       	74.54023       	74.58869       	74.3867        	74.465935      	74.30116       	74.86074       	74.68581       	74.50662       	74.36659       	74.63919       	74.494804      	74.331856      	74.453026      	74.67523       	74.73386       	74.11546       	74.46061       	74.64439       	74.36718       	74.70424       	74.85801       	74.02593       	74.60421       	74.87106       	74.046814      	74.69578       	74.84844       	74.19389       	73.97803       	74.718605      	74.510254      	74.59996       	74.67242       	74.195175      	74.4802        	74.60999       	74.626816      	74.54823       	73.889984      	75.00548       	74.48958       	74.512665      	74.72283       	74.49137       	74.36896       	74.32594       	74.66767       	74.6006        	74.38256       	74.69053       	74.58948       	74.44358       	74.594376      	74.47621       	74.46055       	74.64009       	74.35108       	74.64823       	74.48837       	74.231026      	74.73318       	74.25437       	74.33054       	74.900894      	74.322         	74.488785      	74.58819       	74.35788       	74.467064      	74.66238       	74.54828       	74.46007       	74.41422       	74.563385      	74.401054      	74.3303        	74.85703       	74.429         	74.553635      	74.40318       	74.90924       	74.16131       	74.20391       	75.485405      	74.41721       	74.5063        	74.19818       	74.14611       	75.33364       	74.146194      	75.04507       	74.169525      	74.449455      	74.323555      	74.327705      	73.753174      	74.4868        	74.595055      	
74.352295      	74.66953       	74.36145       	74.48082       	74.65433       	74.468925      	74.49653       	74.61119       	74.23874       	74.65876       	74.643616      	74.28223       	74.639755      	74.46718       	74.439964      	74.55599       	74.34666       	74.50384       	74.76935       	74.11654       	74.4344        	74.75484       	74.55013       	74.727325      	74.2199        	74.56448       	74.696236      	74.62612       	74.57222       	74.5172        	74.61951       	74.34067       	74.34791       	74.56228       	74.53776       	74.51783       	74.54271       	74.524025      	74.44992       	74.795296      	74.3444        	75.00977       	74.1391        	74.33315       	74.56892       	74.44049       	74.53711       	74.48953       	74.51717       	74.59202       	73.793144      	74.98156       	74.41696       	74.272194      	74.64694       	74.58925       	74.47879       	74.34648       	74.4536        	74.79688       	74.44558       	74.6412        	74.41132       	74.05015       	74.741684      	74.613144      	74.62965       	74.20147       	74.29445       	74.71673       	74.407616      	74.87165       	74.020096      	74.288445      	74.80068       	74.27605       	74.62863       	74.91468       	74.14616       	74.79059       	74.42786       	74.48776       	74.51611       	74.33164       	74.51707       	74.13671       	74.85943       	73.98246       	74.39429       	74.65935       	74.32773       	74.630905      	74.557465      	74.45884       	73.835655      	74.36866       	76.712814      	77.540886      	78.036835      	77.35661       	
74.184494      	74.7438        	74.25004       	74.36544       	74.65372       	74.819756      	74.11966       	74.70601       	74.34107       	74.26188       	74.841675      	74.54608       	74.58335       	74.48366       	74.51674       	74.014496      	74.672966      	74.45023       	74.42872       	74.66097       	74.27171       	74.77703       	74.593414      	74.38839       	74.478355      	74.59979       	74.40509       	74.7154        	74.578094      	74.564476      	74.68905       	74.7453        	73.968994      	74.50842       	74.367905      	74.51848       	75.088776      	74.19956       	74.51125       	74.272705      	74.58084       	74.316666      	74.55646       	74.769646      	74.38261       	74.45543       	74.56065       	74.20528       	75.15951       	74.35977       	74.492134      	74.26411       	74.77232       	74.632         	74.42443       	73.58704       	74.78562       	74.549355      	74.78733       	74.4645        	74.5928        	74.415115      	74.700485      	73.69123       	74.602905      	74.467575      	74.27357       	74.75202       	74.33561       	74.04236       	74.625175      	74.20932       	74.86551       	74.16842       	74.76123       	73.98925       	74.84861       	74.59127       	74.54922       	74.32404       	74.197296      	74.419464      	74.74455       	74.25843       	74.5624        	74.40676       	74.65434       	74.37835       	74.35445       	75.015045      	73.99692       	74.03187       	74.33143       	77.02318       	76.31153       	76.4162        	75.77536       	76.01954       	76.284454      	75.62715       	
74.264114      	74.1653        	74.96121       	74.017586      	74.171906      	75.0431        	74.25565       	74.85884       	74.408585      	74.37848       	74.2332        	74.874176      	74.62743       	74.233665      	74.927444      	73.962616      	74.711         	74.38322       	74.43892       	74.716896      	74.26306       	74.68103       	74.4804        	74.46002       	74.52783       	74.686646      	74.809555      	74.350044      	74.44503       	74.77021       	74.517006      	74.641945      	74.50128       	74.36979       	74.61311       	74.74982       	73.94818       	74.3669        	74.48896       	74.43412       	74.49271       	74.62755       	74.50416       	74.63982       	74.47233       	74.55397       	74.44439       	74.394485      	74.60297       	74.5056        	74.316124      	74.5667        	74.67211       	74.734276      	74.021286      	74.26978       	74.86152       	74.47076       	74.908         	73.82306       	74.69219       	75.24155       	73.92296       	74.18048       	74.76021       	74.25874       	74.20146       	74.853905      	74.14165       	74.135086      	74.8745        	74.553955      	74.232376      	74.30515       	74.49163       	74.34783       	74.47975       	74.579956      	74.48658       	74.71384       	74.45108       	74.691414      	74.39361       	74.494606      	74.29197       	74.811615      	73.99375       	74.387726      	74.42729       	74.30022       	73.597664      	77.33477       	78.13689       	75.90534       	75.01822       	74.42434       	75.21437       	75.35848       	74.55023       	74.781235      	
74.57699       	74.52788       	74.22623       	74.29671       	75.040665      	74.14096       	74.712         	74.3946        	74.58956       	74.45843       	74.342476      	74.83157       	74.29264       	74.81835       	74.086296      	74.60711       	74.74535       	74.58848       	74.19057       	74.208786      	75.10409       	74.17734       	73.89497       	74.948166      	74.02309       	74.953835      	74.57248       	74.57483       	74.1651        	74.31876       	74.46611       	74.78412       	74.575645      	74.33152       	74.729195      	74.4617        	74.34403       	74.565956      	74.3601        	74.4945        	74.66637       	74.999664      	74.46855       	73.95647       	74.49116       	74.33602       	74.673775      	74.40052       	74.76515       	74.822754      	74.09665       	73.82042       	75.264656      	74.30918       	74.51765       	74.41337       	74.46262       	73.818214      	73.89692       	75.17158       	73.98009       	75.29859       	73.9105        	74.81617       	74.36903       	73.93179       	74.51359       	74.52325       	74.87681       	73.974815      	74.46236       	74.4895        	74.60134       	74.37683       	74.62521       	74.41093       	74.67523       	74.4503        	74.40964       	74.62882       	74.435196      	74.394455      	74.49835       	73.95715       	74.886696      	75.05672       	74.23198       	74.05988       	74.11411       	73.96848       	78.17316       	76.92259       	76.78349       	75.23816       	74.50688       	74.588646      	74.5408        	74.856224      	74.471695      	74.48782       	
