# www.neaspec.com
# Scan:	 	Whitelight Imaging
# Project:	 	20251007_PS
# Description:	 	
# Date:	 	10/07/2025 16:39:17
# Scanner Center Position (X, Y):	[µm]	49.66	48.17	 
# Rotation:	[°]	0	 	 
# Scan Area (X, Y, Z):	[µm]	5.000	5.000	0.000
# Pixel Area (X, Y, Z):	[px]	100	100	1
# Interferometer Center/Distance:	[µm]	548.634	0.000	 
# Averaging:	 	1	 	 
# Integration time:	[ms]	5	 	 
# Wavenumber Scaling:	 	1.000000	 	 
# Laser Source:	 	4.5-15 µm nano-FTIR laser
# Detector:	 	R
# Target Wavelength:	[µm]	6.002	 	 
# Demodulation Mode:	 	Fourier
# Tip Frequency:	[Hz]	238,800.109	 	 
# Tip Amplitude:	[mV]	13.000	 	 
# Tapping Amplitude:	[nm]	69.706	 	 
# Modulation Frequency:	[Hz]	0.000	 	 
# Modulation Amplitude:	[mV]	0.000	 	 
# Modulation Offset:	[mV]	0.000	 	 
# Setpoint:	[%]	79.75	 	 
# Regulator (P, I, D):	 	4.206850	8.625812	1.000000
# Tip Potential:	[mV]	0.000	 	 
# M1A Scaling:	[nm/V]	0.426	 	 
# M1A Cantilever Factor:	 	1,000	 	 
# Q-Factor:	 	452.3	 	 
# Version:	 	2.1.11536.0
69.60566       	70.03253       	69.93554       	70.1201        	70.10918       	69.46368       	68.829895      	70.32286       	69.51065       	69.69073       	69.67724       	69.592415      	69.35481       	68.32335       	70.01658       	70.38877       	69.13526       	69.752655      	69.36702       	69.78307       	69.987915      	68.90003       	70.520355      	69.70683       	69.412674      	69.510315      	69.30426       	69.687645      	68.827614      	70.4733        	69.62204       	69.484276      	69.744286      	69.51823       	69.49031       	69.30528       	70.37986       	68.244774      	70.67587       	68.80729       	70.13439       	69.68866       	69.41154       	69.748795      	69.651024      	69.15063       	69.49406       	69.686775      	69.64241       	69.778656      	69.104774      	69.81785       	69.67758       	69.43792       	69.729095      	69.4498        	69.61418       	69.439705      	69.80214       	69.26744       	69.2831        	69.712296      	69.742386      	69.63397       	69.86684       	69.73971       	69.666664      	69.18688       	69.66724       	69.45011       	69.914566      	69.808685      	69.49827       	68.599335      	68.061104      	71.06865       	69.89327       	69.61577       	69.990326      	69.48631       	69.84396       	69.64648       	69.38912       	69.485725      	69.69737       	69.84666       	69.76585       	69.399704      	69.59054       	69.544426      	69.79004       	69.65254       	69.656425      	69.76722       	69.56623       	69.69765       	69.66651       	69.373665      	69.64884       	69.6107        	
69.413734      	69.71725       	69.78532       	69.95073       	69.14383       	68.92441       	69.959045      	69.591324      	69.39102       	69.96894       	69.468704      	69.76301       	67.7931        	68.1422        	69.77684       	71.27767       	70.92968       	69.545204      	69.16222       	70.03603       	69.71523       	69.92258       	69.44233       	69.894356      	69.47061       	69.440285      	69.670265      	69.63436       	69.52303       	69.66396       	69.77242       	69.467674      	69.31635       	69.943825      	69.414024      	69.626755      	69.880356      	69.404976      	69.4145        	69.52794       	69.84868       	69.785515      	69.40281       	69.62803       	69.443825      	69.54936       	69.69528       	69.41508       	70.01079       	69.16212       	69.784836      	69.809685      	69.48848       	70.08608       	69.35403       	69.31898       	69.8188        	69.625374      	69.44238       	69.48953       	69.92764       	69.33233       	69.5327        	69.20672       	70.24368       	69.718056      	69.50607       	69.698715      	69.4992        	69.71169       	69.5881        	69.7923        	69.537186      	69.473854      	69.44022       	69.46833       	69.79963       	69.64639       	69.89795       	68.883354      	70.10368       	69.5501        	69.67295       	69.494125      	69.45495       	69.593544      	69.7648        	69.502525      	69.760124      	69.642166      	69.623535      	68.122955      	71.1875        	68.88121       	69.622635      	67.64354       	71.22424       	69.9379        	69.70712       	69.65992       	
69.39953       	68.88512       	69.7463        	70.298965      	69.67576       	69.70366       	69.598625      	69.521965      	69.91702       	69.653175      	69.51498       	69.67265       	68.498726      	68.01427       	69.31034       	70.99347       	71.21841       	69.51232       	69.436424      	69.67582       	69.673584      	69.69023       	69.54869       	69.67921       	69.32572       	69.62379       	69.7844        	69.73219       	69.68227       	69.37662       	69.49043       	69.71267       	69.72284       	69.48986       	69.62711       	69.54842       	69.86906       	69.63444       	69.52242       	69.854836      	69.81595       	69.497284      	69.63002       	69.44011       	69.56157       	69.736         	69.227356      	69.42311       	69.87204       	69.82964       	69.7106        	69.52235       	69.7391        	69.48648       	69.76487       	69.25354       	69.618095      	69.66703       	69.441345      	69.45033       	69.72529       	69.922104      	69.38815       	69.67096       	69.94997       	69.73284       	69.68914       	69.622116      	69.383606      	69.58948       	69.56079       	69.68631       	69.78254       	69.25824       	69.79561       	69.418304      	69.14568       	70.095055      	69.694466      	69.692894      	69.72844       	69.66016       	69.466896      	69.380684      	69.67038       	69.20239       	70.09082       	69.64152       	69.77729       	69.70022       	69.583         	69.38252       	69.67782       	69.83795       	69.3328        	68.129135      	70.40209       	69.93259       	69.65013       	68.62624       	
69.37844       	69.75887       	70.25549       	69.70583       	67.825356      	70.10578       	70.66454       	69.79929       	69.58927       	69.53684       	69.75489       	69.25112       	69.719604      	69.17567       	68.93295       	70.1905        	70.27503       	69.63427       	69.25813       	69.91298       	69.680504      	69.399826      	69.65951       	69.68624       	69.66028       	69.62144       	69.5229        	69.473206      	69.75699       	69.59316       	69.6717        	69.54069       	69.609         	69.87432       	69.56419       	69.43607       	69.33904       	69.910736      	69.672874      	69.34203       	69.90639       	69.87892       	69.52355       	69.413345      	69.713135      	69.70148       	69.443474      	69.49938       	69.645226      	69.70929       	69.64596       	69.70217       	69.87228       	69.59531       	69.60421       	69.4373        	69.50554       	69.74075       	69.67465       	69.5712        	69.69973       	69.73089       	69.409744      	69.9934        	69.6342        	69.42466       	69.913506      	69.56247       	69.48475       	69.91799       	69.31032       	69.85977       	69.42606       	69.85065       	69.536575      	69.37658       	69.5884        	69.6182        	70.10048       	69.6647        	69.6229        	69.66963       	69.56461       	69.736595      	69.60355       	69.46948       	69.26278       	69.78129       	69.51167       	69.98162       	69.739296      	69.66454       	69.54992       	68.3557        	70.496544      	69.76087       	69.69202       	69.70221       	69.603836      	69.54478       	
69.32773       	69.365486      	69.57435       	68.614174      	66.6414        	69.337616      	71.248856      	70.31511       	69.56929       	69.56037       	69.46504       	69.76031       	69.696556      	69.63372       	69.73843       	69.767235      	69.67477       	68.02777       	69.93419       	69.69298       	69.55939       	69.83527       	69.74423       	69.42639       	69.787506      	69.680695      	69.4051        	69.86431       	69.5153        	69.87903       	69.59443       	69.721886      	69.13857       	69.64777       	69.61793       	69.57018       	69.4341        	69.47567       	69.20863       	69.07783       	69.80656       	69.81632       	69.778366      	68.206024      	70.06386       	69.84657       	69.40073       	69.70203       	69.53117       	68.57376       	70.192764      	69.73115       	69.70402       	69.77605       	69.567955      	69.619965      	69.34974       	69.137115      	69.25189       	70.1475        	69.43893       	68.87993       	70.120964      	69.77185       	69.64468       	69.53912       	69.867355      	69.33328       	69.57427       	69.70491       	69.55782       	69.6678        	69.44506       	69.71662       	69.95851       	69.39362       	69.58142       	69.51237       	69.68628       	69.822044      	69.45833       	69.26105       	70.07201       	69.50566       	69.39          	69.80852       	69.41851       	69.59888       	69.86384       	69.381836      	69.571205      	69.86806       	69.836555      	69.18804       	69.661766      	69.78187       	69.57871       	68.86011       	69.308685      	69.89696       	
69.33395       	69.89101       	69.78462       	68.91615       	67.16472       	69.08942       	71.10519       	70.847496      	69.58714       	69.90083       	69.3947        	69.47639       	69.25138       	69.985886      	69.75051       	69.51044       	69.812164      	69.62968       	69.67889       	69.395966      	69.634056      	69.63681       	69.4324        	69.70652       	69.53816       	69.5333        	69.53187       	69.497955      	69.757126      	69.82501       	69.63885       	69.67776       	68.73043       	70.76089       	69.761665      	69.16488       	69.40562       	69.61657       	69.799965      	69.6827        	69.762146      	69.39648       	69.588196      	69.71149       	69.824814      	69.080505      	69.34457       	69.82723       	69.80815       	69.88998       	69.56438       	69.179184      	69.777         	69.71311       	69.810585      	69.60751       	69.01919       	67.44158       	68.97665       	71.16956       	69.58961       	69.77143       	69.19593       	69.729576      	69.74182       	69.78723       	69.76731       	69.404045      	69.63425       	69.31012       	69.82026       	69.485176      	69.61594       	69.71733       	69.74149       	69.52047       	69.48655       	69.7636        	69.889366      	68.054474      	70.93045       	69.670815      	69.425446      	69.68249       	69.53834       	69.45465       	69.55272       	69.81871       	68.81072       	70.04031       	69.673035      	69.455505      	69.76698       	69.7849        	69.510345      	69.64618       	69.717384      	69.407745      	69.75518       	69.71891       	
69.38747       	69.76854       	69.84065       	69.68607       	69.54092       	69.70837       	69.813995      	69.69803       	69.58242       	69.5767        	69.45728       	69.61082       	69.60816       	69.41492       	69.50529       	69.92168       	69.777954      	69.728004      	69.60807       	69.54699       	69.30043       	69.84482       	69.360535      	69.84973       	67.3069        	69.11661       	71.53187       	70.06005       	69.68961       	69.67519       	69.466415      	69.761856      	69.70644       	69.960045      	69.4484        	69.542404      	69.71592       	69.541016      	69.799736      	69.3691        	69.88971       	69.77396       	69.514786      	69.66363       	69.64054       	69.48118       	69.6831        	69.78517       	69.77164       	69.359344      	69.020164      	69.87863       	69.587494      	69.63859       	69.8703        	69.84477       	69.01126       	66.669685      	68.97059       	70.35216       	71.7691        	69.81976       	69.55253       	69.45055       	69.94235       	69.58118       	69.58326       	69.377594      	69.91526       	69.55367       	69.28148       	70.030136      	69.45409       	69.64956       	69.8346        	69.178024      	69.983116      	69.670334      	69.72319       	69.62281       	69.60988       	69.7726        	69.6906        	69.36574       	69.678696      	69.55027       	69.51535       	70.082184      	69.70716       	69.50198       	69.716805      	69.44993       	69.796104      	69.62266       	69.64375       	69.695694      	69.48888       	68.72008       	70.43083       	69.760704      	
69.351425      	69.63676       	69.794846      	69.96208       	69.6855        	69.700424      	69.3058        	69.935036      	69.2386        	69.800835      	69.63319       	69.76166       	69.47465       	69.60826       	69.47382       	69.720276      	69.97037       	69.50536       	69.57673       	69.70554       	69.695915      	69.46979       	69.7159        	69.43319       	67.7659        	68.90875       	71.008575      	71.06397       	69.406494      	69.655876      	68.2334        	69.42284       	70.35596       	69.80075       	69.82764       	69.742714      	69.29832       	69.85222       	69.57977       	69.65405       	68.179016      	70.00846       	70.47884       	69.484085      	69.6472        	69.57355       	69.388176      	70.076225      	69.79323       	69.47359       	69.02143       	69.898865      	69.613815      	69.78049       	69.809975      	69.80236       	69.38602       	67.79801       	68.45447       	70.235435      	71.60088       	69.74546       	69.79474       	69.602455      	69.365486      	69.90232       	69.78541       	69.23894       	69.73788       	69.735085      	69.46217       	69.52655       	69.60769       	69.58731       	69.932274      	69.34541       	69.81469       	69.88473       	69.528984      	69.686165      	69.67809       	69.22274       	69.90752       	69.52379       	69.62505       	69.358086      	69.522995      	70.18165       	69.470505      	69.49653       	69.55299       	69.47966       	69.864426      	69.48501       	69.66275       	69.787994      	69.57725       	69.77756       	69.456085      	69.72602       	
69.56477       	70.27359       	70.42344       	70.09261       	69.72368       	69.677155      	69.54791       	69.60262       	69.57563       	69.44692       	69.60339       	69.97944       	69.23315       	69.44717       	69.95294       	69.30177       	69.85213       	69.65382       	69.993645      	69.43831       	69.533875      	69.28271       	69.80234       	69.65471       	69.58503       	69.31558       	69.992676      	69.44099       	69.74938       	69.7854        	68.861984      	69.245636      	70.351105      	69.440216      	68.15225       	71.173515      	69.72832       	69.63934       	69.77907       	69.59555       	67.49928       	69.39205       	71.65975       	69.79717       	69.6703        	69.643         	69.69983       	69.69426       	67.85011       	70.73268       	69.67199       	69.67823       	69.736946      	69.42722       	69.48742       	69.95206       	69.67697       	69.31662       	69.650665      	69.467064      	69.89464       	69.92891       	69.18018       	69.599594      	69.8583        	69.679825      	67.819275      	71.0665        	69.36261       	69.13661       	69.7775        	69.692795      	69.695724      	69.1662        	69.14323       	69.893684      	69.56986       	69.4184        	69.80267       	69.66136       	69.656876      	69.69355       	69.1156        	68.55795       	70.4841        	69.875336      	69.54296       	69.961975      	69.532234      	69.45615       	69.433975      	69.78331       	69.57517       	69.596054      	69.52671       	69.786         	69.62275       	69.724014      	69.704636      	69.4815        	
69.48599       	69.60232       	69.88574       	69.57408       	69.46465       	69.42464       	69.74267       	69.77138       	69.4648        	69.6923        	69.643074      	69.523605      	69.704956      	69.43218       	69.846855      	69.539955      	68.351715      	70.18809       	69.76231       	69.53408       	69.47334       	69.44917       	69.62119       	69.81751       	69.555565      	69.53821       	69.74343       	69.59437       	69.63825       	69.71045       	69.503845      	69.610794      	69.73732       	69.4653        	69.76065       	69.576004      	69.80147       	69.629745      	69.47321       	69.83004       	69.4753        	69.1073        	70.25649       	69.59164       	69.62074       	69.566444      	69.675964      	69.69032       	69.73091       	69.40025       	69.89919       	69.51845       	69.569214      	69.76735       	69.79671       	69.68324       	69.637314      	69.48986       	69.45379       	69.69511       	69.703384      	69.6337        	69.75751       	68.49219       	70.35106       	69.478004      	69.52745       	69.74629       	69.526764      	68.8304        	70.41333       	69.33237       	69.95576       	69.570465      	68.82905       	70.23961       	69.6227        	69.753586      	69.2919        	69.51025       	69.957245      	69.54978       	67.510544      	68.164635      	70.46795       	71.946655      	69.93994       	69.5027        	69.61918       	69.99096       	69.5529        	69.46932       	69.82591       	69.57768       	69.54966       	69.502075      	69.67135       	69.07656       	70.06719       	68.99784       	
69.484634      	68.92729       	68.48947       	70.61546       	69.54239       	69.68302       	69.51664       	69.51928       	69.32877       	69.77219       	69.77769       	69.939766      	69.33536       	69.40928       	69.71027       	69.73487       	69.66047       	69.492874      	69.6681        	69.87776       	69.34732       	69.5675        	69.49749       	70.016495      	69.36079       	69.577324      	69.94742       	69.70984       	69.25621       	69.298775      	70.16959       	69.665375      	69.32941       	69.67186       	69.37244       	70.036865      	69.53293       	69.73677       	69.55109       	69.49786       	69.724495      	69.74629       	69.51339       	69.7922        	69.37809       	69.65847       	69.735016      	69.48415       	69.75525       	69.818085      	69.51298       	69.60314       	69.55028       	69.03267       	69.86129       	69.514465      	69.77104       	69.49574       	69.61883       	69.75528       	69.63765       	69.61955       	69.4993        	69.70996       	69.78712       	69.68284       	69.46441       	69.558205      	69.76171       	69.68203       	69.67048       	69.6887        	69.61577       	69.32114       	69.75784       	69.602806      	69.28532       	70.05419       	69.66585       	69.32328       	69.7411        	70.054016      	68.43314       	67.70776       	70.02891       	71.935936      	69.67321       	69.66543       	69.51182       	69.78726       	69.39112       	69.51026       	69.704414      	69.83587       	69.576         	69.35827       	69.874596      	69.66871       	69.64006       	69.624886      	
69.3412        	69.74525       	70.011185      	70.00853       	69.707054      	69.38693       	69.449455      	69.60576       	69.816765      	69.2909        	69.92327       	69.71713       	69.31379       	69.87747       	69.547226      	69.72627       	69.77579       	69.446915      	69.5605        	69.66872       	69.24687       	69.911896      	69.64911       	69.85625       	69.51363       	69.57677       	69.80552       	69.7489        	69.480286      	69.67156       	69.42811       	69.83428       	69.59624       	69.3386        	69.77832       	69.45451       	69.54639       	69.77601       	69.437744      	68.77656       	70.44579       	69.69187       	69.30366       	69.829544      	69.45296       	68.522675      	70.45863       	69.64533       	69.2137        	69.65453       	69.63942       	69.53835       	69.605736      	69.60296       	69.54695       	69.51731       	69.78775       	69.7433        	69.76734       	69.70757       	69.52098       	69.519844      	69.61973       	69.49942       	69.79183       	69.72127       	69.565346      	69.55587       	69.669815      	69.48742       	69.716446      	69.29288       	69.46954       	69.440384      	69.707016      	69.74075       	69.65275       	69.78707       	69.3966        	69.28617       	70.051285      	69.648         	69.80427       	69.38754       	69.40071       	69.823616      	69.734505      	69.64672       	69.51192       	69.73921       	69.51957       	69.327736      	68.586395      	70.24916       	70.024826      	69.41413       	69.65781       	69.855774      	69.565056      	69.74683       	
69.35588       	69.87306       	70.157         	69.79954       	69.88316       	69.802635      	69.382256      	69.703995      	69.91163       	69.593475      	69.26099       	69.84483       	69.54913       	69.80444       	69.66905       	69.38044       	69.619514      	69.76353       	69.68148       	69.625206      	69.59609       	69.503494      	69.77937       	69.68597       	69.59749       	69.3536        	69.817635      	69.60296       	69.58518       	69.730545      	69.474945      	70.06601       	69.44407       	69.43942       	68.95022       	69.37343       	69.836586      	69.67012       	69.82928       	69.76925       	69.57864       	69.4635        	68.41283       	70.67508       	69.72567       	68.67156       	69.80051       	69.66583       	69.46572       	68.95086       	70.52623       	69.48903       	69.62488       	69.51344       	69.63515       	69.62252       	69.77893       	69.7107        	69.38654       	69.5659        	69.51584       	69.52181       	69.51294       	69.47368       	69.768845      	69.88028       	69.56776       	69.33471       	69.748566      	69.829056      	68.66529       	68.00457       	71.641235      	69.53213       	69.89679       	69.48866       	69.705246      	68.941666      	69.80328       	69.02156       	69.874916      	69.743965      	69.635796      	69.513565      	69.67523       	69.20609       	69.59568       	69.84646       	69.58802       	69.824265      	69.743385      	68.13139       	67.18024       	69.87074       	72.66946       	69.086624      	69.730545      	69.59114       	69.66249       	69.7158        	
69.48626       	70.231094      	70.794395      	69.89951       	69.5149        	69.51991       	70.06469       	69.46995       	69.076706      	69.07          	69.0474        	70.23297       	69.58937       	69.50258       	69.93548       	69.31261       	69.66225       	69.47643       	69.23521       	70.03597       	69.345825      	69.88685       	69.79854       	69.55365       	69.558846      	69.656456      	69.53045       	69.44199       	69.503784      	69.85705       	69.778915      	69.456406      	69.71239       	69.53254       	69.614105      	69.437126      	69.82881       	69.68875       	69.82342       	69.461334      	69.92134       	69.53855       	69.47993       	69.56448       	69.651344      	69.84206       	69.539894      	69.56058       	69.95572       	69.2829        	69.66032       	69.71955       	69.51207       	69.74571       	69.55138       	69.72381       	69.493835      	69.62947       	69.873184      	69.38989       	69.789696      	69.359085      	69.83354       	69.4923        	69.31437       	69.91335       	69.39135       	69.6451        	69.617226      	69.60977       	69.574715      	69.766754      	69.20245       	69.65162       	69.764114      	69.80705       	69.34705       	69.93643       	69.510445      	69.49472       	69.47947       	69.20378       	69.951324      	69.53131       	69.962395      	69.45459       	69.46814       	69.88318       	69.80967       	68.38394       	68.71962       	71.40931       	69.015175      	69.505806      	70.28147       	69.73395       	69.55652       	69.54889       	69.52497       	69.76717       	
69.44418       	68.61374       	69.606094      	69.917496      	69.695145      	69.37358       	69.55172       	69.469925      	69.59644       	69.5731        	70.01805       	69.33784       	69.57328       	69.61583       	69.39588       	68.82948       	69.91024       	69.177414      	70.05174       	69.55785       	69.48207       	69.90841       	69.31746       	69.57788       	69.78916       	69.65784       	69.5017        	69.55827       	69.59479       	69.66943       	69.735245      	69.69647       	69.49437       	69.80534       	69.10738       	69.70255       	69.81413       	69.55314       	69.64879       	69.822845      	69.671524      	69.4432        	69.523094      	69.69815       	69.430984      	69.56869       	69.6653        	69.180244      	68.8114        	69.46312       	69.35357       	68.6486        	70.986946      	69.606636      	69.82933       	69.479324      	68.96679       	69.93611       	70.061806      	69.56162       	69.41078       	69.6451        	69.67952       	69.516975      	69.52951       	68.916145      	69.88741       	69.758514      	69.82423       	69.34892       	69.65455       	69.660286      	69.73954       	69.61075       	69.291         	69.8636        	69.688675      	69.17511       	69.380646      	69.59117       	69.48384       	70.03947       	69.49245       	69.558685      	68.02542       	70.999954      	69.548546      	69.66871       	69.91614       	69.55461       	67.583115      	71.206024      	70.001335      	69.58783       	69.94436       	69.233635      	69.68734       	69.15197       	65.9207        	72.93105       	
69.50608       	69.95592       	69.98941       	69.76509       	69.56755       	69.47705       	69.54805       	69.69743       	69.58585       	69.54403       	69.97902       	69.683014      	67.99042       	69.497536      	70.76509       	67.918755      	70.134865      	69.99342       	69.55185       	69.743004      	69.57677       	69.18755       	69.47261       	69.17343       	69.75918       	69.760185      	69.40188       	69.819405      	69.623184      	69.51088       	69.76276       	69.78949       	69.41365       	69.95676       	69.49892       	69.585594      	69.748665      	69.496574      	69.68568       	69.66991       	69.76188       	69.34278       	69.9563        	69.72908       	69.371796      	69.46923       	69.50223       	69.81524       	69.83229       	69.62838       	69.5583        	67.453835      	70.177826      	71.60673       	69.22733       	69.6016        	69.409325      	69.75832       	69.830864      	69.53401       	69.78707       	69.58682       	69.45002       	69.75608       	69.56454       	69.70398       	69.34992       	69.51422       	69.89338       	69.57561       	69.62049       	69.67938       	69.531166      	69.74138       	69.281746      	69.82853       	69.724304      	69.37072       	69.60039       	69.7198        	69.352905      	69.67259       	70.04475       	69.346855      	69.71377       	69.80609       	69.56298       	68.98353       	70.17306       	69.44076       	69.875435      	69.6162        	69.39511       	69.674706      	69.856186      	69.46388       	69.87804       	69.71407       	66.36897       	71.319435      	
69.37734       	69.74932       	69.939735      	69.99842       	69.83917       	69.64633       	69.580414      	68.24775       	68.99561       	71.47111       	69.57625       	69.7238        	67.63263       	69.11591       	71.96167       	69.569954      	69.5703        	69.53857       	69.52786       	69.95789       	69.47549       	69.26432       	69.9691        	69.56379       	69.11188       	68.76797       	70.03146       	69.901665      	69.701294      	69.57962       	69.69795       	69.85871       	69.59373       	69.66201       	69.47911       	68.0947        	69.92748       	70.58646       	69.333664      	69.84931       	69.57128       	69.50867       	69.54652       	69.80202       	69.619385      	69.68712       	69.16168       	69.93196       	69.42151       	69.78618       	69.59258       	69.54079       	69.64332       	69.916626      	69.67502       	69.53128       	69.33526       	69.75046       	69.74162       	68.80724       	69.82907       	69.98694       	69.20846       	69.740524      	68.60032       	70.16804       	69.923134      	69.238525      	69.82572       	69.54394       	69.48148       	69.78003       	69.782196      	69.65536       	69.54154       	69.52706       	69.67323       	68.79298       	70.33482       	69.350716      	69.72045       	69.5777        	69.43942       	69.8973        	69.576004      	69.42525       	69.49158       	69.78716       	69.83805       	69.53165       	69.675514      	69.751724      	69.58415       	69.379005      	69.86683       	69.51371       	69.5995        	69.56807       	69.44804       	69.548874      	
69.31405       	69.43774       	70.13479       	70.23157       	69.985825      	69.57601       	69.61731       	69.54817       	68.60098       	70.662926      	69.569565      	69.628624      	69.549835      	68.74398       	70.60035       	69.47768       	69.616905      	69.67933       	69.66298       	69.59089       	69.843094      	69.34478       	69.49033       	69.804115      	69.41683       	69.63037       	69.52548       	69.70109       	69.64277       	69.595856      	69.596634      	69.93508       	68.7606        	70.025604      	67.71416       	67.95164       	69.582924      	70.94172       	70.59685       	69.6226        	69.63318       	69.47792       	69.83004       	69.52164       	69.596985      	69.455536      	69.68646       	69.80201       	69.64088       	69.30821       	69.5825        	69.57325       	69.81299       	69.79089       	69.68318       	69.62399       	69.771736      	69.394844      	69.78245       	69.25594       	69.50673       	69.45933       	69.476265      	69.804245      	69.51059       	69.583015      	69.671005      	69.50389       	69.58519       	69.61147       	69.26293       	70.15779       	69.51687       	69.783356      	69.35541       	69.59918       	69.806206      	69.75361       	69.7204        	69.049644      	69.8599        	69.698074      	69.69965       	69.6351        	69.48028       	69.72813       	69.545975      	69.59293       	69.84156       	69.67524       	69.44457       	69.83242       	69.73161       	69.693985      	69.22064       	69.757034      	69.68484       	69.554955      	69.60879       	69.58236       	
69.555595      	69.84701       	70.0079        	69.83149       	68.61483       	69.317245      	69.595795      	69.72493       	69.41622       	69.55712       	69.8492        	69.605934      	69.525925      	68.6436        	70.286476      	69.86869       	69.571434      	69.5109        	69.622116      	69.69926       	69.5298        	69.9493        	69.31987       	69.78884       	68.462715      	70.0883        	69.61665       	69.83314       	69.6025        	69.76901       	69.70995       	69.350975      	69.70219       	69.73572       	67.66054       	68.051674      	69.219406      	71.24604       	71.0948        	69.634476      	69.50879       	69.664154      	69.69574       	69.67662       	69.65109       	69.492134      	68.92365       	69.57861       	70.00738       	69.203606      	70.074455      	69.57623       	69.89784       	69.79533       	69.0648        	69.58669       	69.57392       	69.731735      	69.39227       	69.50831       	69.47002       	69.882614      	69.498146      	69.64409       	69.56987       	69.52139       	69.85432       	69.501755      	69.685585      	69.491776      	69.555244      	69.52041       	69.90499       	69.679474      	69.478424      	69.668976      	69.650314      	69.46037       	69.665245      	69.615685      	69.64795       	69.6863        	68.63367       	70.55397       	69.46495       	69.409874      	67.85623       	71.0675        	69.605934      	69.851616      	69.40097       	69.584366      	70.08591       	69.81205       	69.71253       	69.29971       	69.57694       	69.57559       	69.80949       	69.13408       	
69.38753       	69.63643       	70.08132       	69.686935      	69.534584      	69.89586       	69.61551       	69.446495      	69.73062       	69.66115       	69.6087        	69.69967       	69.27823       	69.854294      	69.57701       	69.52855       	70.148254      	69.32686       	69.39511       	69.61569       	68.53384       	70.77132       	69.82381       	69.56293       	67.86002       	69.60262       	70.84612       	69.562         	69.50004       	69.48126       	69.46604       	69.884834      	69.55382       	69.54887       	69.57961       	68.17045       	69.73664       	70.69751       	70.351105      	69.56611       	69.46497       	69.59321       	69.48187       	69.732635      	69.64901       	69.76732       	69.46232       	69.174126      	69.82081       	69.545006      	69.57723       	69.60321       	69.89588       	69.67929       	68.99661       	69.316414      	70.120705      	69.57057       	69.58793       	69.53266       	69.95608       	69.44565       	69.47149       	69.693115      	69.59406       	69.75401       	69.72542       	69.57891       	69.6371        	69.41687       	69.83708       	69.33089       	69.65449       	68.9862        	70.29788       	69.505135      	69.30745       	69.48354       	69.366745      	69.64406       	69.81019       	69.745705      	69.346825      	70.12301       	69.25162       	69.509476      	69.2862        	70.000374      	69.755         	69.51271       	69.59644       	69.555435      	69.598976      	69.62102       	69.5155        	69.580315      	69.73071       	69.51786       	69.793686      	69.567375      	
69.40444       	69.43819       	69.77578       	69.24739       	69.578255      	69.837654      	69.64354       	69.4617        	69.48737       	69.834         	69.90209       	69.40717       	69.68641       	69.66917       	69.759155      	69.61944       	69.57982       	69.65939       	69.71637       	69.75459       	69.65013       	69.6498        	68.880974      	70.07751       	69.67555       	69.69834       	68.92397       	69.1845        	70.47604       	69.51366       	69.48498       	69.68529       	69.52995       	69.76665       	69.838585      	69.38049       	69.927605      	69.83252       	69.672386      	69.50501       	69.59662       	69.59364       	69.62645       	69.498344      	69.70497       	69.56081       	69.70686       	69.40949       	69.83337       	69.433014      	69.76005       	68.79548       	70.14107       	69.40398       	69.68197       	69.84717       	69.53542       	69.53579       	69.33224       	69.720085      	69.60123       	69.64616       	69.60484       	69.68291       	69.69721       	69.90933       	69.27661       	69.60239       	69.77175       	69.65564       	69.34408       	69.529976      	67.404045      	68.530754      	70.63883       	71.49782       	69.70054       	69.62548       	69.45063       	69.89092       	69.41343       	69.78235       	70.006424      	69.25709       	69.41834       	69.651405      	69.22367       	69.80554       	69.58737       	69.77303       	69.487175      	69.490074      	70.00225       	69.708984      	68.49696       	70.44559       	69.86161       	69.27234       	69.858734      	69.55076       	
69.34752       	69.73055       	69.87577       	69.8872        	69.60335       	69.854836      	69.50863       	69.4573        	69.564705      	69.74193       	69.721924      	69.686035      	69.420555      	69.69914       	69.5463        	68.966835      	70.48827       	69.57998       	69.649284      	69.63103       	69.6922        	69.756485      	69.58443       	69.6125        	69.73366       	69.43538       	69.55395       	68.7415        	70.38523       	69.37932       	69.54639       	69.82792       	69.546135      	69.68377       	69.526596      	69.797714      	69.47826       	69.88552       	69.46707       	69.74151       	69.516495      	69.72042       	69.36899       	69.78491       	69.60457       	69.159805      	69.956154      	69.69243       	69.62424       	69.816986      	69.78018       	69.5753        	69.52547       	69.41014       	69.79098       	69.76237       	69.47088       	69.436646      	69.63434       	69.68196       	69.978096      	68.89966       	69.952446      	69.21582       	69.87066       	69.73148       	69.70721       	69.605515      	69.829445      	69.53078       	69.28146       	69.799835      	66.973785      	68.39431       	70.03352       	71.771194      	70.74924       	69.565384      	68.44305       	70.5266        	69.60454       	69.4831        	69.27183       	69.51884       	69.62166       	69.63711       	69.62054       	69.20663       	70.05027       	69.320145      	69.78472       	69.84073       	69.68396       	69.64931       	69.28161       	69.87496       	69.70806       	69.96023       	68.92997       	70.04653       	
69.55338       	70.04961       	70.19306       	69.38454       	69.40035       	69.71567       	69.46148       	69.66779       	69.41856       	69.71118       	69.605095      	69.740326      	69.61605       	69.49999       	69.83416       	69.68922       	69.44673       	69.82917       	69.649376      	69.42965       	69.80744       	69.613335      	69.84307       	69.44058       	69.50839       	69.761925      	69.787025      	69.56943       	69.23926       	69.29705       	70.124374      	69.858795      	69.520226      	69.619705      	69.63004       	69.51874       	69.57496       	70.06677       	69.436676      	69.48893       	67.958145      	70.997025      	69.68808       	69.41806       	69.35159       	67.15961       	69.40189       	71.663216      	70.09995       	69.40224       	69.57784       	69.97456       	69.41627       	69.348076      	69.46818       	69.97571       	69.450516      	69.42443       	69.66928       	69.7464        	69.73159       	69.76988       	69.85477       	69.496155      	68.838104      	70.188255      	69.34573       	69.782036      	69.76379       	69.63739       	69.44148       	69.67904       	67.874374      	68.33456       	70.1837        	71.53533       	69.81901       	69.539085      	69.61234       	69.378         	69.845985      	69.57292       	69.798065      	69.87517       	67.942085      	70.08191       	69.69357       	69.56588       	69.78585       	68.00272       	70.236725      	70.65807       	69.21984       	69.74721       	68.34845       	70.29445       	69.88584       	69.4693        	69.7308        	69.41034       	
69.45292       	69.93084       	70.06082       	69.99829       	68.1068        	70.26911       	69.52947       	69.507355      	69.612686      	69.77471       	69.30695       	69.88404       	69.96242       	68.96525       	69.77544       	69.62022       	69.77276       	69.62646       	69.411         	69.65814       	69.58417       	69.40145       	69.7604        	69.90747       	69.387985      	69.68756       	69.710884      	69.36934       	69.70745       	69.60404       	69.84849       	69.5259        	69.52936       	69.84426       	69.712234      	69.42063       	69.63913       	69.852936      	69.46203       	69.526886      	69.992516      	69.418465      	69.5505        	69.44368       	69.544624      	67.64533       	68.86692       	70.92262       	69.67269       	69.82411       	69.79296       	69.467         	68.34798       	71.081055      	69.8046        	69.15945       	69.6364        	69.72183       	68.85578       	68.7335        	71.177765      	69.58241       	69.72975       	69.84275       	69.6393        	69.545235      	69.54386       	69.754364      	69.77554       	69.795975      	69.38949       	69.75023       	69.260735      	69.62898       	69.63365       	69.829796      	70.05071       	69.11522       	69.6887        	69.52486       	69.48261       	69.40238       	69.819         	69.51241       	69.76975       	69.53105       	69.82915       	68.81712       	70.240166      	69.65425       	69.20921       	70.147285      	69.575096      	69.40914       	69.56741       	69.68396       	69.623634      	69.68004       	69.684425      	69.57576       	
69.27855       	69.734985      	70.29458       	69.89462       	69.45615       	69.55699       	69.72652       	69.77689       	69.62595       	69.62763       	69.25333       	69.6681        	69.54378       	69.60962       	69.53385       	69.652176      	69.51842       	69.71689       	69.91088       	69.546074      	69.55078       	69.77182       	69.786964      	69.50804       	69.90968       	69.48863       	69.48986       	69.79343       	69.46131       	69.49996       	69.72278       	69.628105      	69.86646       	69.50264       	69.24945       	69.83295       	69.22809       	69.64815       	69.72222       	69.672745      	69.789604      	69.74907       	69.57482       	69.31342       	69.64073       	69.60481       	69.50558       	69.937065      	69.300156      	69.91072       	69.713745      	67.29874       	68.97507       	71.69469       	70.21819       	69.491425      	69.763985      	69.35777       	68.11556       	68.17234       	70.933365      	69.48248       	70.49741       	69.67274       	69.20322       	69.93805       	69.2014        	69.44563       	69.57587       	69.659584      	69.52256       	69.92828       	69.400665      	69.26928       	69.89514       	69.71474       	69.67335       	69.87862       	69.353874      	69.62682       	69.456345      	69.68721       	69.637985      	69.52681       	69.74585       	69.57088       	69.54615       	69.562195      	69.64088       	69.63636       	69.61896       	69.922066      	69.51173       	69.65109       	69.51626       	69.55528       	69.73088       	69.649155      	69.4319        	69.9574        	
69.188         	69.88601       	71.03765       	71.20987       	69.54559       	69.70764       	69.66606       	69.77054       	69.23942       	69.596146      	69.62779       	69.5791        	69.19274       	68.780334      	70.09579       	69.713104      	69.63379       	69.78996       	69.75802       	69.10812       	69.90074       	69.7864        	68.4503        	70.11709       	69.640205      	69.489586      	69.69388       	69.61152       	69.423134      	69.91093       	69.49403       	69.6911        	69.6413        	69.71322       	69.61554       	69.39288       	69.56303       	68.632866      	70.38459       	69.61201       	69.677414      	69.604866      	69.54926       	69.62234       	69.709984      	69.4485        	69.590645      	69.81281       	69.78335       	69.43274       	69.46961       	69.23194       	68.09516       	70.75104       	70.14178       	69.65377       	69.6617        	69.69138       	69.60394       	67.821304      	69.973465      	70.80826       	69.87573       	69.435104      	69.53371       	69.78849       	69.116684      	69.20503       	69.89685       	69.765366      	69.40462       	70.08923       	69.43033       	69.700935      	68.951965      	70.14366       	69.75101       	69.69003       	69.83424       	69.653984      	69.08924       	69.55635       	69.5356        	69.8211        	69.5825        	69.65771       	68.744064      	70.31733       	69.45647       	69.78766       	69.17442       	70.2988        	69.294914      	69.713684      	69.70217       	69.33682       	70.22982       	69.52372       	69.516846      	69.65964       	
69.48063       	69.97741       	71.290085      	72.13531       	70.33059       	69.77235       	69.67282       	69.21172       	69.51846       	69.27536       	69.534744      	69.50205       	69.60706       	69.426834      	69.92354       	69.65035       	69.55557       	69.84041       	69.60759       	69.57829       	69.86148       	69.96419       	69.38208       	69.6028        	69.85961       	69.28904       	69.341095      	69.83337       	69.49384       	69.67989       	69.66795       	69.54447       	69.64183       	69.51351       	68.48391       	70.21569       	69.30979       	69.862724      	69.445366      	69.40648       	69.81513       	69.80533       	69.358864      	69.69797       	69.09332       	70.14071       	69.61794       	69.69229       	69.35769       	69.65708       	69.53651       	69.582664      	69.76669       	69.48354       	69.70089       	69.697876      	69.855934      	69.4233        	69.24659       	69.88413       	69.5446        	69.49718       	69.67439       	69.80853       	69.52342       	69.3695        	69.601776      	69.1994        	68.6185        	70.30248       	69.73281       	69.83902       	69.65482       	69.678986      	69.52139       	69.595436      	69.65083       	69.59594       	69.85527       	69.41213       	68.89125       	69.12          	70.318924      	69.60756       	69.580765      	69.70103       	69.62963       	69.63104       	69.51278       	69.643486      	69.84977       	69.506546      	69.426056      	69.58513       	69.61386       	69.64978       	69.76783       	69.61659       	69.50347       	69.57755       	
69.511375      	69.676674      	70.10774       	70.015366      	69.67508       	69.40715       	69.126884      	68.19882       	71.358734      	69.531784      	69.351326      	69.767944      	69.3725        	69.815254      	69.40681       	69.60099       	69.893         	69.42857       	69.651054      	69.727356      	69.72088       	69.796364      	69.2928        	69.67345       	70.02373       	69.53343       	69.344055      	69.87588       	69.76224       	69.40168       	69.626         	69.70087       	69.571175      	69.89392       	69.61703       	68.36951       	70.65558       	69.42678       	69.46738       	69.56953       	69.35951       	69.717896      	69.771164      	69.43659       	69.75826       	69.50537       	69.487045      	69.29418       	70.25063       	69.4797        	69.75457       	69.49045       	69.89783       	69.67301       	69.418434      	69.658394      	69.628944      	69.48692       	69.79158       	69.63726       	69.67841       	69.48754       	69.638725      	69.64719       	69.35324       	69.70345       	69.59604       	69.74852       	69.658745      	69.73994       	69.69906       	69.4755        	69.483864      	69.83791       	69.532585      	69.70726       	69.61035       	69.63856       	69.65148       	69.64456       	69.43907       	69.642815      	69.77003       	69.74738       	69.60692       	69.610695      	69.608154      	69.5115        	69.37985       	69.38319       	70.054924      	69.91805       	69.21256       	69.618835      	69.45761       	69.57756       	69.06087       	70.12863       	69.607666      	69.44905       	
69.40592       	69.76612       	70.04571       	69.95865       	69.8           	69.666084      	69.6608        	69.62207       	69.89294       	69.32529       	69.660484      	69.48444       	69.60611       	69.4679        	69.51359       	69.71039       	69.489235      	69.686905      	69.66893       	69.63535       	69.63225       	69.76605       	68.79649       	68.07331       	71.88396       	69.64375       	69.81061       	69.37388       	69.627106      	69.51819       	69.77893       	69.52518       	69.61541       	69.7017        	69.84938       	69.394356      	69.296036      	69.60239       	69.704666      	69.381454      	69.87075       	69.42984       	68.00572       	69.76857       	70.43855       	69.674065      	69.68398       	68.67998       	70.52844       	69.61127       	69.24151       	69.70851       	70.069756      	69.58733       	69.68951       	69.56196       	69.478714      	69.66528       	69.61059       	69.79457       	69.76133       	69.6679        	69.45916       	69.217255      	69.60877       	69.67928       	69.59525       	68.667885      	70.640305      	69.19666       	69.88333       	69.656555      	69.58902       	69.33473       	69.70983       	69.90663       	69.536575      	69.56291       	69.76415       	69.53186       	69.74272       	69.420815      	69.73857       	69.9811        	69.47167       	69.43832       	69.61747       	69.47429       	69.84317       	69.65016       	69.59675       	69.87149       	68.07737       	70.69465       	69.52988       	69.61423       	69.38549       	69.47436       	69.72883       	69.81706       	
69.38739       	69.60212       	69.95354       	70.25199       	69.91442       	69.5949        	69.342285      	69.635254      	69.22006       	69.94298       	69.7458        	69.35424       	69.7242        	69.54675       	69.750824      	69.22027       	69.67881       	69.65036       	69.59712       	68.43466       	70.47907       	70.034134      	69.56535       	68.03247       	70.73069       	69.94798       	69.707344      	69.71768       	69.66291       	69.56496       	69.57817       	69.714905      	67.87244       	69.47772       	71.29124       	69.55951       	69.44817       	69.5797        	69.49981       	69.47032       	69.74672       	69.63755       	69.24575       	69.68495       	69.771675      	69.87522       	69.77036       	69.45909       	69.682365      	69.532555      	69.86917       	69.69515       	69.388885      	69.70506       	69.51367       	69.70596       	69.57642       	69.69013       	69.47753       	69.91521       	69.58461       	69.76088       	69.716324      	69.363625      	69.57421       	69.79795       	69.60753       	69.52611       	69.69881       	67.45317       	71.35153       	69.70343       	69.47438       	69.74049       	69.77709       	69.6164        	69.46071       	69.43134       	69.79678       	69.78153       	69.517525      	69.61045       	69.75228       	69.77926       	69.37046       	68.90461       	69.67905       	69.53612       	69.78385       	69.79192       	69.37819       	69.86191       	69.29237       	69.83622       	69.47467       	69.8627        	68.83221       	70.00174       	69.49061       	69.80138       	
69.41381       	69.57034       	69.838425      	70.052284      	68.58985       	70.367294      	69.46611       	69.59199       	69.70369       	69.3889        	69.565956      	69.61889       	69.62368       	69.20743       	69.20518       	70.28838       	69.5581        	69.21432       	69.738625      	67.55223       	69.952354      	71.54173       	69.54754       	69.346085      	69.83741       	69.57641       	69.892426      	69.292755      	69.69749       	69.84354       	69.645325      	69.48406       	68.27236       	68.8645        	71.58562       	69.78122       	68.7626        	69.81773       	69.39431       	69.779686      	69.49734       	69.265686      	69.50985       	69.963036      	69.83115       	69.46051       	70.037575      	69.39995       	69.66647       	69.46895       	69.907166      	69.54642       	69.862854      	69.60887       	69.39293       	70.066605      	69.5121        	69.66937       	69.81881       	69.62753       	69.53665       	69.5404        	69.820366      	69.11732       	68.90315       	70.15154       	69.6413        	69.860954      	69.20085       	69.16322       	70.09468       	69.452705      	70.010185      	69.57432       	67.88907       	71.02145       	69.80975       	69.37613       	69.7043        	69.96027       	69.33133       	69.50529       	69.90183       	68.937325      	69.8516        	69.45691       	69.70192       	69.60371       	69.76302       	69.65312       	69.60649       	69.53504       	69.726295      	69.69058       	69.81148       	69.370224      	69.585075      	69.74322       	69.73152       	69.51322       	
69.53244       	69.66522       	69.69797       	69.685616      	69.84403       	69.55975       	69.74075       	69.56857       	69.67654       	69.51304       	69.49923       	69.47973       	67.94913       	68.81174       	70.22283       	70.98066       	69.93715       	69.43999       	69.63403       	69.60619       	69.5007        	69.38066       	69.964615      	69.33931       	69.769615      	69.8331        	69.47123       	69.69841       	69.40415       	69.71437       	69.637276      	69.52119       	69.9708        	69.78531       	69.52387       	69.32617       	69.76925       	69.373695      	69.50336       	69.602974      	68.59013       	69.88764       	69.82704       	69.46198       	69.728905      	69.222435      	69.88286       	69.813576      	69.358665      	69.53384       	69.85628       	69.78246       	69.33949       	69.60481       	69.64868       	69.96659       	69.44465       	68.68761       	69.08393       	70.67571       	69.37771       	69.603935      	69.666916      	69.61384       	69.689964      	69.550156      	69.4643        	69.816666      	69.52973       	69.538605      	69.834854      	69.46897       	69.52309       	69.94219       	69.542885      	69.5961        	69.84962       	69.492744      	69.91763       	69.49713       	69.546684      	69.67196       	69.64161       	67.61476       	71.108986      	69.69954       	69.62186       	69.30665       	69.93155       	69.56426       	69.67013       	69.50366       	69.560905      	69.7748        	69.602066      	69.46377       	69.9001        	69.18805       	69.075806      	69.88219       	
69.58011       	69.64685       	69.626816      	69.986786      	69.86214       	69.61279       	69.40094       	69.76334       	69.533485      	69.696686      	69.56537       	69.82358       	67.57624       	68.64488       	70.018555      	71.697266      	69.89725       	69.39493       	69.587234      	69.67671       	69.35764       	69.82149       	69.68087       	69.484695      	69.51652       	69.72862       	69.82797       	69.60457       	69.534904      	69.60659       	69.784744      	69.50843       	69.59767       	69.92706       	69.6348        	69.40475       	69.58548       	69.46392       	68.07556       	69.83292       	69.93658       	69.37089       	69.823006      	69.57915       	69.48255       	69.658646      	68.46651       	69.86913       	69.353424      	69.7983        	69.365295      	69.785904      	69.66261       	69.629074      	69.69914       	69.47775       	69.78415       	69.788376      	69.53913       	69.98826       	69.48406       	69.595055      	69.22696       	69.81111       	69.78412       	69.49732       	69.76643       	69.85911       	69.62109       	69.06853       	70.04749       	69.52834       	69.592575      	69.69722       	69.647415      	69.63537       	69.41247       	69.88824       	69.61369       	69.60076       	69.63129       	69.529144      	69.86252       	69.45724       	69.61348       	69.60435       	69.49007       	69.50642       	69.67349       	68.94367       	68.71546       	70.40773       	70.67682       	69.48411       	69.528435      	69.54381       	68.98862       	70.19325       	69.58551       	69.54953       	
69.397995      	69.70621       	70.29218       	70.18268       	69.798965      	69.22211       	70.04917       	69.54721       	69.53893       	69.49624       	69.552986      	69.69259       	69.1527        	68.73527       	70.25879       	70.40071       	69.47709       	69.68357       	69.60247       	69.20026       	69.74812       	69.71652       	69.80069       	69.77222       	69.49591       	69.57699       	69.78873       	69.86835       	69.638405      	69.42428       	69.49352       	69.867905      	69.75827       	68.50063       	70.43048       	69.73629       	69.41518       	69.49442       	69.52677       	69.62756       	69.607704      	69.57256       	69.73753       	69.88757       	69.43769       	70.06204       	69.408676      	69.6408        	69.54668       	69.60746       	69.52059       	69.74372       	69.80836       	69.658875      	69.61881       	69.01773       	69.871796      	69.92243       	69.54745       	69.6893        	69.49129       	69.84905       	69.653755      	69.40653       	69.58225       	68.92875       	69.97574       	69.59867       	69.40837       	69.60006       	69.97767       	69.17814       	69.617355      	70.076805      	68.0413        	70.78758       	69.673836      	69.887405      	69.71393       	68.43327       	70.36418       	69.48586       	69.97714       	69.59011       	69.675934      	69.24484       	69.582855      	69.48705       	69.29633       	67.454025      	68.73995       	70.17557       	71.59114       	70.11206       	69.63169       	69.87562       	69.427246      	69.72076       	69.79266       	69.707466      	
69.32035       	69.51883       	70.36839       	70.27419       	69.8541        	69.75882       	69.77876       	69.39664       	69.48606       	69.6175        	69.75104       	69.606094      	69.78604       	69.51144       	69.552155      	69.646706      	69.238716      	69.70083       	69.764854      	69.612785      	69.511925      	68.91562       	69.999756      	69.7157        	69.53316       	69.50518       	68.20391       	70.12107       	69.69164       	69.60847       	69.36885       	69.68946       	69.726494      	69.62666       	69.774185      	69.56441       	69.535675      	69.73855       	68.02724       	70.56303       	69.63284       	69.57452       	69.836296      	69.45938       	69.43554       	69.88955       	69.33969       	69.62932       	69.990105      	69.60456       	69.45321       	69.86712       	69.58909       	69.33044       	69.711426      	69.80682       	69.45479       	69.7022        	69.68874       	69.57953       	69.70055       	69.92245       	69.59811       	69.75343       	69.45081       	69.761406      	69.497925      	69.41481       	69.219696      	69.8966        	69.54544       	69.82528       	69.67608       	69.38583       	69.490295      	69.67692       	69.68863       	69.63977       	69.401344      	67.695145      	71.020294      	70.06969       	69.70103       	69.74751       	69.376495      	69.542694      	69.72753       	69.53028       	69.31255       	67.702156      	68.59385       	70.03355       	71.35196       	70.286705      	69.65445       	69.60442       	68.70499       	70.05455       	69.53324       	69.57798       	
69.389946      	69.75586       	70.015015      	70.03496       	69.49158       	70.00536       	69.36433       	69.514336      	69.80916       	69.469864      	69.74658       	69.50112       	69.674065      	69.63725       	69.55441       	69.98193       	69.22679       	69.58072       	69.42173       	69.84192       	69.478134      	69.66228       	69.527016      	69.75746       	69.168106      	69.874855      	69.64691       	69.61778       	69.743416      	69.451775      	67.35086       	70.78358       	70.29263       	69.96738       	69.63029       	69.7197        	69.547386      	69.49212       	69.90684       	69.33743       	69.51675       	69.880936      	69.524124      	69.55031       	69.1392        	69.93198       	69.43398       	69.87871       	69.66219       	69.68043       	69.723976      	69.70014       	69.240036      	68.3671        	70.109344      	70.555664      	69.52798       	69.53779       	69.32836       	69.97459       	69.91144       	69.63798       	69.5742        	69.78283       	69.54656       	69.55352       	69.44254       	69.595474      	69.58545       	69.60994       	69.40911       	68.00424       	69.37062       	70.57208       	69.84029       	69.52921       	69.337166      	69.92786       	69.69394       	69.71942       	69.743385      	69.66212       	69.39558       	69.81884       	69.41279       	69.44415       	69.60278       	69.37611       	69.84129       	69.45138       	68.89952       	69.64535       	70.785995      	69.85337       	69.5611        	69.534454      	69.707954      	69.31895       	69.77731       	69.41443       	
69.36496       	69.5743        	69.82684       	70.132195      	69.806015      	69.702385      	69.527214      	69.29797       	69.06297       	69.98634       	68.40397       	70.01332       	70.069565      	69.628494      	69.60834       	69.664955      	69.42466       	69.70794       	69.794464      	69.64773       	69.48838       	69.5614        	69.62281       	69.456314      	69.65285       	69.736916      	69.75654       	69.63448       	69.76718       	69.36738       	67.75074       	70.29514       	70.852974      	69.251144      	69.67378       	69.82237       	69.63774       	69.68542       	69.426674      	69.637985      	69.46456       	69.423134      	69.62228       	69.54163       	69.63521       	69.783134      	69.92582       	69.34314       	69.657394      	69.5631        	69.91013       	69.63805       	69.81626       	67.82854       	69.51212       	71.49518       	69.20907       	69.741234      	69.638275      	68.069244      	71.079315      	69.64856       	69.667755      	69.45947       	68.539276      	70.35743       	69.5348        	69.3627        	69.764984      	69.65525       	69.59503       	67.16478       	69.335655      	71.04783       	70.742004      	69.56243       	69.561775      	69.56908       	69.58607       	69.657394      	69.49548       	69.314224      	69.82581       	69.54315       	69.61567       	69.63091       	69.4304        	69.35262       	69.56222       	69.76579       	69.97841       	69.522995      	69.53223       	69.92236       	69.46688       	69.12773       	69.80674       	69.73343       	69.593124      	69.50989       	
69.39686       	69.67281       	70.10511       	69.8018        	69.707756      	69.75914       	69.47519       	69.516785      	69.334595      	69.22615       	70.12963       	69.66096       	69.37006       	69.89582       	69.71925       	69.55828       	69.779045      	68.03868       	69.719864      	71.06879       	69.4631        	69.41571       	69.6738        	69.37808       	69.923134      	69.61625       	69.54752       	69.5425        	69.73049       	69.43394       	69.67405       	69.56087       	69.643135      	69.858376      	69.34916       	69.72156       	69.92742       	69.426994      	69.58765       	69.51543       	69.590225      	69.85868       	69.647934      	69.12972       	69.014046      	70.00575       	69.733154      	69.44144       	69.689575      	68.95552       	70.18999       	69.685005      	69.77609       	69.71609       	69.5586        	69.52304       	69.631424      	69.73468       	69.523544      	68.844734      	70.0783        	69.70698       	69.75834       	69.39512       	69.59457       	69.91079       	69.56009       	69.70478       	69.65101       	69.57952       	69.66168       	69.338554      	69.82774       	69.57842       	69.46773       	69.616646      	69.590454      	69.77978       	69.59132       	69.618         	69.8606        	69.35401       	69.557816      	69.674255      	69.98549       	69.36211       	69.8698        	69.46131       	69.89733       	69.4676        	69.66936       	70.00269       	69.40669       	69.792694      	69.41678       	69.59511       	69.46984       	69.838135      	69.69461       	69.50908       	
69.430466      	70.00058       	70.47869       	69.951         	69.83898       	69.66928       	69.64891       	69.320366      	69.60626       	68.91156       	69.312904      	69.88503       	69.618         	69.793465      	69.78315       	69.65831       	69.66451       	66.77907       	69.98398       	70.46454       	71.24741       	69.356964      	69.687706      	68.95146       	69.976944      	69.59871       	69.04429       	70.071625      	69.6322        	69.764824      	69.40377       	69.46076       	69.934845      	69.81718       	69.62338       	69.43024       	69.45855       	69.81954       	69.46928       	69.45142       	69.67529       	69.34949       	68.81284       	70.20668       	69.3964        	69.76285       	69.6219        	69.77324       	68.9064        	67.46432       	71.0477        	70.310074      	69.77062       	69.69957       	69.30837       	69.81369       	69.61983       	69.87131       	69.53473       	69.44426       	69.77529       	69.68403       	69.56916       	69.73365       	69.65694       	69.39015       	70.099205      	69.25852       	69.26679       	69.84035       	69.46843       	69.65381       	69.77888       	69.728096      	69.39177       	69.57719       	69.57615       	69.89503       	69.74283       	69.41911       	69.66614       	69.53215       	69.56488       	68.93272       	70.04465       	68.77942       	70.62062       	69.51413       	69.36187       	69.78833       	69.460945      	68.462456      	70.33422       	69.69075       	69.486694      	69.3082        	69.8848        	69.84754       	69.76818       	69.48215       	
69.401306      	69.70194       	69.92656       	69.76333       	69.85671       	69.94913       	69.506485      	69.55899       	69.33265       	69.838875      	69.44839       	69.511536      	69.76862       	69.7604        	69.723915      	69.383995      	69.93091       	68.91147       	67.68542       	69.98152       	71.86997       	69.62781       	69.84904       	69.08164       	69.75395       	69.659035      	69.519585      	69.38431       	69.57231       	69.89391       	69.40721       	69.65584       	69.80421       	69.70343       	68.82053       	67.41175       	67.95022       	72.23973       	70.258255      	69.60608       	69.5761        	69.44183       	69.701         	69.533676      	67.980354      	70.25039       	69.73035       	69.80908       	69.39249       	68.96879       	70.040146      	69.6855        	69.91059       	69.468254      	69.899315      	69.64011       	69.63199       	69.715515      	69.75616       	69.35672       	69.587944      	69.64241       	69.40949       	69.843346      	69.67794       	69.71113       	69.72158       	69.70865       	69.48516       	69.564705      	69.44062       	67.92181       	70.14651       	70.89085       	69.50508       	69.382484      	69.72659       	69.73621       	69.61017       	69.63929       	69.57227       	69.60525       	69.61503       	69.538246      	69.63608       	69.67849       	69.63286       	69.79816       	69.739075      	69.362335      	69.72562       	69.6218        	69.17454       	69.90485       	69.56919       	69.77129       	69.23553       	70.04747       	69.36564       	69.41115       	
69.566605      	69.25738       	69.31          	70.18631       	69.18638       	69.8019        	69.87276       	69.69113       	69.365814      	69.67398       	69.91007       	69.48249       	69.45545       	68.814896      	70.96296       	69.39524       	69.36379       	69.61946       	69.593605      	68.84877       	70.1336        	69.594         	69.62907       	69.24073       	69.54565       	69.61162       	69.211266      	70.13981       	69.52054       	69.66037       	69.47621       	69.73243       	69.45818       	70.186584      	69.3097        	67.00648       	68.72433       	72.75575       	69.00683       	70.29908       	69.59508       	69.476456      	69.55395       	69.592026      	69.40741       	69.525696      	69.66394       	69.90969       	69.67233       	69.56858       	69.60882       	69.854355      	69.28931       	69.82602       	69.72812       	69.85934       	69.662415      	69.413086      	69.91988       	69.254845      	69.59644       	69.824974      	69.68128       	69.723656      	67.901306      	69.059685      	71.36357       	69.83993       	69.77683       	69.733376      	69.39271       	69.44013       	68.931435      	70.776855      	69.79615       	69.3123        	69.76698       	69.66939       	69.47388       	69.65872       	69.43273       	69.7755        	69.50317       	69.709076      	69.49732       	69.67417       	69.62367       	69.99946       	69.470085      	69.5426        	69.41319       	69.84036       	69.468895      	69.67125       	69.74654       	69.58579       	69.225006      	69.938385      	69.83852       	69.58557       	
69.41786       	69.61501       	69.82804       	70.31865       	69.57479       	69.561714      	69.323654      	70.084236      	69.37671       	69.34222       	69.54231       	69.60967       	69.85221       	68.45886       	71.06023       	69.678116      	69.25468       	69.56521       	69.75378       	69.64776       	69.45616       	69.459274      	69.84141       	69.64951       	69.52478       	69.40621       	69.58407       	69.56259       	69.539635      	69.62026       	69.66054       	69.89256       	69.52232       	69.63339       	69.8541        	69.595604      	69.70849       	69.64275       	69.60574       	69.66592       	69.54625       	69.48185       	69.63215       	69.51231       	69.681984      	69.59364       	69.938156      	69.634544      	69.56816       	68.59793       	70.27499       	69.93954       	69.66021       	69.513115      	69.60258       	69.91602       	69.75435       	69.565445      	69.6551        	69.11954       	69.624176      	69.68071       	69.55049       	68.63178       	67.58773       	69.088776      	71.21006       	70.90936       	69.228134      	70.06947       	69.372025      	69.747055      	69.65281       	69.328514      	69.850174      	69.589645      	69.299095      	69.65658       	69.579155      	69.76932       	69.34294       	69.500786      	69.64321       	69.47738       	68.96025       	70.031944      	69.782166      	69.58968       	69.74534       	69.40167       	69.934654      	69.45684       	69.449715      	69.55885       	69.81358       	69.253914      	69.913315      	68.65497       	69.65023       	69.74466       	
69.27412       	69.47465       	69.97945       	70.096634      	69.917404      	69.625565      	69.704605      	69.53656       	69.79013       	69.54556       	69.65785       	69.62934       	69.42182       	69.92238       	69.658966      	69.873634      	69.31295       	69.954994      	69.27127       	69.44504       	69.83775       	69.66085       	69.55145       	69.84339       	69.47258       	69.53904       	69.61996       	69.523346      	69.60453       	69.6362        	69.765236      	69.83271       	69.74783       	69.72109       	69.3633        	69.8744        	69.53307       	69.81108       	69.62013       	69.58424       	69.47864       	69.7106        	69.70826       	68.93206       	68.96856       	70.349754      	69.37439       	69.7926        	69.747314      	69.449234      	69.44245       	69.83282       	69.6595        	69.60673       	69.3633        	68.91204       	68.549736      	71.2652        	69.64126       	69.393135      	69.88123       	69.47853       	69.99581       	68.94706       	67.81236       	69.19446       	70.802025      	71.23191       	69.631935      	69.78943       	69.635506      	69.5843        	69.3627        	69.86857       	69.623535      	69.54466       	69.78304       	68.9658        	70.03347       	69.4148        	69.467384      	69.46709       	69.829155      	69.481544      	69.52946       	69.77564       	68.24643       	69.0435        	70.71237       	70.87355       	69.459755      	69.712906      	69.57877       	69.6347        	69.57261       	69.60938       	69.143394      	69.9615        	69.798935      	69.41872       	
69.35393       	69.620056      	69.79786       	69.840866      	70.15376       	69.38318       	69.634476      	69.69489       	69.5237        	68.95545       	69.80278       	69.90064       	69.7558        	69.38853       	69.75765       	69.66185       	69.409904      	70.06215       	69.48767       	69.57781       	69.612274      	69.53521       	69.343155      	70.12173       	68.90303       	69.93865       	69.40949       	69.5478        	69.85474       	69.41876       	69.26149       	69.05176       	70.328         	69.57217       	69.79918       	69.23295       	69.726295      	69.65401       	69.53558       	69.98811       	69.51902       	69.53299       	69.60398       	69.430984      	69.73995       	69.976036      	69.624016      	69.57331       	69.692154      	69.47126       	69.33479       	68.93336       	70.25434       	69.318474      	69.89699       	69.73804       	68.970566      	70.10569       	69.510796      	69.678154      	69.64841       	69.56712       	69.87523       	69.79639       	69.22829       	68.93123       	70.299126      	69.40849       	69.82163       	69.992226      	69.46161       	69.71672       	69.28403       	69.824745      	69.21092       	69.90007       	69.76828       	69.594826      	69.76068       	69.469986      	67.562515      	71.06595       	70.19117       	69.62606       	69.63685       	68.52963       	66.798584      	68.98218       	70.71141       	72.06978       	69.720314      	69.86878       	69.47926       	67.723625      	69.433784      	71.46934       	69.465294      	69.71222       	69.76998       	69.7116        	
69.536415      	69.892456      	70.13884       	69.65431       	69.70847       	69.74511       	69.61564       	69.761604      	69.737236      	69.56817       	69.57783       	69.60751       	69.67597       	69.66334       	69.55472       	69.653404      	69.845825      	69.50146       	69.63322       	69.58022       	69.65679       	69.738846      	69.43394       	69.11537       	68.15372       	71.208755      	69.523926      	69.728386      	69.58457       	69.57955       	69.17793       	67.71701       	71.66164       	69.59569       	69.58343       	69.316444      	69.64992       	69.731026      	69.76271       	69.43832       	69.733246      	69.817024      	69.50449       	69.55332       	69.82134       	67.877975      	71.136024      	69.350044      	69.789734      	69.6436        	69.25133       	69.83363       	69.648834      	69.33505       	69.61801       	69.88562       	69.67912       	67.89724       	71.30999       	69.37675       	69.5504        	69.71311       	69.453804      	69.68634       	69.81065       	69.58614       	69.45197       	69.620155      	69.648285      	69.6981        	69.828026      	68.597946      	70.35862       	69.63916       	69.58109       	69.76735       	69.49126       	70.046005      	69.34131       	69.678894      	69.25123       	69.64672       	69.718765      	69.71742       	69.43082       	69.455154      	66.96111       	68.77443       	70.60344       	71.86116       	69.85072       	69.73117       	69.62932       	68.54586       	68.914986      	71.29453       	69.358696      	69.60374       	69.89675       	69.42592       	
69.47585       	69.76665       	69.11091       	68.53547       	70.405106      	69.602844      	69.62391       	69.69418       	69.71978       	69.678696      	69.616455      	69.43847       	69.108345      	69.91236       	69.782425      	69.701805      	69.78512       	68.25574       	70.656         	69.62788       	69.55001       	69.88653       	69.50071       	69.39888       	69.59171       	69.72721       	69.49732       	69.63547       	69.72289       	69.57248       	69.60074       	69.883514      	69.62836       	69.87426       	69.36466       	69.498344      	69.82716       	69.25653       	69.89745       	68.646996      	69.26862       	70.324326      	69.32348       	69.73253       	69.52162       	69.741554      	69.63925       	69.51847       	69.63036       	69.711815      	69.86611       	69.42456       	69.57601       	69.7186        	69.37568       	69.60767       	69.78807       	69.74273       	69.855865      	69.352104      	69.48842       	69.56826       	70.01416       	69.31433       	69.9979        	69.61707       	69.447         	69.576996      	69.71125       	69.723854      	69.58962       	69.68123       	69.75574       	69.655594      	69.31825       	69.49061       	69.79673       	69.64159       	69.7051        	69.48317       	69.81507       	69.62928       	69.44562       	69.4847        	69.79784       	69.34925       	68.79244       	68.746666      	70.22068       	70.44589       	69.779594      	69.24706       	69.71707       	69.877716      	69.60672       	69.59206       	69.494156      	69.70417       	69.76145       	69.59019       	
69.40446       	69.614105      	69.000244      	67.57222       	71.43433       	69.96597       	69.74017       	69.78405       	69.53308       	69.30735       	69.46717       	69.84481       	69.74725       	69.58397       	69.789         	69.30512       	69.664955      	69.37124       	69.973274      	69.47046       	69.362854      	69.5212        	69.79059       	69.56663       	68.91759       	69.88614       	69.79556       	69.39737       	69.57611       	69.807526      	69.68505       	69.79386       	69.62639       	69.47524       	69.6248        	69.709404      	69.47171       	69.81172       	69.64086       	69.62552       	69.65726       	69.701416      	69.52654       	69.4892        	68.8772        	70.490005      	69.56154       	69.5251        	69.710785      	69.55069       	68.70367       	68.937546      	70.66103       	69.51271       	69.76494       	69.59061       	69.44851       	69.78571       	69.85623       	69.42659       	69.72293       	69.76424       	69.63717       	69.19824       	69.46819       	69.88235       	69.696434      	69.71645       	69.42025       	69.65304       	69.77343       	69.65794       	69.78493       	69.70761       	69.58639       	69.64979       	68.983055      	70.08231       	69.819984      	69.73851       	69.69815       	69.564354      	69.72101       	69.580246      	69.71303       	69.748856      	69.48474       	69.61095       	69.50052       	69.60222       	69.72027       	69.63296       	68.92158       	70.2475        	69.72174       	69.678276      	69.54989       	69.55033       	69.38466       	69.96515       	
69.309326      	69.53751       	69.750854      	69.8756        	69.79415       	69.58086       	69.727974      	69.409515      	69.50883       	69.8837        	69.52081       	69.44791       	69.94629       	69.54543       	69.28925       	70.188095      	69.34245       	69.33234       	69.971306      	69.629196      	69.63996       	69.494446      	69.49786       	69.86782       	69.60383       	69.77119       	69.591415      	69.52273       	68.69594       	68.57377       	71.38199       	69.925095      	69.67181       	69.53216       	69.92082       	69.54173       	69.63329       	69.43921       	69.8457        	69.50338       	69.70509       	69.39451       	70.084496      	69.49114       	69.55504       	69.46517       	69.94646       	69.43674       	69.51799       	69.806         	69.67823       	69.773094      	69.5301        	69.76272       	69.729675      	69.75431       	69.30947       	69.72761       	69.53899       	69.38107       	69.81894       	69.840164      	69.34916       	69.80972       	69.37609       	69.57214       	69.48256       	69.89748       	69.589935      	69.59489       	69.50844       	69.63394       	69.83321       	69.91292       	69.51372       	69.51736       	69.32781       	69.89168       	69.85044       	69.43192       	69.46492       	69.85348       	69.49413       	69.45533       	69.30323       	69.706024      	69.696915      	69.58308       	69.74305       	69.72309       	69.60895       	69.59803       	69.53206       	69.81159       	69.1707        	69.83279       	69.72673       	69.72931       	69.63143       	69.597         	
69.40751       	69.60638       	69.94503       	69.95654       	69.677574      	69.73267       	69.414795      	69.8474        	69.507385      	69.79861       	69.53624       	69.64637       	69.73236       	69.80375       	68.76294       	69.98131       	69.47537       	69.279976      	69.59636       	69.51209       	69.53545       	69.70836       	69.491005      	69.48656       	69.58414       	69.75061       	69.668274      	69.62913       	67.69687       	68.16347       	70.9553        	71.064125      	69.396095      	69.85946       	69.73882       	69.41876       	69.6947        	69.57476       	69.79873       	69.56597       	69.525795      	69.564674      	69.767044      	69.67003       	69.376755      	69.71792       	69.83238       	69.28359       	69.90244       	69.67928       	69.76391       	69.659065      	69.60796       	69.73823       	69.45429       	69.80127       	69.66735       	69.62203       	69.4012        	69.8306        	69.48552       	69.57371       	69.57652       	69.92664       	69.45472       	69.65499       	69.65977       	68.26149       	70.29414       	69.42495       	69.82993       	69.65722       	69.5627        	69.078094      	69.8093        	69.68065       	69.59286       	69.65039       	69.82356       	69.39451       	69.53798       	69.612946      	69.70465       	68.2951        	70.8143        	70.013756      	69.599976      	69.30584       	69.678665      	69.7323        	69.6112        	69.660866      	69.85729       	69.78674       	69.474266      	69.42162       	70.05353       	69.54796       	69.38652       	69.14595       	
69.55185       	69.83391       	69.40175       	69.563194      	69.15896       	70.236824      	69.549515      	69.64618       	69.27302       	69.88858       	69.69493       	69.64939       	69.53155       	69.70693       	69.48947       	69.26561       	68.9321        	69.84917       	69.76914       	69.76143       	68.945114      	70.10662       	69.14642       	70.033646      	69.437195      	70.09674       	69.455605      	69.57945       	69.32231       	67.865395      	70.528175      	70.61607       	69.6284        	69.94682       	69.65378       	69.519394      	69.82657       	69.28688       	69.50237       	68.63974       	70.496796      	69.84032       	69.539734      	69.65025       	69.66013       	69.650314      	69.713295      	69.545944      	69.505104      	69.411736      	69.98885       	69.784         	69.343414      	69.8763        	69.494865      	69.35152       	69.7774        	69.697624      	69.687126      	69.29685       	69.664764      	69.66549       	69.84727       	69.66494       	69.539635      	69.57761       	69.90159       	69.46893       	69.48211       	69.10471       	67.74936       	70.80598       	70.525505      	69.91128       	69.48652       	69.7792        	69.43661       	69.66535       	69.65363       	69.733444      	69.35875       	69.53563       	69.960434      	69.58548       	68.86294       	70.39605       	69.40523       	69.786415      	69.507515      	69.678696      	69.47462       	69.54813       	69.8026        	69.832565      	69.664566      	69.5007        	69.90793       	69.692894      	69.47337       	69.457596      	
69.43199       	69.89284       	70.11363       	69.74976       	69.480194      	69.574066      	69.41413       	69.73328       	69.63867       	69.7314        	69.7264        	69.52735       	69.79296       	69.57949       	69.53062       	69.797295      	69.40787       	69.364136      	69.96805       	69.66217       	69.52817       	69.337654      	70.085045      	69.511475      	69.86292       	69.49988       	69.72066       	69.63139       	69.75732       	69.493515      	69.62457       	69.47299       	68.510254      	70.23263       	69.497284      	69.90723       	69.37775       	69.72677       	69.27758       	69.93746       	69.86581       	68.7837        	70.24117       	69.077736      	69.75018       	69.56834       	69.7506        	69.834496      	69.62154       	69.425674      	68.14394       	69.76565       	71.1551        	69.55398       	69.38037       	69.95382       	69.525345      	69.461006      	69.759796      	69.48431       	69.80359       	69.61558       	69.768425      	69.55985       	69.78919       	69.613625      	69.73271       	69.166275      	69.73093       	69.50399       	67.34793       	70.41891       	71.15907       	69.71663       	69.430305      	69.74581       	69.75966       	69.528984      	69.71637       	69.46964       	69.40671       	69.28654       	70.02218       	69.750854      	69.96831       	69.44588       	69.58933       	69.50636       	69.837585      	69.60392       	69.70704       	69.62848       	69.44547       	69.37963       	69.89778       	69.59631       	69.70556       	69.613716      	69.383865      	69.69263       	
69.45356       	69.40568       	70.22789       	69.91936       	69.74237       	69.40199       	69.73024       	69.85736       	69.30104       	69.48601       	69.93766       	69.38739       	68.87059       	70.23419       	69.99374       	69.10121       	69.61096       	69.87054       	69.67078       	69.56922       	69.488304      	69.56474       	69.65006       	69.75005       	69.49724       	69.85623       	69.63764       	69.69347       	69.899864      	69.6237        	69.5738        	69.23656       	68.41576       	70.9339        	68.995926      	69.94569       	69.55929       	69.360954      	69.29107       	69.657074      	70.055374      	69.540825      	69.46666       	69.69378       	69.504196      	69.655655      	69.859505      	69.514         	69.44557       	67.54878       	67.99253       	69.15134       	71.455315      	71.24091       	69.445694      	69.57967       	69.681366      	68.33471       	69.41832       	70.94911       	69.4878        	69.60533       	69.60895       	69.724556      	69.47717       	69.06113       	69.919975      	69.465164      	69.78964       	69.43525       	69.288475      	69.93028       	69.71683       	69.825165      	69.68026       	69.68263       	69.44426       	68.035286      	70.98255       	69.68786       	69.32637       	69.58968       	69.70895       	69.77415       	69.70303       	69.73314       	69.46899       	69.899124      	69.609474      	69.177826      	69.716705      	69.784966      	69.08149       	70.21313       	69.64392       	69.6529        	69.4251        	69.561485      	69.49418       	69.83445       	
69.32431       	69.70148       	70.40177       	69.78514       	69.41144       	69.89941       	69.53065       	69.69906       	69.54448       	69.50752       	69.541534      	69.72352       	69.16941       	69.68607       	69.787674      	69.686844      	68.05229       	70.61854       	68.84328       	69.893585      	69.41566       	69.73246       	69.5974        	69.27973       	70.00046       	69.61173       	69.39761       	69.79397       	69.46781       	69.93604       	67.56279       	71.033005      	69.83276       	69.8018        	69.68496       	69.24003       	69.77198       	69.68951       	69.534386      	69.559105      	70.08039       	69.6817        	69.54057       	69.61416       	69.66238       	69.74143       	69.53573       	69.75786       	69.37034       	67.358         	67.81255       	69.497765      	71.38641       	72.31131       	69.610535      	69.44718       	69.342735      	69.68268       	69.77736       	69.73976       	69.51613       	69.44751       	69.78259       	69.69589       	69.533806      	69.25678       	69.89772       	68.17653       	70.69009       	69.5045        	69.57168       	69.74061       	69.78658       	69.72004       	69.08109       	70.40574       	69.29157       	69.907196      	69.50444       	69.60875       	69.73347       	69.752716      	69.31098       	69.66834       	69.48241       	68.37793       	70.94637       	69.29332       	69.91114       	69.66699       	69.739334      	69.71182       	69.51525       	69.515724      	69.77252       	69.70116       	68.879456      	70.07839       	69.5569        	69.68838       	
69.56667       	69.6913        	69.729095      	69.80366       	69.67278       	69.4732        	69.80231       	69.87644       	69.599915      	69.18258       	69.66307       	68.664635      	70.26346       	69.86398       	69.297874      	69.77938       	69.342255      	69.883446      	69.52127       	69.736916      	69.66614       	69.39263       	69.528625      	69.55364       	70.03202       	69.32045       	69.40227       	69.86231       	69.3088        	69.89313       	69.355316      	69.47014       	69.64951       	69.96237       	69.792046      	69.691864      	69.5668        	69.58397       	69.725815      	69.36687       	69.76857       	69.83398       	69.53556       	69.75139       	69.77754       	69.530754      	69.48955       	69.56039       	69.67396       	68.5607        	67.812386      	69.572525      	71.009544      	70.9827        	69.57362       	69.42947       	69.900345      	69.44711       	69.56267       	69.95093       	69.76988       	69.20077       	69.61923       	69.61586       	69.16089       	69.98258       	69.35612       	69.61902       	69.7339        	69.634544      	69.09535       	69.99488       	69.52278       	69.929344      	69.59819       	69.57329       	69.85988       	69.66901       	69.63007       	69.53707       	68.24398       	70.228424      	69.691025      	69.61664       	69.616135      	69.6853        	69.46006       	69.33105       	69.75422       	69.4267        	69.70809       	69.796875      	69.62884       	69.747574      	69.43083       	69.56863       	69.488716      	69.421394      	69.54104       	69.82529       	
69.34731       	69.5763        	69.97946       	70.106186      	69.816444      	69.71804       	69.952255      	69.55177       	68.21193       	70.92464       	69.40722       	69.46808       	69.32708       	70.04673       	69.61712       	69.676765      	69.589775      	69.66543       	69.36651       	68.59099       	70.738785      	69.59897       	69.226006      	69.76411       	69.95122       	69.20392       	67.48504       	69.96895       	70.19665       	69.67898       	69.5212        	69.53664       	69.72048       	69.88772       	69.5648        	69.97196       	69.196205      	69.72618       	69.8578        	69.6211        	69.58941       	69.6829        	68.70014       	70.38926       	69.78324       	69.532875      	69.81765       	69.471695      	69.45761       	69.87429       	69.39968       	69.470215      	69.79636       	69.5405        	69.5173        	69.7891        	69.52163       	69.80356       	69.501884      	69.67326       	69.51382       	69.99882       	69.393196      	69.58018       	69.37644       	69.44228       	69.66055       	69.42208       	69.81582       	69.70771       	69.517784      	69.48147       	69.66863       	69.66019       	69.561676      	70.06049       	69.64434       	69.45954       	69.881905      	69.72456       	69.57857       	69.72723       	69.537415      	69.50047       	69.692535      	69.79529       	69.6962        	69.585205      	69.45447       	69.50427       	69.85698       	69.54175       	69.32935       	69.90228       	69.955635      	69.50052       	69.67474       	69.196495      	69.49046       	69.68831       	
69.440956      	69.72569       	70.15343       	69.98489       	69.28618       	70.279976      	69.2987        	69.36459       	69.748055      	69.71252       	69.317986      	69.73952       	69.57675       	69.54478       	69.67249       	69.92701       	69.70702       	69.29862       	69.623695      	69.71315       	69.47422       	69.69516       	69.57305       	69.76802       	69.65319       	69.56101       	68.99257       	68.559525      	71.105156      	69.30383       	69.58376       	69.46999       	69.56644       	69.76302       	69.951866      	69.730896      	69.33401       	69.64          	69.506256      	69.84323       	69.73386       	69.66227       	69.85368       	69.28862       	69.86529       	69.53445       	70.097176      	69.49403       	69.42833       	69.68697       	69.43924       	69.836075      	69.47906       	69.363365      	69.446396      	69.4847        	69.84251       	69.47634       	69.87298       	69.57132       	69.35443       	68.316605      	70.533676      	69.64004       	69.62087       	68.85544       	70.45987       	69.172134      	69.71815       	69.85523       	69.63955       	69.70413       	69.44806       	69.576744      	69.81705       	69.472374      	69.92201       	69.62966       	69.63396       	69.96494       	69.55596       	69.51301       	70.036964      	69.39954       	69.412994      	69.556015      	69.95574       	69.5467        	69.18146       	69.94766       	69.55428       	69.66378       	69.55332       	69.570274      	69.69863       	69.95502       	69.32463       	69.55715       	69.49045       	69.95171       	
69.35462       	69.56219       	69.958755      	69.66478       	69.90346       	69.8308        	69.25534       	69.55322       	69.897415      	69.710655      	69.4121        	69.49965       	69.65274       	69.59411       	69.84319       	69.42602       	69.665596      	69.53738       	70.03828       	69.373146      	69.69011       	69.81444       	69.505585      	69.53773       	68.74556       	69.82567       	69.44398       	69.741905      	69.53236       	69.665886      	69.555336      	68.861595      	70.12856       	69.59431       	70.04766       	69.03948       	69.07221       	69.93264       	69.74655       	69.7564        	69.58807       	69.84354       	69.3545        	69.67038       	69.640755      	69.803         	69.797         	69.33098       	69.56361       	69.57419       	69.41237       	69.944565      	69.3848        	69.44313       	69.494286      	69.46843       	69.55708       	69.84698       	69.87664       	69.52503       	69.6161        	67.653114      	70.693436      	70.492195      	69.495316      	69.47216       	69.86836       	69.366516      	69.50935       	68.393684      	70.69167       	68.320206      	70.83245       	69.40092       	69.513725      	69.66748       	69.75302       	69.60091       	67.48976       	71.07255       	70.17535       	69.62112       	69.47          	69.82932       	69.40369       	69.47273       	69.671074      	69.52151       	69.42099       	69.77808       	69.661995      	69.667435      	69.697815      	69.77491       	69.60965       	69.7032        	69.22872       	69.538574      	69.76364       	69.3931        	
69.37231       	69.73226       	69.89738       	69.940285      	69.941086      	68.35339       	68.25389       	71.35734       	69.56121       	69.456276      	69.77495       	69.500885      	69.5969        	69.49767       	69.60143       	69.95403       	69.00512       	69.0872        	69.5217        	69.49764       	69.32333       	69.869415      	69.87019       	69.56415       	69.754944      	69.72971       	69.13749       	69.54472       	70.009575      	69.427666      	69.50865       	69.5687        	69.766075      	69.87454       	69.29992       	69.74957       	69.374504      	69.87677       	69.65634       	69.80501       	69.56849       	69.46023       	69.43913       	69.94379       	68.573944      	70.19441       	69.60177       	69.67074       	69.69451       	69.521385      	69.61301       	69.857605      	69.64822       	69.46406       	69.68205       	69.414474      	69.604164      	68.804825      	68.61354       	69.72321       	71.23563       	69.46952       	69.4291        	69.74956       	69.79983       	69.75194       	69.57048       	69.337234      	69.634796      	69.567444      	69.63828       	69.78964       	69.79715       	69.64323       	69.33036       	69.74585       	69.793625      	69.4293        	68.613815      	69.88877       	69.60398       	69.6695        	69.498604      	69.438705      	69.70397       	69.6813        	69.71308       	69.4244        	69.50508       	69.9327        	69.72688       	69.47402       	69.66463       	68.67794       	70.646385      	69.23379       	69.57384       	69.58656       	69.68016       	69.85748       	
69.53151       	69.76261       	70.131424      	69.82468       	67.93615       	67.47803       	69.67698       	70.15175       	70.65889       	69.551865      	69.36314       	69.70023       	69.100075      	70.111725      	69.49808       	69.76841       	69.7834        	69.789215      	69.32302       	69.49948       	69.86817       	69.18331       	69.571815      	69.97193       	69.52514       	69.56579       	69.45147       	69.50235       	69.66533       	69.554085      	69.1268        	69.96489       	69.70065       	69.69476       	69.526054      	69.62307       	69.73688       	69.46114       	69.65319       	69.65383       	69.51365       	69.895386      	69.88709       	69.77568       	69.33129       	69.57848       	69.68027       	69.80116       	69.517136      	69.46719       	69.74612       	69.776535      	69.542244      	69.39044       	69.5743        	69.88136       	69.4359        	69.557335      	69.059044      	68.78921       	70.62085       	69.36417       	69.58168       	69.74912       	69.601875      	69.8386        	69.27531       	69.835785      	69.88337       	69.71495       	69.22724       	69.659935      	69.622345      	69.87189       	69.7282        	69.72587       	69.36875       	69.813934      	69.94718       	69.559494      	69.60813       	69.593346      	69.44671       	69.56278       	69.556175      	69.58403       	69.67154       	69.71685       	69.616905      	68.75249       	69.97494       	69.751884      	69.35541       	66.919395      	71.22146       	69.788216      	69.941345      	69.43738       	69.68614       	69.805626      	
69.426865      	69.99541       	70.2433        	69.76119       	68.28312       	67.661385      	70.30391       	70.03834       	70.75223       	69.58648       	69.725006      	69.7649        	69.62625       	69.6391        	69.671936      	69.50167       	69.35911       	69.77621       	69.67769       	69.11661       	69.49156       	69.74157       	69.61075       	69.70075       	69.72294       	69.33865       	69.625824      	69.33613       	70.02666       	69.6117        	69.66259       	69.17078       	69.97288       	69.69675       	69.520424      	69.78822       	69.354965      	69.59382       	69.41301       	69.86603       	69.559616      	69.623535      	69.710236      	69.640205      	69.76861       	69.85315       	69.13615       	70.14071       	69.476944      	69.57488       	69.40666       	69.78155       	69.59166       	68.5664        	69.54134       	70.15771       	69.45708       	69.62686       	69.42241       	69.55297       	69.72525       	69.67928       	69.37925       	69.727425      	69.777084      	69.77398       	69.50215       	69.77111       	69.186         	69.89844       	69.47385       	69.68299       	69.64306       	68.62255       	70.78973       	69.48727       	69.4637        	69.75784       	69.87934       	69.63191       	69.633316      	69.55771       	69.63059       	68.38385       	70.575096      	69.81298       	68.541405      	70.363556      	69.57065       	69.4364        	68.89683       	70.1184        	69.56314       	69.14943       	69.90947       	69.63375       	69.89902       	69.543236      	69.59664       	69.71442       	
69.16396       	69.65163       	70.25479       	70.09386       	69.59705       	69.18551       	69.93098       	69.60915       	69.76423       	69.87481       	69.30415       	69.590355      	69.82704       	69.67359       	69.56186       	69.64372       	68.757835      	69.91249       	69.97931       	69.356995      	69.85995       	69.58015       	69.48278       	70.03548       	69.68923       	69.291985      	69.76833       	69.64431       	69.54579       	69.303154      	69.60281       	69.632645      	69.596245      	67.38467       	71.70797       	69.34846       	69.65994       	69.500824      	69.58375       	69.04257       	70.34704       	69.807         	69.7503        	69.5628        	69.58758       	67.638214      	68.71966       	70.99874       	70.16796       	69.442245      	69.74802       	69.34457       	69.924034      	69.47899       	68.38232       	70.01056       	69.43327       	69.57166       	69.99427       	69.327034      	69.59465       	69.69132       	69.60223       	69.51952       	69.858116      	69.76604       	69.690094      	69.952095      	69.519875      	68.595345      	70.08496       	69.55519       	69.839096      	68.97364       	70.073326      	69.87439       	69.80745       	69.57309       	69.61679       	69.41682       	67.98341       	71.17821       	69.488106      	69.85363       	69.61048       	69.61441       	69.816444      	69.584175      	69.43717       	69.28217       	68.988625      	70.224174      	69.47317       	69.87621       	69.45094       	69.58668       	69.55866       	69.77653       	69.74573       	69.50432       	
69.39458       	69.54          	69.92983       	69.71635       	69.75734       	69.511314      	69.41392       	69.72385       	70.01988       	69.85149       	69.28273       	69.690575      	69.55687       	69.37751       	69.79591       	69.693344      	69.639854      	69.45424       	69.5979        	69.875755      	69.581665      	69.54522       	69.52999       	69.82168       	69.45852       	69.75913       	69.74382       	69.62148       	69.49256       	69.61993       	69.58549       	69.82395       	69.71296       	69.50049       	69.60368       	69.6399        	69.584915      	69.74445       	69.3942        	69.92          	69.40075       	69.97892       	69.628044      	69.46996       	69.6682        	68.81533       	67.533134      	70.32959       	71.886406      	69.36245       	69.76795       	69.54381       	69.69875       	69.60013       	69.82091       	69.45635       	69.422424      	69.70118       	69.721565      	69.52214       	69.06974       	70.24599       	69.59962       	69.54349       	69.43039       	69.848         	69.69708       	69.85113       	69.55041       	69.53685       	69.51857       	69.62922       	69.91115       	69.511696      	69.43059       	69.79227       	69.902054      	69.73508       	69.83245       	68.69532       	67.475464      	70.987465      	70.45946       	69.724106      	69.60153       	69.82517       	68.76701       	69.4516        	69.70575       	69.33393       	69.59945       	68.98513       	70.26996       	69.316154      	69.63938       	69.69511       	69.290306      	69.646225      	69.09451       	70.14129       	
69.27269       	69.74739       	70.097435      	69.7524        	69.60322       	70.12205       	69.41701       	69.56302       	69.80578       	69.72983       	69.520676      	69.636795      	69.81779       	69.34736       	69.56331       	69.50171       	69.73741       	69.64555       	69.580475      	69.80584       	69.70247       	69.40576       	69.531425      	69.40179       	70.06652       	69.59112       	69.309425      	70.00258       	69.644806      	69.38585       	69.66478       	69.62824       	69.81638       	69.47241       	69.53805       	69.75012       	69.67308       	69.68092       	68.83268       	70.20423       	69.48061       	69.81217       	70.01754       	69.464165      	69.69618       	69.63559       	69.34663       	69.30306       	69.98814       	69.72894       	69.518425      	69.88512       	69.11886       	70.06995       	69.35096       	69.31521       	69.758644      	69.7045        	69.57159       	69.61958       	69.431274      	69.747246      	69.693565      	69.47971       	69.699234      	69.385445      	69.68177       	69.41536       	67.859665      	69.19109       	71.20147       	69.899704      	69.65993       	69.71282       	69.747345      	69.72476       	69.4306        	69.98763       	69.496086      	69.638664      	68.999535      	70.073265      	69.48132       	69.46916       	69.54854       	69.714066      	69.91898       	69.48315       	69.545876      	69.75184       	69.616806      	69.56311       	69.87993       	69.467995      	69.909004      	69.402084      	69.19794       	69.770805      	69.739525      	69.45852       	
69.32632       	69.08207       	69.8215        	69.813995      	69.97845       	69.52431       	69.60952       	69.590195      	69.90651       	69.256836      	69.77264       	69.78668       	69.8823        	69.460556      	69.30565       	69.45464       	69.80197       	69.48932       	69.45546       	69.72368       	69.68073       	69.86312       	69.55548       	69.452965      	69.63656       	69.5756        	69.79223       	69.555916      	67.58396       	70.44496       	69.562         	69.69671       	69.69807       	69.39612       	69.3938        	70.009384      	69.48766       	69.536644      	69.64454       	69.5521        	69.43688       	69.70614       	69.61992       	69.680046      	69.731544      	69.71875       	69.61459       	69.37924       	69.86878       	69.03871       	69.71405       	69.750595      	69.417946      	69.789604      	69.50463       	69.708496      	69.58688       	69.39893       	69.655945      	69.77447       	69.58297       	69.591034      	70.017815      	69.14374       	70.09623       	69.49029       	69.7137        	69.4999        	68.135056      	68.12559       	70.71626       	70.98756       	69.829605      	69.316414      	69.64618       	70.012634      	69.68045       	69.64082       	69.81157       	69.38548       	69.543106      	69.86712       	69.353065      	69.72329       	68.75058       	69.930336      	69.820885      	69.560326      	69.80535       	69.79852       	69.345085      	69.12979       	69.95342       	69.448265      	69.78834       	69.56544       	69.48987       	69.543755      	69.86312       	69.37358       	
69.27573       	70.08018       	70.49087       	69.67711       	69.555016      	69.764946      	69.85439       	69.52269       	69.50494       	69.84019       	69.49698       	69.665474      	69.65355       	69.607635      	69.52546       	69.18893       	69.8265        	69.875435      	69.57326       	69.80012       	69.466286      	69.85021       	69.621735      	69.634605      	69.52649       	69.74234       	69.55377       	69.79192       	68.72774       	69.564445      	68.9119        	70.68073       	69.5171        	69.48522       	69.76805       	69.599266      	69.450745      	69.81218       	69.477715      	69.59424       	69.64117       	69.87483       	69.51261       	69.570946      	70.074615      	69.535286      	68.09359       	70.704315      	69.81885       	69.25351       	69.726326      	69.61885       	69.54445       	69.764114      	69.31285       	69.667786      	69.43985       	69.55619       	69.92966       	69.431595      	69.39022       	69.74636       	69.77164       	69.63228       	69.42387       	69.69182       	69.82503       	69.46025       	69.424644      	69.591896      	69.46607       	69.81109       	69.80543       	67.74514       	71.395515      	69.82073       	69.58774       	69.53532       	69.70342       	69.278725      	70.13141       	69.28771       	69.27693       	69.89608       	69.83039       	69.64439       	69.70049       	69.7118        	69.38643       	69.70405       	69.56418       	67.49058       	70.57168       	70.4691        	69.03326       	70.06281       	69.513245      	69.62988       	69.462494      	69.66108       	
69.39286       	69.62683       	69.79203       	69.771866      	69.81762       	69.65712       	69.34046       	69.55758       	69.95133       	69.48282       	68.50259       	70.290504      	69.88776       	69.49473       	69.396126      	69.18119       	69.99674       	69.403404      	69.856384      	69.57449       	69.76468       	69.717865      	69.41286       	69.704384      	69.95688       	69.6796        	69.70915       	69.523605      	69.591095      	68.29247       	68.29261       	70.93719       	70.41493       	69.783165      	69.552185      	69.44054       	69.64475       	69.67157       	69.66188       	69.672165      	69.56228       	69.423294      	69.84771       	69.43892       	69.89847       	69.52096       	69.48308       	69.63433       	69.58215       	69.82172       	69.57316       	69.70777       	69.716095      	69.47544       	69.46981       	69.45096       	69.98822       	69.44532       	69.71966       	69.53762       	68.58166       	69.29254       	70.90863       	69.401085      	69.44038       	68.83132       	70.37835       	69.44665       	69.51954       	69.5202        	69.68489       	69.5327        	69.76522       	68.320854      	70.055984      	69.75688       	69.743576      	69.68729       	69.78046       	69.57202       	69.547615      	69.616425      	69.39037       	69.92163       	69.78206       	69.57552       	69.67354       	69.44548       	69.773796      	69.64794       	69.568756      	69.36543       	69.3325        	69.85651       	69.57795       	69.85694       	68.14413       	70.99458       	69.62234       	69.53648       	
69.29294       	69.41789       	69.92043       	69.80025       	69.880325      	70.005844      	68.7891        	70.29615       	69.59327       	68.842         	67.08425       	70.04269       	71.42403       	69.5292        	69.29502       	69.79243       	69.35994       	69.772804      	69.72648       	69.8077        	69.52902       	69.477905      	69.52645       	69.65008       	69.617         	69.83473       	69.789406      	69.49943       	69.74957       	69.48303       	67.96446       	70.83728       	70.163994      	69.73807       	69.272675      	69.80703       	69.60532       	69.60496       	69.80876       	68.603386      	67.92667       	71.27079       	69.10209       	69.62566       	69.536156      	69.73052       	69.46869       	69.492935      	69.95019       	69.753525      	69.245         	69.44493       	69.75952       	69.69832       	69.828735      	69.20668       	69.70966       	69.56332       	69.38448       	69.70347       	69.77677       	69.25135       	69.7835        	69.34226       	69.815125      	68.36344       	70.51347       	70.059975      	69.46374       	69.78047       	69.48226       	69.25898       	69.93471       	69.812675      	69.83327       	69.4296        	69.02145       	70.048996      	69.655426      	69.71213       	68.943214      	70.129265      	69.66653       	69.7798        	69.51994       	69.62275       	69.44241       	69.500824      	69.622345      	70.06039       	69.37566       	69.654465      	69.5348        	69.7691        	69.23536       	69.546646      	69.53299       	69.7628        	69.68402       	69.51229       	
69.33959       	69.61756       	69.95823       	70.08276       	69.377         	69.799515      	70.01409       	69.606544      	69.64344       	69.522865      	67.14141       	69.08353       	71.408966      	70.37904       	69.70076       	69.46504       	69.37658       	69.49327       	69.67604       	69.75868       	69.50986       	69.57822       	69.79979       	68.724266      	70.129166      	69.93707       	69.626076      	69.43394       	69.69424       	69.714         	69.34432       	69.79293       	69.93169       	69.48027       	69.54269       	69.55886       	69.68218       	69.65789       	69.3917        	69.76829       	69.524         	69.51901       	70.07862       	69.384995      	69.71434       	69.599724      	69.51298       	69.32914       	70.24138       	69.486176      	69.56676       	69.50806       	69.22569       	69.74209       	69.746185      	69.75235       	68.79592       	70.212654      	69.30826       	69.727036      	69.32753       	69.72522       	70.06872       	69.186874      	69.602165      	69.913994      	69.6382        	69.55688       	69.60043       	69.51962       	69.82611       	69.37111       	69.28882       	69.83635       	69.849         	69.53121       	69.37894       	69.60481       	69.48786       	69.75427       	69.45439       	69.82146       	69.54953       	69.66436       	69.75359       	69.93808       	69.33534       	69.4284        	69.507835      	69.74734       	69.61929       	69.697365      	69.31181       	69.79436       	69.68806       	69.41225       	69.56444       	69.9712        	69.674095      	69.69302       	
69.35034       	69.45527       	69.924965      	69.96467       	69.90625       	69.95946       	69.67291       	69.53071       	69.69314       	69.78615       	69.03661       	68.90356       	70.58252       	69.52976       	69.899414      	69.50332       	69.29098       	69.779495      	69.46343       	69.88258       	69.706856      	69.362144      	69.77207       	69.72008       	69.72261       	69.75158       	69.45476       	69.55591       	69.81263       	69.35542       	69.558205      	69.65381       	68.03601       	70.620056      	69.2824        	69.67996       	69.623085      	69.63125       	68.530014      	70.35117       	69.719246      	69.50574       	69.76638       	69.269066      	70.01765       	69.45012       	69.67149       	69.59183       	69.58161       	69.13367       	70.00027       	69.681915      	69.28997       	69.751366      	69.3245        	69.814835      	69.7057        	69.62334       	69.306145      	69.798         	69.604706      	69.44963       	69.68249       	69.626656      	69.922035      	69.44888       	68.57998       	70.618385      	69.47602       	69.79268       	69.66585       	68.623055      	70.44334       	69.765236      	69.475075      	69.75171       	69.5917        	69.75459       	69.73536       	69.8383        	69.32556       	69.74915       	69.58028       	69.49027       	69.726395      	69.725494      	69.38011       	69.63658       	69.56525       	69.40406       	69.630806      	69.917885      	69.583084      	67.647766      	70.44906       	69.65912       	69.665886      	69.6904        	69.54335       	69.675674      	
69.17596       	69.42744       	69.885506      	69.886475      	69.66438       	69.493645      	70.00309       	69.583824      	69.77244       	69.489334      	69.79448       	69.384094      	69.63205       	69.627144      	69.89534       	69.79668       	69.638916      	69.35231       	69.65086       	69.57559       	69.8727        	69.387566      	69.350746      	69.03572       	70.0779        	69.30869       	69.75949       	69.59938       	69.72848       	69.53827       	69.786026      	69.48079       	69.532845      	69.87904       	68.75132       	69.98343       	69.913826      	69.60958       	69.24283       	69.89646       	69.54495       	69.79939       	69.506836      	69.74307       	69.607574      	69.65918       	69.50611       	69.61992       	69.551865      	69.58069       	69.82725       	69.52904       	69.67262       	69.61756       	69.59351       	69.647514      	69.733955      	69.7345        	69.570114      	69.15031       	69.938545      	69.58451       	69.704         	69.50878       	69.64685       	69.79372       	68.24721       	70.42493       	69.96067       	69.7326        	69.774734      	69.519104      	69.49938       	69.57913       	69.5633        	69.31237       	69.7139        	69.52661       	69.64413       	69.944046      	69.21819       	69.53338       	69.319534      	69.59552       	69.7998        	69.68967       	69.77644       	69.65081       	69.24045       	69.08169       	69.8181        	69.643425      	69.38537       	67.69224       	69.82919       	72.00779       	69.59684       	69.60046       	69.71901       	69.68187       	
69.365685      	69.69258       	70.21472       	70.06982       	69.627754      	69.4956        	69.90843       	68.799034      	70.13907       	69.685486      	69.686005      	69.50784       	69.548386      	69.80324       	69.745575      	69.837585      	69.55671       	69.43905       	69.86406       	69.5296        	69.760124      	69.57231       	69.10367       	69.60888       	69.679565      	69.60572       	69.781296      	69.63689       	69.74085       	69.44712       	69.626724      	69.717636      	69.79585       	69.70858       	69.826836      	68.76904       	70.241844      	69.404         	69.59938       	69.50679       	69.568344      	70.14734       	69.34431       	69.09375       	69.97381       	69.66137       	69.61324       	69.677605      	69.51084       	69.542885      	69.72419       	69.68123       	69.689995      	69.46004       	69.602585      	69.628006      	69.77395       	69.45061       	69.85454       	69.636635      	69.36272       	69.61142       	69.548615      	69.78232       	69.02495       	70.01698       	69.94945       	69.588455      	69.26001       	70.05857       	69.77117       	69.553444      	69.48242       	69.542725      	69.847244      	69.593376      	69.76455       	69.41881       	69.5689        	69.875984      	69.59162       	69.63092       	69.397736      	69.83857       	69.879715      	69.57327       	69.680145      	69.48915       	69.64246       	69.28454       	69.795876      	69.614136      	69.568726      	69.58357       	69.393814      	70.42212       	69.57942       	69.462135      	69.47079       	69.45182       	
69.33033       	69.33228       	69.88343       	70.24492       	69.70942       	69.304504      	69.88303       	69.54629       	69.64265       	69.3521        	70.0177        	69.545715      	69.68895       	69.58554       	69.52024       	69.77454       	69.53891       	69.656296      	69.79274       	69.26294       	69.9674        	69.67431       	69.26845       	69.725914      	69.81785       	69.51622       	69.59061       	69.68456       	69.651726      	69.16605       	69.794655      	69.59935       	69.71937       	69.57025       	69.87239       	69.000084      	70.08979       	69.68901       	69.77087       	69.47368       	69.340775      	68.12352       	70.92783       	69.95458       	69.63045       	69.742966      	69.623566      	69.25129       	69.92715       	69.57275       	69.62893       	69.660095      	69.523186      	69.42882       	69.72951       	69.68967       	69.68654       	69.36447       	69.524216      	69.51908       	69.75727       	69.68022       	68.97765       	70.26488       	69.32          	69.4721        	69.55284       	70.16196       	69.780815      	69.58917       	69.37199       	69.81687       	69.4413        	69.84343       	69.77244       	69.53403       	69.320816      	69.90663       	69.287155      	69.75183       	69.57095       	69.72257       	69.5964        	69.60268       	69.82022       	69.512535      	69.66067       	69.81164       	69.46976       	69.64468       	69.664536      	69.37925       	69.75702       	69.87031       	69.67959       	69.463745      	69.51801       	69.39029       	70.06409       	69.63309       	
69.53277       	69.95093       	69.59139       	69.77961       	69.82315       	69.59593       	69.60899       	69.825645      	69.32813       	69.73115       	69.34364       	70.08004       	69.552345      	69.59838       	69.34671       	69.23052       	69.986885      	69.76415       	69.515465      	69.76219       	69.60235       	69.690956      	69.46725       	69.2475        	68.42884       	70.15822       	70.03306       	69.45637       	67.59571       	70.886635      	69.94751       	69.56619       	69.95807       	69.76397       	69.676994      	69.56176       	69.61765       	69.407936      	69.70459       	69.65762       	69.43193       	67.6044        	70.482124      	70.85702       	69.43524       	69.72979       	69.78709       	69.03258       	69.51342       	69.714294      	69.81317       	69.442375      	69.71348       	69.711624      	69.61204       	69.061325      	69.32262       	69.880714      	69.566696      	69.977356      	69.24518       	69.74282       	69.4727        	69.50545       	69.38911       	69.721375      	69.44151       	69.75815       	69.360985      	68.45835       	70.96344       	69.487625      	69.144806      	67.8446        	70.28687       	69.79408       	69.52122       	69.35541       	69.760376      	69.49235       	69.52474       	69.61066       	69.50545       	68.7012        	69.181526      	70.961624      	69.56977       	69.58787       	69.36805       	69.38631       	69.712776      	69.57481       	69.94428       	69.63502       	69.578995      	69.62941       	69.38917       	70.01243       	69.616394      	69.467964      	
69.698784      	69.51763       	69.827034      	69.880745      	69.48841       	70.0763        	69.680855      	69.57312       	69.354774      	69.79149       	69.66082       	69.777435      	69.46133       	69.79131       	69.364784      	69.39673       	69.856674      	69.74891       	69.34195       	69.97683       	69.9165        	69.46496       	69.4309        	68.114006      	67.58998       	69.58221       	72.08889       	69.8344        	68.22471       	70.05953       	70.33435       	69.72245       	69.44246       	69.9614        	69.620705      	69.26071       	69.6573        	69.660934      	69.579765      	69.740395      	69.7606        	69.38335       	69.76746       	69.422264      	69.66164       	69.66486       	69.81496       	69.559395      	69.672585      	69.58443       	69.51438       	69.32924       	70.036354      	69.74459       	68.33586       	69.38311       	70.5997        	69.38299       	69.87031       	69.72201       	69.68097       	69.18417       	69.689896      	69.63813       	69.80834       	69.4152        	69.62603       	69.76001       	69.80346       	69.59312       	69.920876      	69.52211       	69.69191       	69.10805       	70.034874      	69.55268       	69.602684      	69.46295       	69.96366       	69.58797       	69.43273       	69.7414        	69.54858       	67.52941       	68.59109       	70.13687       	72.15169       	69.62161       	69.52479       	69.64697       	69.738625      	69.301056      	70.01142       	69.58778       	69.45555       	68.32231       	68.089615      	70.701195      	71.00102       	69.55716       	
69.36695       	69.38076       	70.18818       	70.15585       	70.05925       	69.64475       	69.588356      	69.036606      	69.85706       	69.644844      	69.79547       	69.51448       	69.78405       	69.89338       	69.16371       	69.574936      	69.8066        	69.7656        	69.37818       	69.58175       	69.96795       	69.8604        	69.45696       	69.41373       	68.127594      	69.202225      	71.4171        	69.89248       	69.742035      	69.49595       	69.72487       	69.82942       	69.508415      	69.45769       	69.03936       	70.261665      	69.53833       	69.81375       	69.30797       	69.87248       	69.63011       	69.27297       	69.56409       	69.552055      	69.913506      	69.46336       	69.60196       	70.12476       	69.307495      	69.6225        	69.51128       	69.633125      	69.777405      	69.698555      	69.66236       	69.64462       	69.68992       	69.26338       	69.805435      	69.64953       	69.749016      	69.73383       	69.47927       	69.483086      	69.73764       	68.61422       	70.57241       	69.54175       	69.62234       	69.672005      	69.81225       	69.41395       	69.97948       	69.40411       	69.56111       	69.770744      	69.207794      	69.65245       	69.95668       	69.424416      	69.59894       	69.64082       	69.6395        	68.26585       	68.266426      	70.042564      	71.56248       	69.924034      	69.65737       	69.80086       	69.407455      	69.58441       	69.733635      	69.58525       	69.83115       	69.205185      	67.859726      	69.963875      	71.145935      	69.584946      	
69.30533       	69.70231       	69.95536       	70.05559       	69.56489       	69.54566       	69.71711       	69.89457       	69.44069       	69.64795       	69.60314       	69.710815      	69.74056       	69.44188       	69.52467       	69.90577       	69.762054      	69.3303        	68.16337       	70.67417       	69.70425       	69.61403       	69.72455       	69.03997       	69.87587       	69.73915       	69.381424      	69.61211       	69.61622       	69.7086        	68.72546       	68.97952       	70.90503       	69.5437        	69.29249       	69.94015       	69.39645       	69.614655      	69.23297       	69.841644      	69.913475      	69.26048       	69.60894       	69.83532       	69.329704      	69.586426      	69.87287       	69.71169       	69.54151       	69.84341       	69.2754        	69.46966       	69.82528       	69.7892        	69.62826       	69.585655      	69.65824       	69.38339       	69.768456      	69.67229       	68.27577       	71.11382       	69.32518       	69.62175       	69.50096       	69.34462       	69.99927       	69.77705       	69.5092        	69.719406      	69.6359        	69.4584        	69.808716      	69.60912       	69.81774       	69.59104       	69.473206      	69.3805        	69.767555      	69.62799       	69.694466      	69.465675      	69.864136      	69.736176      	69.42464       	69.25586       	69.67999       	69.696144      	69.737816      	69.718285      	69.61044       	69.86858       	69.47414       	69.44717       	69.86822       	69.45177       	69.654076      	69.48152       	69.49983       	69.97568       	
69.466446      	69.63392       	69.487495      	70.00777       	69.66028       	69.51831       	69.76149       	69.2803        	69.89576       	69.40683       	69.57841       	69.84635       	69.78426       	69.509         	69.43564       	69.65682       	69.60376       	68.93601       	67.98236       	71.87269       	68.98464       	70.14357       	69.566925      	69.55565       	69.60157       	69.76914       	69.608765      	69.02684       	69.88394       	69.43425       	69.94927       	69.83399       	69.48511       	69.908714      	69.10075       	69.85671       	69.96325       	69.57165       	69.544235      	68.74568       	70.62321       	69.60277       	69.54162       	69.58812       	69.637665      	69.58317       	69.48675       	69.69394       	69.631454      	69.80945       	69.27263       	68.702         	70.374214      	69.482124      	69.81869       	69.60932       	68.558136      	70.57497       	69.61985       	69.53877       	69.01189       	70.065506      	69.64777       	69.75908       	69.60517       	69.319534      	69.34604       	69.887184      	69.81225       	69.5581        	69.84934       	69.230255      	69.72027       	70.08249       	69.543846      	68.358635      	70.55223       	68.31248       	69.623604      	70.10192       	69.874306      	69.85713       	69.30119       	69.886055      	69.66728       	69.4184        	69.62941       	69.80605       	69.57271       	69.64807       	69.48322       	69.93625       	69.55294       	68.5579        	70.48738       	69.502815      	69.64739       	69.73076       	69.578026      	69.40813       	
69.31016       	69.58229       	69.79776       	70.112915      	69.97738       	69.67767       	69.574104      	69.69335       	69.64165       	69.57942       	69.40499       	69.91373       	69.761055      	69.88671       	69.4477        	68.55926       	70.734215      	69.48425       	69.2941        	69.50125       	69.535126      	69.56025       	69.8567        	69.506546      	69.5942        	69.69817       	69.730675      	69.65315       	69.36219       	69.73039       	69.594536      	69.88627       	69.464325      	69.471405      	69.777756      	69.559074      	69.81757       	69.56824       	69.50119       	69.445694      	69.797745      	69.534096      	69.72995       	69.61065       	69.508064      	69.61118       	69.92206       	69.664314      	69.06488       	70.121666      	67.318596      	68.41984       	70.469505      	71.48954       	70.21841       	69.73574       	69.53709       	69.663864      	69.263405      	70.02128       	69.52719       	68.68482       	70.3054        	69.81936       	69.79782       	69.52546       	69.68507       	69.46821       	69.820694      	69.63192       	69.49761       	69.86115       	69.64962       	69.84803       	69.50332       	69.795685      	69.79315       	69.46109       	69.69838       	69.4042        	69.5609        	69.67974       	69.75103       	69.224945      	69.18375       	69.999214      	69.5799        	69.69755       	69.37505       	69.94874       	69.75152       	69.91668       	69.826965      	69.52822       	69.71446       	69.48259       	69.565735      	69.44004       	69.71251       	69.51363       	
69.26996       	69.454         	70.65468       	70.50471       	69.50161       	69.55212       	69.725136      	69.54831       	69.570816      	69.53646       	69.81789       	69.55526       	69.8527        	69.59729       	69.60762       	69.55984       	70.08394       	69.366745      	67.621994      	70.491974      	70.30356       	69.7131        	69.55648       	69.41621       	69.861855      	69.737076      	69.449356      	69.57325       	69.74959       	69.39354       	69.75321       	69.00011       	69.98659       	69.541306      	69.564156      	69.84608       	69.671486      	69.650215      	69.43414       	69.82406       	69.49197       	69.57126       	69.67999       	69.544624      	69.24928       	69.963425      	69.53896       	69.61074       	69.740234      	69.47455       	67.02558       	67.81452       	69.57919       	71.74959       	71.04226       	69.104965      	70.203285      	69.77909       	69.72212       	69.537605      	69.19161       	69.39126       	69.86476       	69.63055       	69.83721       	69.43402       	67.923195      	70.96597       	69.85041       	69.90937       	69.5661        	69.496796      	69.762054      	69.71978       	69.496284      	69.43649       	70.05289       	69.61826       	69.60073       	69.53569       	69.49402       	69.778915      	69.731575      	69.414215      	68.98721       	70.202934      	69.733925      	69.671425      	69.4224        	68.32131       	71.03005       	69.50971       	69.50762       	69.909836      	69.521576      	69.51938       	69.52693       	69.504105      	69.7391        	69.539955      	
69.51072       	69.26023       	70.98272       	71.338875      	69.51675       	69.7726        	69.344604      	69.53819       	69.48799       	69.408134      	68.02956       	70.33952       	70.13803       	69.96285       	69.713066      	69.47412       	69.45846       	69.53882       	68.31138       	69.964226      	70.91274       	69.44333       	69.4364        	69.79708       	69.32778       	69.667725      	69.39039       	70.08495       	69.61185       	69.24321       	69.68595       	69.54459       	69.7234        	69.32235       	69.92433       	69.64018       	69.758835      	69.415886      	69.27589       	69.58404       	69.78811       	69.650406      	69.597824      	69.73541       	69.528656      	69.73363       	69.363716      	69.50537       	69.66539       	69.622894      	68.239876      	68.066475      	69.55525       	71.39796       	70.76558       	69.8813        	69.326385      	69.47569       	69.99495       	69.54389       	69.66797       	69.48971       	69.55969       	69.83912       	69.41192       	69.68714       	69.29973       	69.7706        	69.85621       	69.820915      	69.33456       	69.53485       	69.669655      	68.96091       	69.22683       	69.78102       	70.50319       	69.48019       	69.60156       	69.493996      	69.58287       	69.81364       	69.69484       	69.68675       	69.3416        	69.7374        	69.03189       	70.513985      	69.45085       	68.361         	70.41446       	69.78335       	69.766495      	69.589         	69.63617       	69.454         	69.91499       	69.337135      	69.669334      	68.53237       	
69.604965      	69.253586      	70.0528        	70.10558       	69.41003       	69.44956       	69.69107       	69.50169       	69.26285       	68.98326       	67.22302       	69.396614      	72.17256       	69.812645      	69.50279       	69.6904        	69.37539       	69.57088       	69.7785        	69.78049       	69.52907       	69.59622       	69.46882       	69.32161       	69.457245      	70.163185      	69.68221       	69.49741       	69.3819        	69.52136       	69.89552       	69.26045       	69.97          	68.54903       	70.79572       	69.64978       	69.355835      	69.52637       	69.5385        	69.79886       	69.75428       	69.46703       	69.42281       	69.67644       	69.64768       	69.635925      	69.78389       	69.447815      	69.85109       	69.46556       	69.50236       	69.49655       	69.12032       	70.49654       	69.530396      	69.67371       	69.54677       	69.59147       	69.401245      	69.84149       	69.273056      	68.25935       	70.56552       	69.51081       	69.87846       	69.39249       	69.854164      	69.524475      	69.20432       	68.9812        	69.836334      	69.4958        	69.415596      	69.74144       	69.85929       	69.006256      	69.72049       	69.748505      	69.49127       	69.687996      	69.62451       	70.00883       	69.75043       	69.363914      	69.51622       	69.23849       	70.19877       	69.59269       	69.3644        	69.70193       	69.81367       	69.697075      	69.866776      	69.39643       	69.599846      	69.64117       	69.592445      	69.43436       	69.85204       	69.41186       	
69.490204      	69.78882       	70.08861       	69.85722       	69.77785       	69.52445       	69.30932       	69.59191       	69.56309       	69.86061       	68.14294       	68.492966      	71.41698       	70.082924      	69.80164       	69.68261       	69.64413       	69.43237       	69.57629       	69.92284       	69.623634      	69.27882       	69.59055       	69.56051       	70.03908       	69.47232       	69.44713       	69.61578       	68.68546       	70.00779       	70.08799       	69.68893       	69.51323       	69.5854        	69.652885      	69.63388       	69.42558       	69.06865       	69.657326      	69.974945      	69.66118       	69.31126       	69.753265      	69.23795       	69.72171       	69.53475       	69.522125      	69.54903       	69.64314       	69.7761        	69.704765      	69.66749       	69.571335      	69.508484      	69.91198       	69.56441       	69.53306       	69.57755       	69.92137       	69.4427        	69.472145      	69.91347       	69.56257       	69.75545       	69.74934       	69.5727        	69.709854      	69.70068       	69.938774      	69.40092       	69.51671       	69.80505       	69.42225       	69.54341       	69.57992       	69.60604       	69.52919       	69.5536        	69.51898       	69.82736       	70.04562       	69.76023       	69.807785      	69.472916      	69.66435       	68.616356      	70.26593       	69.629974      	69.67815       	69.76042       	69.75905       	69.68519       	69.60257       	69.54879       	69.95332       	69.29195       	69.82921       	69.54497       	69.75142       	69.01039       	
69.50838       	69.70831       	69.77146       	70.0439        	69.54258       	69.59436       	69.47233       	69.65066       	69.41128       	69.381454      	69.89448       	69.61632       	69.679054      	69.81602       	69.71875       	69.52929       	69.39387       	69.63184       	69.62124       	69.715965      	67.69922       	71.34601       	69.670815      	69.579124      	69.73184       	69.76594       	69.09105       	69.64493       	69.78683       	69.651535      	69.57804       	69.65142       	69.45085       	69.79048       	69.678085      	69.68019       	69.743095      	69.36651       	69.83518       	69.60197       	69.47853       	68.655365      	70.6387        	69.33213       	69.66708       	68.38406       	70.54536       	69.763565      	69.44451       	69.8461        	69.89816       	69.38824       	69.16111       	69.78912       	69.7986        	69.58745       	69.7977        	68.93596       	69.98257       	68.88682       	70.14798       	69.623566      	69.571945      	69.78828       	70.0685        	69.62047       	69.32413       	69.761986      	69.2312        	69.75859       	69.37329       	69.752716      	69.65787       	69.34336       	69.76726       	69.54812       	69.41376       	69.75321       	69.69721       	69.69221       	69.89942       	69.81924       	69.45997       	69.65445       	69.685104      	69.40211       	69.79644       	69.407074      	69.42967       	69.756065      	70.07905       	69.76174       	69.445694      	69.47978       	70.04244       	69.38559       	69.96905       	69.34771       	69.705574      	69.581795      	
69.37271       	69.93812       	69.51689       	69.417595      	69.75729       	69.53603       	69.771805      	69.44227       	69.51163       	69.42109       	69.66893       	69.82519       	69.760605      	69.858955      	69.62844       	69.14065       	69.97953       	69.54021       	69.2945        	69.46385       	68.53172       	69.953636      	69.84472       	69.7534        	69.340416      	69.73754       	69.30789       	69.631424      	69.8863        	69.30297       	69.67711       	68.639114      	70.20748       	69.629036      	69.79666       	69.504654      	69.61066       	69.76252       	69.46273       	69.752884      	69.277885      	69.721344      	69.8756        	69.44189       	69.75542       	68.84429       	70.05208       	69.5501        	69.76993       	69.88435       	69.214966      	69.70201       	69.196045      	70.06403       	69.43929       	69.510445      	69.67415       	69.46203       	69.64259       	69.505554      	69.198654      	69.851074      	68.898285      	70.1135        	69.539696      	69.706154      	69.76529       	69.51728       	69.59757       	69.68616       	69.693245      	69.45417       	69.61465       	68.94717       	69.98171       	69.35841       	69.63189       	69.9004        	69.41647       	69.89174       	67.27782       	69.10023       	71.12164       	70.505585      	69.76796       	69.72474       	69.50668       	69.50021       	69.523476      	69.95085       	69.634705      	69.71401       	69.9111        	69.076065      	69.69492       	69.96116       	69.492546      	70.07129       	69.358086      	69.603035      	
69.491776      	69.76682       	69.954636      	69.92808       	69.768036      	69.6535        	69.58876       	69.41793       	69.79734       	69.480896      	69.82417       	69.55226       	69.63403       	69.84839       	69.74527       	69.77447       	69.19698       	69.64109       	69.59137       	69.70699       	69.692894      	69.62187       	69.80097       	69.4865        	69.73506       	69.78615       	69.3622        	69.73626       	69.28476       	69.50163       	69.74309       	69.78045       	69.71898       	69.74238       	69.71551       	69.38734       	69.712616      	69.630394      	69.41558       	69.67754       	69.67118       	69.678246      	69.65007       	69.49188       	69.699196      	69.54077       	69.914246      	69.65333       	69.83032       	69.779106      	69.899025      	69.81167       	69.44622       	69.61841       	69.55732       	69.41419       	69.36265       	70.12969       	69.38379       	69.63202       	69.49799       	69.48771       	69.42514       	69.75284       	69.75235       	69.701706      	69.6671        	69.56531       	69.963875      	69.155914      	69.65324       	69.69134       	69.52894       	69.80442       	69.407845      	69.46594       	69.43712       	69.6204        	69.89759       	69.31097       	67.00249       	68.70761       	71.06446       	72.1142        	69.67781       	69.029076      	69.805         	69.538956      	68.47979       	71.00167       	69.212845      	69.60278       	69.744484      	69.50668       	69.6023        	69.63135       	69.49163       	69.92499       	69.3635        	69.524956      	
69.518776      	68.98351       	68.70873       	69.87066       	70.40949       	69.57642       	69.67865       	69.39915       	67.55938       	69.01039       	71.59192       	70.13818       	69.7749        	69.608795      	69.65643       	69.66612       	69.70391       	69.28379       	69.72782       	68.558395      	68.93132       	71.36594       	69.39564       	69.81688       	69.900734      	69.626656      	69.48773       	69.08888       	69.71455       	69.435844      	69.83761       	69.59636       	69.91721       	69.54098       	69.50708       	69.75612       	69.88319       	69.35014       	69.33308       	69.66147       	69.733505      	69.68248       	69.280556      	69.74184       	69.91358       	69.313965      	69.75975       	69.82411       	69.693756      	69.86042       	69.75515       	69.69207       	69.71296       	69.56479       	69.51196       	69.321686      	69.836006      	69.65004       	69.551476      	69.58035       	69.87604       	69.21306       	69.736435      	69.49267       	69.61914       	69.86056       	69.78162       	69.61437       	68.254745      	70.52929       	69.53391       	69.90377       	69.4885        	69.65278       	69.65588       	69.37279       	69.488785      	69.83235       	69.70706       	69.55502       	68.29555       	68.24748       	70.48413       	71.415054      	69.3372        	68.252335      	70.83076       	69.6431        	69.45923       	69.83695       	69.4897        	69.64723       	69.735435      	69.602745      	69.72576       	69.52496       	69.44879       	69.80575       	68.05626       	68.96042       	
69.54546       	68.63923       	66.866714      	68.505775      	72.385445      	70.2073        	69.688446      	69.315254      	68.343994      	68.80366       	70.93137       	70.21602       	69.54825       	69.63261       	69.683266      	69.48284       	69.6295        	69.74583       	69.649284      	69.258         	69.97527       	69.687096      	69.61749       	69.61889       	69.94701       	69.42195       	69.3648        	69.56663       	69.78558       	69.70141       	69.48599       	69.25701       	69.84773       	69.71256       	69.15696       	68.644936      	70.62817       	69.84901       	69.67766       	69.5638        	69.60505       	68.55974       	70.65816       	69.79901       	69.4786        	69.6195        	69.740166      	69.71969       	69.48705       	69.81234       	69.73503       	69.67825       	69.811966      	69.443886      	69.43629       	69.2237        	69.0208        	69.98025       	69.52141       	69.77664       	69.53318       	69.61272       	69.60296       	69.760704      	69.70867       	69.41549       	69.463615      	70.02837       	69.553474      	69.55698       	69.66165       	69.6512        	69.64889       	69.60927       	69.659805      	69.50708       	69.60867       	69.84928       	69.547134      	69.69995       	69.633965      	69.47572       	69.98812       	69.567924      	69.72154       	69.63715       	69.92415       	69.369484      	69.34538       	69.80946       	69.69334       	69.52772       	69.53094       	69.864426      	68.9984        	69.90552       	69.2889        	69.857315      	66.46568       	68.63861       	
69.36913       	69.27001       	68.52157       	68.00588       	71.81641       	70.0841        	69.583206      	69.5687        	69.63826       	69.35812       	70.04056       	69.68737       	69.50288       	69.60772       	69.95273       	69.38934       	69.70724       	69.50365       	69.72797       	69.69573       	69.49378       	69.83671       	69.37192       	69.63407       	69.934204      	69.38142       	69.51967       	69.619095      	69.76165       	69.629364      	69.38008       	69.72633       	69.66013       	69.25974       	67.4496        	69.196266      	70.64441       	71.82149       	69.530815      	69.44284       	69.73497       	69.55631       	69.73625       	69.74089       	69.41661       	69.687096      	69.57586       	69.78537       	69.559074      	69.105865      	70.10808       	69.76842       	69.60221       	69.74891       	69.49823       	69.565796      	68.76266       	70.421         	69.43756       	69.51123       	69.8843        	69.69714       	69.8068        	69.38606       	69.8006        	69.46025       	69.52933       	69.89868       	69.77658       	69.52291       	69.375175      	69.67584       	69.85935       	69.76763       	69.56905       	69.324196      	69.62013       	69.74857       	69.560135      	70.092224      	69.28021       	69.76447       	69.69005       	69.610054      	69.90028       	68.64922       	70.309525      	69.56257       	69.398834      	69.67308       	69.54393       	69.54483       	69.83725       	69.54522       	69.70163       	69.732376      	69.65981       	69.59244       	66.64385       	68.49433       	
69.25166       	69.45804       	69.356705      	69.91612       	69.86225       	69.49108       	69.473         	69.89212       	69.40149       	69.85281       	69.505196      	69.70348       	69.72117       	68.74551       	70.42413       	69.72909       	69.54769       	69.61809       	69.71397       	69.889915      	69.475716      	69.3545        	69.57625       	69.67509       	69.63352       	69.808624      	69.570786      	69.87146       	69.48503       	69.648994      	69.52874       	69.42859       	69.68353       	69.706184      	67.69731       	68.89767       	70.49012       	71.66228       	69.78253       	69.268326      	68.92245       	70.40916       	69.661026      	69.47109       	69.72889       	69.60716       	69.208466      	69.914116      	69.73272       	69.513596      	69.537865      	69.83056       	69.4824        	69.543365      	69.8219        	69.82207       	69.51237       	69.36927       	69.77546       	69.44971       	69.81366       	69.45726       	70.041504      	69.51192       	69.67753       	69.470215      	69.90594       	69.56225       	69.3744        	69.47879       	69.60687       	68.288         	69.22934       	70.87897       	69.42449       	69.679504      	69.36458       	69.58201       	69.714226      	69.91848       	69.77978       	69.34251       	69.962166      	69.58951       	69.503235      	69.5831        	69.551926      	69.88732       	69.442635      	69.633224      	69.61387       	69.632935      	69.9291        	69.401535      	69.64052       	69.77152       	69.84124       	69.45473       	68.90417       	67.56785       	
69.337364      	69.892         	70.43272       	69.60248       	69.96661       	68.977104      	69.7829        	69.971         	69.33596       	69.62598       	69.83494       	69.42923       	69.63252       	68.841286      	69.89102       	70.0138        	69.38955       	69.773865      	69.57735       	69.89014       	69.43447       	69.55909       	69.47734       	69.70868       	69.63066       	69.71147       	69.72271       	69.60039       	69.551056      	69.23529       	69.20849       	70.24806       	69.72867       	69.80886       	69.53095       	69.21192       	69.88828       	69.71786       	69.799675      	69.109764      	69.78166       	69.59213       	69.66071       	69.424706      	69.341415      	69.81868       	68.799416      	70.35251       	69.64793       	69.35141       	69.64317       	69.723404      	69.6154        	69.50075       	69.62539       	69.67485       	69.63404       	69.25212       	69.59623       	69.767105      	69.84711       	69.36434       	69.78761       	69.64257       	69.52432       	69.48806       	70.01138       	69.67891       	69.36716       	67.53444       	71.44002       	67.76588       	68.82625       	71.43944       	69.67392       	69.86199       	69.17724       	69.82813       	69.92079       	69.72951       	69.52862       	69.540184      	69.61766       	69.844124      	69.40788       	69.70396       	69.62938       	69.950035      	69.255806      	69.584435      	69.87538       	69.442474      	69.91327       	68.607895      	70.50319       	69.59176       	69.788155      	69.38982       	69.38433       	69.57245       	
69.285034      	69.661766      	70.21363       	69.99018       	69.58072       	69.9029        	69.34598       	69.978546      	69.54101       	69.30881       	69.98907       	69.550156      	69.43721       	69.59699       	69.68665       	69.892944      	69.2981        	70.01494       	69.64427       	69.71188       	69.74658       	69.588554      	67.59062       	70.52992       	70.44198       	68.82188       	70.53635       	69.412415      	69.52055       	69.925835      	69.53222       	69.465         	69.84093       	69.520805      	69.76646       	69.31973       	69.85448       	69.4814        	69.56981       	69.871925      	69.501785      	68.297165      	69.78287       	69.950874      	69.44862       	69.28843       	69.75312       	69.551285      	69.933205      	66.83402       	70.09256       	71.88116       	69.573975      	69.42657       	69.74308       	69.65285       	69.4874        	69.710396      	69.64401       	69.84001       	69.40962       	69.21569       	68.82242       	70.31084       	70.291504      	69.59594       	69.61823       	69.4387        	69.8091        	69.64477       	69.479385      	69.629974      	69.11419       	70.12279       	69.49515       	69.63402       	69.69905       	69.74201       	69.66233       	69.7764        	69.30888       	69.64391       	69.981186      	69.61988       	69.56248       	69.31142       	69.7462        	69.984436      	69.55814       	69.693504      	69.71641       	69.35681       	69.688255      	69.81976       	69.682816      	69.55893       	69.656166      	69.411736      	69.747406      	69.16208       	
69.41515       	69.73923       	70.30381       	69.96196       	69.55552       	69.76021       	69.55672       	69.65116       	69.82461       	69.3718        	69.615814      	69.80128       	69.49514       	69.624084      	69.64851       	69.048065      	69.9109        	69.813805      	69.35902       	69.62959       	69.826355      	69.734634      	69.021774      	69.580444      	69.779816      	69.46062       	69.72418       	69.5958        	69.865715      	69.51969       	69.61834       	69.77496       	69.429924      	69.74811       	69.598         	69.57278       	69.886925      	69.655334      	69.5063        	69.88452       	69.39362       	69.66142       	69.74143       	69.965965      	69.80823       	69.51992       	69.202965      	69.78527       	69.55807       	68.40826       	68.94873       	71.56943       	69.588234      	69.64707       	69.59796       	69.94767       	69.58946       	69.44031       	69.43627       	69.65723       	69.489655      	66.83249       	69.97082       	70.53443       	71.186035      	69.880714      	69.79803       	69.391785      	69.833336      	69.49897       	69.6339        	69.77097       	69.67197       	69.51145       	69.341896      	69.95565       	69.66297       	69.66878       	69.500374      	69.809845      	69.44546       	69.72532       	69.86531       	69.66162       	69.58325       	68.64778       	68.85423       	70.54026       	69.42808       	69.77141       	69.77027       	69.86771       	69.63396       	69.51737       	69.52707       	69.76783       	69.72745       	69.14837       	69.779655      	69.56025       	
69.52647       	69.66165       	70.155235      	70.003395      	69.76401       	69.62634       	69.80561       	69.57439       	69.70041       	69.45951       	69.821785      	69.461525      	69.74287       	69.3929        	69.378975      	70.03589       	69.41479       	69.54718       	69.56985       	69.95968       	69.21395       	70.04767       	69.536385      	69.86378       	69.77566       	69.42131       	69.44876       	69.4961        	68.666985      	70.33322       	69.58292       	69.333984      	69.59227       	69.65779       	69.20876       	70.02933       	69.57202       	69.67872       	69.43952       	69.74515       	69.7853        	69.3743        	69.89934       	69.74457       	69.71416       	69.754974      	69.479095      	69.5863        	69.55403       	69.81203       	69.547035      	69.53755       	69.71113       	69.748474      	69.59163       	69.77089       	68.4417        	70.04572       	69.67327       	69.56938       	69.70824       	66.82879       	67.35543       	69.48          	72.82539       	70.29986       	69.798874      	69.726364      	69.54572       	69.38944       	69.93304       	69.28681       	69.66566       	69.3952        	69.32141       	69.99938       	69.20922       	69.26915       	69.844444      	69.440994      	69.94181       	69.7844        	69.79371       	69.69422       	69.55192       	69.25403       	69.20681       	70.10659       	69.238525      	69.99395       	69.618706      	69.93168       	69.513985      	69.587746      	69.65678       	69.61476       	68.9685        	70.05966       	69.64446       	69.3662        	
69.37198       	69.77438       	70.00333       	69.55042       	69.22929       	69.882225      	69.566895      	69.97027       	69.483055      	69.920265      	69.47838       	69.589264      	69.55548       	69.63689       	69.71274       	69.8357        	69.56949       	69.47678       	69.63367       	69.545425      	69.8733        	69.70846       	69.63417       	69.542114      	69.845795      	68.35719       	70.49364       	69.44276       	69.720215      	69.73508       	69.504456      	69.6163        	69.951065      	69.577545      	69.36431       	69.71066       	69.89087       	68.540634      	70.29969       	69.75642       	69.464485      	69.45842       	69.82147       	69.84375       	69.698326      	69.69066       	69.28328       	69.80275       	69.55208       	69.63321       	69.7123        	68.21739       	70.60011       	69.732124      	69.61088       	69.56995       	69.4924        	69.83847       	69.44676       	69.44598       	69.73024       	68.75434       	67.25738       	68.957306      	72.867744      	69.6542        	69.78278       	69.50042       	69.70089       	69.392586      	69.8095        	69.786606      	69.623276      	69.6086        	69.48111       	69.74071       	69.416916      	69.80373       	69.86703       	69.60928       	69.48598       	70.01616       	69.455         	69.78023       	69.61081       	69.647095      	69.71351       	69.01321       	69.80289       	70.00542       	69.385025      	69.61725       	69.67722       	69.89531       	69.75453       	69.622284      	69.62913       	69.567055      	69.42283       	69.62097       	
69.17921       	69.63454       	69.81589       	69.948166      	69.66263       	68.949265      	69.80011       	69.81621       	69.48543       	69.54632       	69.75753       	69.799736      	69.289894      	69.48649       	69.91871       	69.39455       	69.80472       	69.73749       	69.57339       	69.89862       	69.52062       	69.64589       	69.77489       	69.52734       	69.597626      	69.31894       	69.767         	69.958755      	69.49866       	69.100006      	69.90172       	69.49237       	69.82997       	69.660576      	69.74221       	69.585556      	69.65903       	69.74274       	69.76337       	69.51177       	69.618256      	69.53266       	69.506966      	69.666115      	69.63199       	69.61433       	69.72777       	69.52212       	69.65045       	69.572624      	69.56448       	69.70442       	69.42856       	69.37798       	69.40001       	69.76144       	69.53523       	69.99266       	69.73563       	69.35058       	69.268135      	69.64971       	69.40643       	69.03547       	70.123665      	69.57419       	69.72143       	69.72577       	69.52163       	69.62344       	69.74832       	69.68631       	69.46413       	69.80467       	69.56247       	69.594086      	69.77605       	69.6136        	69.79214       	69.70527       	69.44847       	69.99186       	69.55531       	69.519424      	69.66406       	69.57542       	69.53108       	69.68282       	69.82777       	69.44937       	68.60708       	70.31219       	69.66989       	69.790504      	69.64561       	69.59176       	69.69787       	69.38947       	68.40995       	70.799904      	
69.13603       	69.48918       	69.92369       	69.90633       	69.910614      	69.859406      	69.543015      	69.45759       	69.62395       	69.72584       	69.74202       	69.50218       	69.61144       	69.82282       	69.34187       	69.60599       	69.93331       	69.565544      	69.85232       	69.52334       	69.60755       	69.79762       	69.496704      	69.70025       	69.54017       	69.61421       	69.972275      	69.47626       	69.72787       	70.108986      	68.59162       	70.24368       	69.552986      	69.41828       	70.14538       	69.27857       	69.67126       	69.787415      	69.59137       	69.53104       	69.54684       	69.91858       	69.2887        	69.47201       	69.92355       	69.01953       	69.87549       	69.46315       	69.69298       	69.64624       	69.65627       	69.87386       	69.75858       	69.3706        	69.60721       	69.798416      	69.61173       	69.73282       	69.449326      	69.67935       	69.74192       	69.74164       	69.61511       	69.75436       	69.34434       	69.84972       	69.46933       	69.62718       	69.73056       	69.25335       	70.19525       	69.47293       	69.51072       	69.563896      	69.788994      	69.57773       	69.754196      	69.64957       	68.44315       	70.68489       	69.340294      	69.728615      	69.75107       	69.72632       	69.447655      	69.503365      	69.86506       	69.67661       	69.724556      	69.664055      	68.893105      	69.836365      	69.725464      	69.93652       	69.6621        	69.40075       	69.435455      	69.714455      	69.571465      	69.54935       	
69.14078       	68.9769        	69.48292       	69.9609        	69.878624      	69.62549       	69.59023       	68.4262        	69.8586        	70.74684       	69.541374      	69.62963       	69.75116       	69.507614      	69.96353       	69.285484      	69.77457       	69.66605       	68.09218       	70.643906      	70.086174      	69.60572       	69.61016       	69.53662       	69.745224      	69.645325      	69.72073       	69.680565      	68.56399       	70.43447       	69.39332       	69.66656       	69.56587       	69.56554       	69.73277       	69.54879       	69.6638        	69.70266       	69.74498       	69.35262       	69.90213       	69.641         	69.50298       	69.80973       	69.448784      	69.907265      	69.6288        	69.30054       	69.60606       	69.19688       	69.9551        	69.7807        	69.72122       	69.46327       	69.49158       	69.511826      	69.68432       	69.81426       	69.47113       	69.55177       	69.48766       	69.98003       	69.69407       	69.7193        	69.30124       	69.90314       	69.506325      	69.15827       	70.03596       	69.68949       	69.572975      	69.50626       	69.64289       	69.68336       	69.47274       	69.82598       	70.094765      	69.25703       	69.45076       	69.57367       	69.72095       	69.81381       	69.55616       	69.57166       	69.65934       	69.42263       	69.56381       	69.60288       	69.61116       	69.85549       	69.27309       	69.85522       	69.703156      	69.66013       	69.89011       	69.31032       	69.35951       	69.80655       	69.795265      	68.847946      	
69.4313        	69.172325      	69.993416      	69.89792       	69.324455      	69.59774       	67.87911       	68.02563       	69.65953       	70.9198        	71.39245       	69.59649       	69.671844      	69.63726       	69.359215      	69.441895      	69.73927       	69.77541       	69.53928       	69.59666       	69.72622       	69.47761       	69.36845       	69.92509       	69.60212       	68.00162       	71.16265       	69.85856       	69.42714       	69.587166      	69.750854      	69.42867       	69.47106       	69.832535      	69.45373       	68.91672       	70.346695      	69.75208       	69.858604      	69.29229       	68.18024       	70.266045      	69.5286        	69.683014      	69.95946       	69.39489       	68.20676       	67.83976       	71.5213        	69.62581       	69.47887       	69.351555      	70.0765        	69.44582       	69.54298       	69.81132       	69.496666      	69.55384       	69.92499       	69.50729       	69.71913       	69.88519       	69.376366      	69.58948       	69.73073       	69.90712       	69.66178       	69.38114       	69.47065       	69.73658       	69.73001       	69.34706       	69.7503        	69.93486       	69.42864       	69.52966       	69.76843       	69.5731        	69.88167       	69.43275       	69.61051       	69.41247       	69.78147       	69.80792       	69.78403       	69.66231       	69.62639       	68.80838       	69.628784      	69.861176      	69.70402       	69.53842       	69.66125       	69.79007       	69.6375        	69.745735      	69.57655       	69.56131       	69.67013       	69.38999       	
69.442345      	69.70608       	69.944275      	69.71024       	69.53974       	69.45027       	68.7262        	67.22177       	68.73308       	70.82725       	71.80052       	69.95119       	69.70031       	69.62392       	69.68786       	69.80458       	69.33573       	69.83619       	69.7276        	69.59247       	69.69857       	69.38921       	69.85183       	69.60806       	69.76999       	69.50878       	69.835655      	69.72787       	69.17791       	69.65236       	68.737915      	70.498795      	69.25378       	69.209145      	69.02217       	70.19098       	69.22942       	70.12195       	69.880844      	68.62423       	67.2011        	70.562195      	70.705444      	69.504036      	69.6055        	69.780685      	68.27315       	67.905876      	72.05511       	69.65258       	69.55378       	69.530655      	69.39001       	69.40929       	69.788994      	69.80236       	69.49753       	69.290535      	69.75539       	68.643196      	70.82618       	69.32194       	69.548         	69.72285       	69.28951       	69.56168       	69.8144        	69.48279       	69.79061       	68.60565       	70.30852       	69.56042       	69.001015      	69.72503       	69.935486      	68.519714      	69.32769       	70.35307       	69.90057       	69.4655        	69.55302       	69.47879       	69.87742       	69.6482        	69.56581       	69.734245      	69.31191       	69.762985      	69.149734      	69.980675      	69.65544       	69.64725       	69.020256      	70.11268       	67.901566      	70.84857       	69.87595       	69.06984       	69.28077       	69.656364      	
69.39652       	69.62014       	69.69493       	69.84356       	69.92204       	69.78692       	69.58107       	67.50156       	68.9462        	70.48608       	71.37053       	69.842415      	69.53169       	69.64079       	69.80135       	69.514336      	69.656425      	69.91584       	69.36787       	69.70412       	69.58171       	69.78369       	69.84395       	69.64018       	69.70233       	69.39492       	69.66865       	69.746925      	69.47735       	69.674324      	69.238815      	69.662025      	70.061554      	69.50539       	69.40825       	69.52747       	69.79278       	69.678         	69.79519       	69.821655      	69.655205      	69.31661       	69.66629       	69.75723       	69.65093       	69.571         	69.83162       	69.68772       	69.75078       	69.59196       	69.62192       	69.45467       	69.46926       	69.58392       	69.79607       	69.64305       	69.71928       	69.65721       	69.52291       	69.76969       	69.63937       	69.54926       	69.5198        	69.604614      	69.26537       	69.80578       	69.66369       	69.616295      	69.444374      	69.7542        	69.68294       	69.813866      	69.38877       	69.593056      	69.92464       	69.34665       	69.82933       	69.54284       	69.512505      	69.706795      	69.79585       	69.45282       	69.94739       	69.426765      	69.7533        	69.66511       	69.680786      	69.61642       	69.538086      	69.55727       	69.83857       	69.685585      	69.72187       	69.72865       	69.71419       	69.52386       	69.19382       	70.31503       	69.48179       	69.64755       	
