# www.neaspec.com
# Scan:	 	Whitelight Imaging
# Project:	 	20251007_PS
# Description:	 	
# Date:	 	10/07/2025 16:39:17
# Scanner Center Position (X, Y):	[µm]	49.66	48.17	 
# Rotation:	[°]	0	 	 
# Scan Area (X, Y, Z):	[µm]	5.000	5.000	0.000
# Pixel Area (X, Y, Z):	[px]	100	100	1
# Interferometer Center/Distance:	[µm]	548.634	0.000	 
# Averaging:	 	1	 	 
# Integration time:	[ms]	5	 	 
# Wavenumber Scaling:	 	1.000000	 	 
# Laser Source:	 	4.5-15 µm nano-FTIR laser
# Detector:	 	R
# Target Wavelength:	[µm]	6.002	 	 
# Demodulation Mode:	 	Fourier
# Tip Frequency:	[Hz]	238,800.109	 	 
# Tip Amplitude:	[mV]	13.000	 	 
# Tapping Amplitude:	[nm]	69.706	 	 
# Modulation Frequency:	[Hz]	0.000	 	 
# Modulation Amplitude:	[mV]	0.000	 	 
# Modulation Offset:	[mV]	0.000	 	 
# Setpoint:	[%]	79.75	 	 
# Regulator (P, I, D):	 	4.206850	8.625812	1.000000
# Tip Potential:	[mV]	0.000	 	 
# M1A Scaling:	[nm/V]	0.426	 	 
# M1A Cantilever Factor:	 	1,000	 	 
# Q-Factor:	 	452.3	 	 
# Version:	 	2.1.11536.0
68.99786       	69.083885      	69.02449       	69.114395      	69.27523       	69.05619       	68.78805       	69.23068       	69.17006       	68.91236       	69.0159        	70.293175      	69.6501        	68.05489       	68.83867       	69.254295      	69.1741        	68.88418       	68.83916       	69.27466       	68.74358       	68.73244       	69.07077       	69.368324      	69.64803       	68.549736      	69.060265      	68.86468       	68.848785      	68.97094       	69.2741        	69.167206      	69.026955      	69.235794      	68.800316      	69.3649        	69.76069       	67.833405      	68.95006       	68.9339        	69.000244      	69.08273       	69.025734      	69.338425      	69.04421       	69.14442       	69.00216       	68.84978       	69.35976       	69.03407       	69.1088        	69.14442       	68.95823       	69.40357       	68.9236        	68.80127       	69.13287       	69.1208        	69.30385       	69.01787       	68.97137       	69.07512       	68.85077       	69.00955       	68.898026      	69.18972       	69.26587       	68.85913       	69.28119       	68.91007       	68.99397       	69.41273       	71.030624      	69.286         	67.351105      	69.2658        	68.8959        	69.2649        	68.66218       	69.01481       	68.89299       	69.55728       	69.08858       	68.86793       	68.84069       	69.032974      	69.11422       	69.22724       	68.98945       	69.029686      	69.143974      	68.75274       	69.00958       	68.88063       	69.016525      	69.15896       	68.90489       	69.2817        	68.380135      	67.9103        	
69.40198       	68.93142       	69.096275      	69.82213       	68.67757       	68.83506       	69.04378       	69.1682        	69.045235      	69.098724      	69.18642       	71.16838       	70.27582       	68.499626      	67.26734       	68.67388       	68.937614      	69.05843       	68.909294      	68.80222       	69.25763       	68.986496      	68.84782       	69.409996      	69.354195      	68.86353       	69.0349        	69.16579       	69.2169        	68.88632       	69.2199        	69.27926       	68.87358       	69.04478       	68.9938        	69.02038       	69.02873       	68.910515      	69.37311       	68.45695       	69.21148       	69.30143       	69.0314        	68.983345      	69.25192       	69.35739       	68.85309       	69.15339       	69.06965       	68.76326       	69.2004        	68.74127       	68.86185       	69.55629       	69.06961       	68.905525      	69.21341       	69.22403       	68.78964       	69.02418       	69.07232       	70.149414      	67.65014       	69.0325        	69.03059       	69.23713       	68.98741       	69.2211        	69.039635      	69.03218       	68.77882       	69.42855       	69.1013        	69.472755      	68.9558        	69.00827       	69.06919       	68.84688       	69.80389       	67.75923       	69.121346      	69.18357       	69.35915       	69.198975      	68.73757       	69.0476        	69.09741       	68.873344      	68.8848        	69.24576       	69.667595      	67.81322       	69.48794       	69.58692       	69.80264       	66.910225      	68.699104      	69.204445      	68.70791       	68.43541       	
69.51879       	68.627716      	69.295         	69.00459       	69.27912       	69.175865      	68.97792       	69.00241       	69.0899        	69.130684      	68.952675      	70.730705      	70.49412       	68.99165       	67.15294       	68.046524      	69.09782       	69.21367       	68.69315       	69.21427       	69.287964      	68.83194       	69.26513       	69.05523       	68.97426       	68.910515      	69.08656       	69.24862       	68.8644        	69.18292       	69.17035       	69.1788        	69.09068       	68.99018       	69.154915      	68.86347       	69.35853       	68.99221       	68.86893       	69.135056      	69.17053       	69.09873       	68.90459       	69.38571       	68.85267       	69.22426       	68.841064      	69.10332       	68.9236        	69.155136      	68.93402       	68.9984        	68.84183       	69.384865      	69.165         	68.96287       	69.09778       	69.25862       	69.089264      	68.77033       	69.1003        	69.243546      	68.842575      	68.86618       	69.057594      	69.19729       	69.18114       	69.145325      	69.009995      	69.30483       	68.73214       	69.1077        	69.32044       	69.14285       	69.28131       	68.983665      	68.95047       	68.665306      	69.2768        	68.98053       	68.77085       	69.308426      	68.93956       	69.08339       	69.301476      	68.62054       	68.95318       	69.13344       	68.91392       	69.09092       	68.88199       	69.1266        	68.81755       	69.29812       	70.51247       	67.24143       	69.19804       	68.38912       	68.14581       	67.82222       	
69.21756       	68.9715        	69.64588       	70.54367       	68.05044       	68.32312       	68.85549       	69.458176      	68.976685      	69.06512       	69.19268       	68.96524       	69.835594      	69.22905       	68.03888       	69.110115      	69.00023       	69.52643       	68.71953       	69.19965       	68.974304      	69.11764       	69.064575      	69.096664      	68.94148       	69.18171       	68.86941       	68.96414       	69.05059       	69.07882       	69.42141       	68.92568       	68.8843        	69.231865      	69.32203       	69.06694       	68.94738       	69.08063       	68.98208       	68.99767       	68.86912       	69.16587       	69.323265      	68.74556       	69.12509       	69.338264      	68.991714      	69.01317       	69.16927       	69.036385      	68.783066      	68.97425       	69.3153        	68.74164       	69.53411       	69.052055      	68.82526       	69.02083       	69.24694       	69.261         	69.019005      	68.965866      	68.99836       	68.94909       	68.87444       	68.965904      	69.25236       	69.047264      	69.24507       	69.18649       	69.00438       	68.97483       	69.22771       	68.98951       	69.38202       	69.43306       	68.53432       	68.7456        	69.18264       	69.10773       	68.901764      	69.289         	69.13913       	69.14703       	69.766426      	68.13541       	69.46331       	69.11736       	68.721725      	68.993904      	69.04906       	69.54192       	68.850525      	68.77517       	68.94936       	68.85601       	69.025185      	68.81441       	68.35052       	68.4861        	
69.30048       	69.23208       	70.02826       	70.97862       	68.74951       	66.6888        	68.43381       	69.25332       	68.889915      	69.08548       	69.19697       	68.92327       	69.12174       	68.89643       	69.04877       	69.38908       	69.15703       	68.60283       	68.88379       	69.20912       	68.90045       	69.28652       	69.01486       	69.11888       	68.977234      	69.22772       	69.11944       	68.92475       	69.11917       	68.834145      	69.59655       	68.88493       	68.919426      	69.19954       	69.136475      	69.31003       	68.89514       	68.669495      	68.88087       	68.76246       	69.02912       	70.06216       	68.062645      	68.81868       	69.29621       	69.3141        	68.836845      	70.527435      	67.56802       	69.11994       	69.05199       	68.75358       	68.98333       	69.09366       	68.81993       	69.14111       	69.84623       	68.32245       	69.1124        	69.79987       	68.34915       	68.950424      	69.24029       	69.095276      	68.95637       	69.038086      	69.07439       	69.251114      	68.82458       	69.224655      	69.19155       	68.84823       	68.79541       	69.249596      	69.39834       	68.90998       	69.32865       	68.697525      	69.22867       	69.13563       	68.49987       	69.59225       	68.77176       	69.14991       	69.09697       	68.91042       	69.1917        	68.99506       	69.17519       	69.11937       	68.9932        	68.930275      	69.13538       	69.210884      	68.694115      	69.543625      	67.82361       	68.393074      	68.23712       	68.08953       	
69.24348       	69.31681       	69.93388       	70.99496       	68.952484      	67.19893       	68.35617       	68.80092       	69.22626       	68.98967       	69.19992       	69.17178       	68.88924       	68.870735      	69.07179       	69.02999       	68.88954       	69.19152       	69.262314      	69.08321       	68.90124       	68.95637       	69.06588       	69.781         	68.471405      	69.140526      	69.40994       	68.66425       	68.87182       	69.28437       	69.5391        	68.23386       	68.83437       	69.36802       	69.35432       	69.295425      	68.97292       	69.19016       	69.09538       	68.42405       	70.06786       	68.25492       	68.95927       	69.22184       	69.37632       	69.09746       	68.71217       	68.99856       	69.08537       	69.39266       	68.81449       	69.1134        	68.99741       	68.89384       	68.938835      	70.85509       	70.88634       	68.425476      	66.87204       	69.07666       	69.01981       	68.99774       	69.09958       	69.11145       	68.73505       	68.99252       	69.055695      	69.596436      	68.81347       	69.08449       	69.150345      	69.329575      	68.72312       	68.95342       	69.39061       	69.06511       	68.905464      	70.017715      	67.82897       	69.01889       	68.741486      	69.23656       	69.05023       	69.12956       	69.036766      	69.10489       	68.93447       	69.3071        	68.806656      	68.89647       	69.37447       	68.7761        	68.9766        	69.29294       	68.61682       	69.07127       	68.75078       	68.735435      	68.48656       	68.4135        	
69.03182       	69.36438       	68.91366       	69.74077       	68.42004       	68.7957        	68.93423       	69.27408       	68.81225       	69.447296      	68.75721       	69.13737       	69.27822       	69.20871       	68.83499       	68.949425      	69.1945        	69.026         	69.162186      	69.06372       	69.183784      	69.07427       	69.53712       	70.89996       	68.904564      	66.6297        	68.98076       	69.269226      	68.97386       	69.22347       	69.007835      	68.81039       	68.98784       	69.13603       	68.98407       	69.1644        	69.14298       	69.140945      	69.230225      	69.01656       	69.04481       	68.96984       	69.09641       	69.24103       	68.98334       	69.052605      	68.94926       	69.170784      	69.07034       	69.182785      	68.79751       	69.10642       	68.942696      	68.84094       	69.10291       	71.321915      	70.99481       	68.97793       	66.832054      	67.740486      	69.14122       	69.16048       	68.82731       	69.1635        	69.17209       	69.25369       	68.66856       	68.92656       	69.288765      	69.16681       	68.97432       	69.19265       	68.9107        	69.20903       	69.22944       	69.12377       	68.561584      	69.17265       	69.04231       	69.06467       	69.15352       	69.09429       	69.44985       	68.917595      	68.99665       	69.22595       	68.613754      	69.329346      	68.94131       	69.20698       	69.121376      	69.06485       	69.05931       	68.8079        	69.124176      	69.55673       	68.402016      	68.079         	68.34679       	68.681335      	
69.41679       	68.66986       	69.11428       	68.927765      	69.18525       	69.2039        	68.866486      	69.56943       	68.87692       	69.33841       	68.836044      	68.86886       	69.455795      	69.04666       	68.82807       	69.0343        	69.19501       	69.144875      	69.02191       	69.09312       	69.27162       	68.89594       	69.99253       	70.682816      	68.92402       	66.711845      	69.19386       	69.02539       	68.8912        	70.80157       	67.450554      	69.03734       	68.678185      	68.99677       	69.371414      	69.134155      	68.8057        	69.162025      	69.54289       	70.06708       	67.93182       	68.9558        	69.34101       	69.04271       	69.05938       	68.94627       	68.97777       	68.99841       	69.62574       	68.76464       	68.81673       	68.99123       	69.074715      	68.95338       	69.12409       	69.658394      	70.93788       	69.36919       	67.45112       	68.0707        	69.087585      	69.11294       	68.88485       	69.03091       	68.8601        	69.33769       	69.17421       	69.159935      	68.900276      	69.31416       	69.16776       	68.881386      	68.940155      	69.263596      	69.214676      	68.77056       	69.14999       	68.92562       	69.09965       	69.0152        	69.131325      	69.076164      	69.31256       	68.94141       	69.42897       	68.72775       	68.867935      	69.139915      	69.25751       	68.80831       	69.07735       	69.07495       	69.36983       	68.87639       	68.94921       	68.62338       	68.60063       	68.58978       	68.89162       	68.642334      	
68.74125       	68.81511       	68.86158       	69.17639       	69.313705      	69.17764       	68.89934       	69.290924      	69.25809       	68.87654       	68.78426       	69.43945       	69.16606       	68.777565      	69.226166      	68.94421       	68.9239        	68.97739       	69.29778       	69.39211       	68.72311       	69.02503       	69.08494       	69.331856      	68.76886       	69.069214      	69.23418       	68.99174       	68.58397       	70.34651       	68.260445      	69.23216       	69.58606       	68.872604      	68.28232       	69.17542       	68.81943       	69.235504      	69.64463       	71.02783       	68.32242       	67.32914       	69.12271       	69.48676       	68.82426       	69.05706       	69.93459       	69.691574      	67.71016       	69.11954       	69.02584       	69.48488       	68.40775       	69.15698       	68.917076      	69.14035       	69.16325       	69.34398       	69.09885       	68.9819        	68.9733        	69.06411       	69.12814       	68.89287       	70.171616      	67.800415      	68.968895      	69.47969       	68.341736      	69.34508       	68.83766       	69.21508       	70.306526      	67.932205      	69.0453        	68.928795      	69.34713       	68.88309       	69.09187       	68.962         	68.96759       	70.49739       	68.92031       	67.726944      	69.0443        	69.10096       	69.05227       	69.05002       	69.09935       	69.63855       	68.547134      	69.20157       	69.00966       	69.067894      	68.991455      	68.85022       	68.65309       	68.62225       	69.11184       	69.157646      	
69.21377       	68.840256      	69.64773       	68.776276      	69.131546      	68.91071       	69.11904       	69.29807       	68.96065       	69.02513       	69.28106       	68.86114       	69.10052       	68.94515       	69.978355      	68.20389       	68.91697       	69.08033       	68.805176      	69.21029       	69.129845      	69.301506      	68.751015      	69.15174       	68.91886       	69.156006      	69.08181       	69.11267       	68.94787       	69.175285      	68.95913       	69.213356      	69.01062       	69.1066        	68.908394      	68.841965      	69.30074       	69.08104       	69.1003        	69.24279       	68.91031       	68.90878       	69.322395      	69.14661       	69.027145      	68.957146      	69.170395      	69.09443       	68.90243       	69.21737       	69.12247       	69.017975      	68.97012       	69.09065       	69.086296      	69.10726       	69.18634       	69.25216       	68.72924       	69.2061        	68.84825       	70.049644      	67.97729       	68.85752       	69.35004       	68.95921       	68.98934       	69.1257        	68.91076       	69.15056       	69.28011       	68.86569       	69.130974      	68.90689       	69.059074      	69.20283       	68.99034       	69.116875      	68.92276       	69.03765       	69.35973       	71.3924        	69.9252        	67.43637       	67.22318       	69.03039       	69.143326      	69.11126       	68.74843       	69.29124       	69.01975       	69.06413       	69.13668       	69.11729       	69.020615      	69.490746      	68.398315      	68.72627       	68.223305      	68.18794       	
69.478195      	67.61869       	69.03603       	69.0401        	69.09545       	69.07841       	69.01658       	69.18381       	68.93418       	68.512856      	69.41159       	69.0538        	69.27901       	68.92676       	68.94197       	68.98091       	69.18198       	68.96966       	69.131         	69.30061       	68.79345       	68.90777       	69.01563       	69.40223       	68.86495       	68.96241       	68.9924        	69.32152       	68.42544       	69.16457       	69.130455      	69.32616       	69.06457       	69.04353       	68.86901       	69.059364      	69.08154       	69.0441        	68.908775      	69.098785      	69.0389        	69.21434       	69.11792       	68.93546       	68.9694        	69.16039       	68.84483       	69.004684      	69.32894       	68.92772       	69.27406       	68.83157       	69.06427       	69.35393       	68.73967       	68.872604      	69.207886      	69.01399       	69.05362       	68.99922       	69.22049       	69.10186       	68.936424      	68.88743       	69.29628       	69.23453       	68.779         	69.157745      	68.998085      	69.063705      	69.27535       	69.19568       	69.16922       	68.54197       	69.42133       	69.103966      	69.03118       	69.04019       	69.31574       	68.75787       	68.62619       	71.33343       	70.15779       	68.082825      	67.03175       	68.942924      	69.12006       	68.7233        	69.1266        	69.10647       	69.05694       	69.07935       	69.05297       	69.12428       	69.42557       	68.459724      	68.744415      	68.82199       	68.51629       	68.330635      	
69.137184      	69.28305       	68.853455      	69.25937       	69.257744      	69.31261       	68.796906      	68.975075      	69.362526      	68.780815      	69.272125      	69.08144       	68.874985      	69.479034      	68.764145      	69.030266      	68.973816      	69.33844       	69.46953       	68.598236      	69.15845       	69.1913        	68.89382       	69.33023       	69.091484      	68.667816      	69.30087       	68.84296       	69.0178        	69.17214       	69.05587       	69.09498       	69.184204      	69.03349       	69.20417       	69.1705        	68.915405      	69.25657       	68.812416      	68.80556       	69.16533       	69.24454       	68.88725       	69.16069       	69.9059        	67.89098       	69.57157       	68.21868       	69.056694      	69.18334       	69.057045      	68.83585       	69.41399       	69.04077       	69.04907       	69.054085      	68.84952       	69.17072       	69.17432       	68.96826       	69.03626       	69.26123       	68.92491       	69.30174       	68.81617       	69.06979       	69.09018       	69.17461       	68.98047       	69.39609       	68.62507       	69.09972       	68.984985      	69.16514       	69.17004       	68.74549       	69.21131       	69.50836       	68.94539       	69.035736      	69.12183       	68.840385      	69.367256      	68.91563       	68.96152       	69.142975      	69.0416        	68.99498       	68.92441       	68.970985      	70.093185      	69.79789       	67.72099       	68.5634        	69.20747       	68.66418       	68.42601       	68.63945       	68.64468       	68.63062       	
69.11206       	69.22557       	68.734055      	69.2841        	68.7205        	69.22751       	69.07222       	68.78861       	68.91414       	69.14061       	69.28489       	68.93976       	68.849594      	69.163704      	69.3216        	68.87214       	68.87764       	69.353096      	69.11205       	69.0534        	68.97943       	68.93278       	69.140274      	69.15004       	69.17218       	69.24819       	68.896614      	69.0257        	69.32451       	68.87282       	68.84898       	69.24169       	68.99873       	70.50124       	67.54405       	69.202934      	69.04186       	68.91867       	68.70975       	69.26897       	69.72821       	68.33454       	68.88168       	69.611084      	68.23335       	69.061356      	69.07219       	69.90113       	68.23367       	68.99712       	69.15662       	69.13347       	69.04097       	69.128784      	69.05223       	68.82642       	69.329666      	69.126175      	69.270454      	68.72834       	69.28386       	69.375534      	68.928665      	68.97029       	68.93766       	69.20893       	69.23109       	69.08215       	68.91871       	70.773         	68.337944      	68.23997       	68.90282       	69.06096       	68.92621       	69.14429       	69.08561       	69.07858       	69.113106      	69.14488       	68.8582        	69.01283       	69.07504       	69.948166      	68.03516       	69.05681       	68.98549       	68.98409       	69.050964      	68.93312       	70.73754       	71.43197       	67.41016       	66.82826       	69.03909       	68.72095       	68.95418       	68.38928       	68.07197       	68.71359       	
68.8347        	69.049805      	69.14292       	69.00075       	68.75435       	69.043495      	69.15706       	69.96175       	67.996216      	69.77536       	68.58982       	69.1474        	68.93419       	69.101105      	69.34024       	69.00282       	69.221886      	68.73995       	68.99318       	69.347565      	68.73138       	69.060646      	69.02208       	69.40678       	68.95161       	69.199684      	69.022835      	68.938065      	69.25136       	68.925766      	69.2877        	68.93679       	69.26836       	68.92447       	69.13063       	68.95388       	69.13096       	69.01745       	69.218155      	68.93482       	69.17895       	69.157135      	69.179184      	68.859924      	69.20395       	69.03358       	69.0153        	69.02025       	69.35198       	69.16102       	68.60697       	68.98648       	69.430084      	69.07501       	68.873535      	69.09926       	68.8309        	69.112434      	69.417564      	68.90036       	69.10788       	69.33492       	68.76816       	69.0572        	68.87024       	69.286194      	69.04241       	69.11323       	69.132744      	68.88799       	69.19624       	69.60814       	68.76369       	68.83831       	69.10316       	68.99477       	69.02487       	69.55132       	69.050095      	69.02163       	68.68092       	69.195045      	69.27407       	68.783585      	69.16608       	68.87279       	68.924286      	68.954704      	70.70516       	68.61053       	67.65492       	69.613495      	68.709114      	68.59067       	68.83719       	68.838425      	68.74599       	68.354294      	68.554665      	68.47174       	
69.923386      	68.14374       	69.55585       	68.53301       	69.78559       	68.104         	68.881805      	69.01173       	68.9288        	68.86873       	69.173706      	69.24525       	68.8167        	69.23999       	68.96785       	68.88829       	69.1531        	68.86076       	69.1685        	69.28007       	68.80837       	69.35975       	68.82367       	69.30203       	69.02008       	69.24545       	68.99218       	69.161835      	69.05152       	68.90176       	69.164         	68.88542       	69.15972       	69.242546      	68.897446      	69.05025       	69.22941       	68.738625      	69.201775      	69.0732        	69.0094        	69.27834       	69.14996       	69.0729        	69.33921       	68.92905       	70.58169       	67.30889       	69.23805       	70.40516       	68.599625      	67.98164       	69.07801       	69.08187       	69.29184       	69.043655      	68.78694       	69.09092       	69.18559       	68.9455        	69.0648        	68.926544      	69.36705       	69.509705      	68.41475       	69.23243       	68.881775      	69.40656       	68.81958       	69.15377       	69.03315       	69.366585      	68.9814        	68.81278       	69.247696      	68.941025      	69.239174      	69.08425       	69.14811       	69.06643       	69.03898       	69.00472       	69.29307       	68.956406      	68.534775      	69.11653       	68.92614       	68.71424       	70.08169       	70.02633       	67.45247       	68.92235       	69.08341       	68.89247       	69.2037        	68.540474      	72.14398       	64.91371       	66.45836       	68.25801       	
69.148155      	68.91259       	69.0648        	69.04335       	69.22771       	69.162476      	68.74005       	69.384346      	69.09855       	68.91212       	68.84703       	70.65514       	68.57384       	68.05542       	70.88552       	67.16539       	69.36551       	69.05331       	69.015785      	69.172905      	68.93324       	70.28907       	67.4814        	69.17621       	69.092636      	69.325226      	68.70077       	69.43961       	68.84526       	69.0664        	68.93961       	69.077065      	69.02877       	69.158585      	68.82221       	69.145294      	69.07731       	69.18045       	69.00766       	69.02364       	68.98527       	69.01802       	68.72923       	69.522385      	69.38324       	68.77453       	68.98152       	69.04622       	69.0525        	70.42223       	70.075806      	66.74899       	68.82073       	69.17527       	69.55412       	68.79614       	68.81838       	69.0465        	68.97517       	69.06598       	69.30592       	69.083015      	69.2366        	68.629295      	69.15134       	69.49134       	68.92409       	68.952736      	69.28113       	69.09724       	68.94384       	69.20584       	69.120285      	69.16478       	68.98375       	69.18472       	69.062         	69.14392       	68.998726      	69.26493       	68.79914       	68.91547       	69.113754      	69.04211       	69.26432       	69.20793       	68.763084      	69.121025      	69.04685       	68.83491       	69.22579       	69.43281       	68.80695       	69.16002       	69.03456       	68.64547       	70.64626       	66.07368       	65.76606       	68.0604        	
69.35715       	69.03851       	68.84648       	69.146126      	69.15516       	68.920364      	70.92516       	68.76982       	67.546074      	68.94032       	69.290184      	71.41798       	68.526764      	67.16087       	69.25853       	69.12504       	68.96121       	69.14848       	69.11171       	69.01625       	69.13392       	69.08342       	69.05063       	70.37344       	67.71326       	69.07123       	68.91238       	69.18442       	69.100075      	68.77983       	69.17231       	69.27007       	68.89585       	69.3159        	70.19345       	68.113625      	68.46451       	68.95657       	69.09537       	69.23802       	69.087296      	68.98864       	69.06922       	69.270065      	68.92506       	69.210945      	69.013565      	69.25461       	68.899925      	69.20256       	69.23008       	68.65532       	69.15781       	68.937164      	69.09676       	69.17688       	68.737495      	69.40441       	68.89714       	68.94512       	69.195526      	69.01828       	69.01262       	70.49709       	67.735565      	69.319786      	68.58724       	69.27278       	69.13515       	69.0108        	69.032616      	68.93486       	69.25287       	68.98618       	69.23258       	69.433914      	68.59259       	68.82186       	69.299194      	69.20846       	68.96868       	68.99875       	69.17162       	68.9679        	69.21872       	69.09816       	69.042984      	68.995384      	69.20088       	69.009445      	69.11119       	69.17951       	69.28865       	68.73971       	69.19189       	68.89027       	69.1499        	68.84809       	68.08035       	68.31324       	
69.67696       	69.1574        	68.80849       	68.97373       	69.114555      	69.226776      	69.14056       	69.72776       	68.23733       	69.23613       	68.85137       	69.58712       	68.833206      	68.74133       	69.04574       	69.080956      	69.26749       	68.94983       	69.06691       	69.271545      	68.95327       	69.19429       	68.87707       	69.221054      	69.21713       	68.89736       	69.47014       	68.788925      	69.34147       	68.45341       	69.45469       	68.20525       	69.08095       	71.50006       	70.329704      	68.619545      	66.63724       	68.7473        	69.115005      	68.92529       	69.05183       	69.23109       	68.9677        	68.98392       	69.02777       	69.184494      	68.99924       	69.267525      	69.275696      	68.998566      	68.93909       	68.931984      	69.1529        	69.14522       	69.098335      	68.81124       	69.15682       	68.92103       	69.01369       	69.09332       	69.2924        	68.930176      	69.193825      	69.12214       	68.97228       	69.19194       	69.25329       	68.96028       	69.340744      	69.074974      	68.76316       	69.03813       	69.20628       	69.46456       	68.92936       	68.7853        	69.00806       	69.050545      	69.23888       	68.79303       	69.16203       	69.08433       	68.96243       	69.23148       	69.05636       	69.001724      	69.2949        	68.82046       	69.29154       	69.15968       	68.92483       	68.84521       	68.89035       	68.8081        	69.29528       	68.99861       	68.83273       	69.24858       	68.486336      	68.579346      	
69.16003       	69.21057       	68.853714      	70.4238        	67.88066       	68.822075      	69.31179       	69.165375      	68.93615       	69.0048        	69.07057       	69.41828       	68.34027       	68.722336      	68.9741        	69.33152       	68.871605      	68.99372       	69.26548       	68.85595       	69.0768        	69.05444       	68.93632       	70.76447       	67.55387       	69.15601       	69.16173       	69.05109       	68.84961       	69.319466      	68.99784       	68.99358       	69.30965       	71.34919       	70.01063       	68.636444      	66.55176       	68.27992       	68.9637        	69.19305       	69.109795      	68.85719       	68.84787       	69.36911       	69.249535      	69.02118       	69.13519       	69.01892       	68.92966       	69.05728       	69.09837       	69.018684      	68.70835       	69.997894      	68.20561       	68.881424      	68.88906       	69.073746      	69.333595      	68.97663       	68.99301       	69.129234      	68.98312       	69.1336        	68.83252       	69.220764      	69.14122       	68.89262       	69.14912       	69.39399       	68.96274       	68.645035      	69.181595      	69.3542        	68.9227        	68.93971       	69.52624       	68.97124       	69.06485       	69.1186        	69.31372       	68.74918       	68.89063       	69.46267       	69.664696      	69.31156       	67.436485      	69.07238       	69.22514       	69.1978        	69.06476       	68.869896      	68.75543       	69.0321        	69.0899        	69.28906       	68.60583       	68.88397       	68.925026      	68.59343       	
69.16138       	69.036674      	69.35031       	68.991516      	69.00471       	69.23617       	69.02729       	68.98583       	68.956314      	69.33854       	68.89955       	69.22638       	68.90425       	69.343666      	68.70745       	68.99459       	69.08022       	69.29974       	69.748535      	68.68666       	68.593666      	68.99984       	69.06479       	71.113914      	67.00261       	68.72562       	69.28781       	69.1061        	69.102776      	69.12882       	68.80506       	69.31948       	69.02149       	69.89207       	69.81313       	68.69558       	67.8328        	68.87359       	69.30885       	69.37045       	68.8586        	69.083176      	69.12894       	68.95266       	68.912865      	69.21879       	69.285255      	68.85491       	68.9019        	69.23065       	68.808876      	69.05964       	69.047485      	70.486336      	67.46864       	69.28818       	69.22061       	69.18302       	69.095146      	68.62408       	69.28645       	69.0405        	69.214874      	68.79545       	69.11546       	69.20284       	69.11442       	69.18687       	68.969185      	69.14951       	69.35721       	68.94581       	69.140335      	68.27313       	69.30971       	69.17466       	69.18699       	69.21512       	69.02687       	68.8891        	68.97749       	69.01378       	68.82825       	69.377914      	69.22645       	69.319         	68.772484      	69.05628       	69.02116       	69.34784       	69.150604      	68.27004       	69.051186      	69.16918       	68.88884       	68.83936       	68.62937       	68.533226      	68.5702        	68.59448       	
69.34618       	69.13029       	69.68493       	68.575165      	69.060646      	69.02228       	69.36059       	69.20979       	69.04932       	68.8037        	69.034676      	69.083466      	68.93768       	69.33836       	68.879234      	69.0839        	69.20198       	68.79181       	68.89135       	69.22093       	69.06442       	69.09007       	68.98371       	68.96473       	69.20322       	70.664215      	67.521416      	68.99218       	69.20138       	68.95747       	69.16735       	69.19343       	69.00924       	68.89477       	69.15644       	69.07115       	68.65667       	69.170044      	69.35255       	68.8472        	69.088196      	69.27103       	69.1933        	69.037125      	69.02157       	69.09809       	69.27653       	68.83249       	68.9199        	69.45343       	68.45852       	69.093475      	69.220566      	68.77739       	68.92733       	69.48976       	69.204506      	69.20073       	68.68631       	69.1392        	69.0168        	69.134445      	68.86941       	68.95449       	68.98167       	69.177376      	69.124596      	68.97847       	68.8359        	69.267975      	69.831795      	71.38879       	69.092575      	67.503654      	67.61212       	69.22123       	68.99091       	69.03909       	69.2314        	69.13694       	68.810616      	69.21205       	68.89265       	69.00318       	69.61837       	69.03935       	68.99703       	68.87501       	69.30817       	69.07153       	68.86742       	69.07161       	69.15566       	69.14727       	68.033905      	68.86973       	68.648506      	68.828926      	68.661255      	68.54948       	
69.47368       	69.00553       	68.995636      	69.14774       	69.23944       	68.95943       	69.30745       	69.24606       	68.84163       	69.15657       	68.8574        	69.284874      	69.14852       	68.73497       	69.11478       	68.85607       	68.89145       	68.97297       	69.18302       	69.09484       	68.73996       	69.255554      	69.02963       	69.033005      	69.21327       	69.50995       	68.73453       	69.051216      	69.17614       	68.850975      	69.08233       	69.11253       	69.09121       	69.19438       	69.04997       	68.98348       	68.83669       	69.06388       	69.16003       	69.18632       	68.93356       	69.10833       	69.10894       	69.27063       	69.696434      	68.50107       	68.81412       	68.90601       	69.162025      	68.76964       	69.180305      	69.40426       	68.88796       	68.96758       	68.923965      	69.3615        	69.06657       	69.11509       	68.91192       	68.836624      	70.24044       	67.95146       	69.03382       	69.29928       	68.5059        	69.0742        	69.00228       	69.20558       	68.95145       	69.29863       	69.80556       	71.43031       	69.52911       	68.14811       	66.540146      	69.12849       	68.86747       	69.717         	67.764626      	69.09904       	69.495514      	68.80718       	69.35751       	68.88732       	69.034424      	69.13711       	68.90652       	69.23687       	69.31614       	68.9125        	69.02112       	68.9836        	68.867775      	69.52857       	68.54037       	68.62186       	69.29704       	68.38164       	68.1153        	68.64255       	
69.1749        	68.90403       	69.38451       	68.8966        	68.8672        	69.43386       	68.927925      	69.118965      	68.86645       	68.987206      	69.29236       	68.85875       	69.152596      	68.82137       	69.32182       	68.65609       	69.22423       	69.2232        	69.04049       	69.06032       	68.86295       	69.25649       	69.14536       	68.97374       	68.99566       	69.364845      	69.34599       	68.940544      	68.98404       	68.78128       	69.172005      	69.2447        	68.88768       	69.11943       	69.21861       	68.984406      	68.85767       	69.11198       	70.06483       	67.91796       	68.75182       	69.03667       	69.32399       	70.59697       	70.41896       	67.94249       	67.2955        	68.88395       	69.07828       	69.0793        	68.929794      	69.21507       	69.05251       	69.09576       	69.044624      	69.07331       	69.290825      	69.163246      	68.90816       	68.94711       	68.82343       	69.23994       	69.54258       	68.3372        	69.30295       	69.20255       	68.680244      	69.18788       	69.06051       	68.89285       	69.64469       	71.08904       	69.56368       	68.06198       	67.247154      	69.300514      	68.98431       	69.03957       	69.25548       	69.19142       	68.81201       	69.115005      	68.96149       	69.47002       	68.74135       	68.85151       	69.005905      	68.92018       	71.18635       	67.243355      	68.47713       	69.19287       	69.66569       	68.581856      	68.82827       	68.82892       	68.95462       	68.541504      	68.21181       	68.63804       	
69.13633       	68.666626      	69.017235      	70.630264      	67.306885      	69.51208       	69.16613       	68.84461       	69.16728       	69.23732       	68.86735       	69.130135      	68.945526      	69.3435        	69.0545        	68.45765       	69.35423       	69.265274      	68.76483       	69.11506       	69.17067       	68.76483       	68.996605      	69.332695      	68.91969       	68.892334      	69.29639       	69.21248       	69.01081       	68.94632       	69.04036       	69.005585      	68.84015       	69.33254       	68.98562       	69.15443       	69.22689       	69.04585       	69.02222       	69.0318        	69.104385      	69.14208       	69.18534       	69.50732       	71.03881       	68.85569       	66.83257       	68.838585      	69.05193       	68.817215      	70.58728       	68.555115      	68.27162       	69.16795       	69.38207       	68.84061       	69.22485       	70.64583       	68.80939       	67.68078       	68.99831       	69.126755      	68.828445      	69.345764      	69.06366       	69.109055      	69.14124       	68.770134      	69.19884       	69.16572       	69.095055      	69.33567       	69.099754      	69.03599       	68.811386      	69.08398       	69.11652       	69.05053       	69.43207       	68.85121       	68.96824       	69.2256        	69.0188        	69.08667       	69.120766      	69.084854      	68.66445       	69.359245      	68.84124       	69.32081       	68.5526        	69.28382       	68.869         	69.19581       	68.96471       	68.75138       	68.82781       	68.49579       	68.36023       	68.61616       	
69.13417       	69.12767       	68.881195      	69.52471       	68.94881       	68.79172       	68.90899       	69.283806      	68.63909       	69.44105       	69.015564      	68.87553       	69.38994       	69.559654      	68.52149       	69.06291       	69.16099       	68.96759       	69.31684       	68.76818       	68.97918       	68.83448       	69.26361       	68.931725      	69.06709       	69.16793       	68.80172       	69.349304      	69.294716      	68.74541       	69.21202       	68.7353        	69.27271       	69.251884      	68.89381       	69.18258       	69.178734      	68.87495       	69.09824       	68.978455      	68.93591       	69.09144       	69.23089       	69.281364      	68.973564      	69.03607       	68.921394      	69.28825       	68.656876      	69.975876      	71.03713       	68.31425       	66.86875       	68.77959       	69.20824       	69.12975       	69.32594       	71.39752       	69.24471       	66.818245      	68.26296       	68.95597       	69.058945      	68.74862       	69.192566      	69.276115      	69.2605        	68.48845       	69.2826        	68.9322        	69.03585       	69.198975      	69.00902       	69.33254       	69.0016        	68.81256       	68.9396        	69.10799       	69.04877       	69.23714       	69.22996       	68.94568       	69.18768       	68.87427       	69.29886       	68.9193        	69.07094       	68.95971       	69.236305      	68.92158       	68.88366       	69.18401       	69.205635      	68.990746      	68.91542       	68.95489       	68.84453       	68.326385      	68.32771       	68.43234       	
69.14306       	66.36321       	69.10733       	68.822296      	69.2089        	68.84725       	69.38808       	68.88774       	69.22607       	69.13526       	69.19202       	70.06636       	67.893196      	69.05307       	68.96971       	68.90943       	69.39691       	68.92525       	69.04483       	69.1309        	68.85256       	70.620995      	67.93811       	68.103294      	69.186584      	69.189316      	68.92765       	69.13274       	69.234024      	69.16776       	68.96043       	68.856155      	69.67126       	68.38197       	69.37011       	69.447296      	68.34221       	69.49947       	68.62807       	69.131         	69.123695      	69.19227       	68.72216       	69.388725      	69.07113       	69.09602       	69.06698       	69.07182       	68.87496       	69.25468       	70.653786      	68.77996       	67.628136      	68.98567       	69.19981       	68.95887       	68.97823       	69.794365      	70.21298       	67.24358       	68.78099       	69.24028       	68.8593        	69.15248       	68.94238       	69.37825       	69.20539       	68.99509       	68.956726      	68.669044      	69.02418       	69.21275       	70.210175      	68.1832        	68.8369        	69.24964       	69.13291       	68.83617       	69.23227       	70.069824      	68.201096      	69.26041       	68.93838       	69.19951       	69.07903       	68.71682       	69.08445       	69.35559       	68.909836      	68.72894       	69.08508       	69.2723        	68.838806      	69.11186       	68.95421       	68.686646      	69.053406      	68.57793       	67.998474      	68.44121       	
69.32573       	67.257126      	68.19233       	68.94742       	69.02879       	69.20888       	68.67659       	69.97715       	68.47566       	68.825676      	69.21986       	69.35779       	69.03577       	68.88465       	69.22044       	68.9438        	68.93991       	69.145         	69.054726      	69.12058       	68.82766       	69.10673       	69.256256      	68.89866       	68.781685      	69.52567       	68.87672       	69.13278       	69.005844      	69.1466        	68.98212       	68.93195       	70.4398        	67.71488       	69.26093       	69.06383       	69.08798       	69.33521       	69.14826       	68.83665       	69.20544       	68.871506      	69.17908       	68.9807        	69.096016      	68.842865      	69.36138       	69.0039        	69.00638       	69.12648       	68.86326       	69.31279       	69.09491       	69.03876       	69.04802       	68.94517       	69.07316       	69.22673       	69.00122       	69.24393       	68.81365       	68.70135       	69.264854      	69.09077       	68.83439       	69.06183       	70.738         	67.59386       	68.99537       	68.98533       	69.244         	68.86592       	68.822495      	69.24535       	69.30167       	68.888504      	69.114586      	69.00714       	69.11311       	70.544754      	67.905106      	69.75773       	68.209885      	69.14966       	68.992775      	68.995674      	69.08446       	69.30575       	69.026955      	68.74944       	69.14234       	69.29959       	69.19849       	69.2002        	68.96145       	68.928566      	69.16365       	68.64008       	68.07556       	68.56227       	
69.18013       	68.98335       	68.86398       	69.28683       	68.86561       	70.17575       	69.15862       	67.78334       	69.02542       	69.15691       	69.22075       	69.29464       	68.97759       	69.1369        	68.9543        	69.29416       	68.900604      	68.90974       	68.88395       	69.16458       	69.11647       	69.29797       	68.870384      	69.0376        	69.08146       	69.132835      	68.885544      	69.176         	69.11905       	69.00969       	69.01948       	69.038         	68.68439       	69.363075      	69.248215      	68.18955       	69.52937       	69.20615       	68.9618        	68.924545      	68.960976      	69.16113       	68.96485       	69.163025      	69.090866      	69.2858        	68.55955       	69.14415       	69.108604      	69.20298       	68.90809       	68.98027       	69.20784       	69.22723       	69.22217       	68.782104      	69.08995       	69.02969       	69.22475       	68.84273       	68.95248       	69.24923       	69.03813       	69.19167       	69.26288       	68.95549       	69.00718       	69.0084        	69.018105      	69.24293       	69.155914      	68.998665      	69.36061       	68.8272        	68.86495       	69.10852       	69.1636        	68.88924       	69.17587       	69.298935      	69.10061       	69.086494      	68.837135      	69.14649       	69.20069       	69.03584       	69.2324        	68.958694      	69.107285      	68.64155       	69.217514      	69.13683       	69.04058       	69.24674       	68.95654       	69.38288       	67.51152       	68.740524      	68.27965       	68.190796      	
69.35174       	68.894394      	69.125114      	69.123856      	69.308136      	68.940636      	68.76379       	69.01893       	69.37911       	69.100945      	69.10339       	69.012         	69.17222       	69.10121       	68.90207       	69.389084      	68.975136      	68.924675      	69.07832       	69.165184      	68.99476       	70.986046      	68.80469       	67.34969       	68.928314      	69.09818       	69.235115      	69.179695      	68.94052       	69.03148       	69.14611       	68.96434       	68.97857       	68.896736      	69.45596       	68.65385       	69.33574       	69.02894       	69.39077       	68.71283       	69.33692       	70.90634       	66.991005      	69.186295      	68.99773       	68.97397       	69.247444      	68.526375      	69.41159       	68.90273       	69.041405      	69.06046       	68.918045      	69.03189       	69.24686       	69.13209       	69.17679       	68.94299       	69.08671       	69.06042       	68.84453       	69.440575      	68.87438       	69.03687       	69.07226       	69.15924       	68.667946      	69.15215       	69.07465       	68.70643       	69.25089       	69.08638       	69.18568       	68.83616       	69.17785       	69.42077       	68.89525       	68.84371       	69.24148       	69.35031       	68.99005       	68.974495      	68.82016       	69.05339       	69.33915       	69.198265      	69.20979       	68.81539       	69.15818       	69.008224      	69.00175       	70.31022       	67.86612       	69.2805        	69.08963       	68.92845       	68.51191       	68.87681       	68.13625       	67.97872       	
69.36498       	68.99629       	68.8387        	69.12882       	69.00643       	69.05236       	69.22998       	68.92071       	68.692825      	69.503716      	69.044014      	68.97892       	68.99075       	69.1776        	69.37584       	69.00643       	69.11771       	69.49829       	69.866066      	67.76774       	68.762634      	70.07586       	69.536766      	67.730225      	69.131645      	68.90291       	69.1184        	69.23116       	68.92205       	69.02672       	69.51036       	71.00871       	67.18891       	68.673164      	69.04635       	69.49986       	68.96559       	68.86461       	69.023964      	69.23926       	69.26759       	69.05099       	69.03375       	69.08244       	68.72761       	69.4049        	69.04283       	69.12071       	68.86057       	69.15163       	69.14318       	69.0008        	69.39432       	68.63984       	69.07529       	69.19048       	69.14905       	68.880295      	69.09661       	69.0199        	69.06336       	69.18619       	68.95156       	69.03301       	69.04898       	68.92925       	68.94063       	70.23148       	69.2729        	67.48463       	69.13953       	69.04705       	68.8414        	69.0559        	69.247055      	69.32476       	68.73739       	68.87549       	69.02945       	69.056435      	69.15549       	68.860405      	69.20128       	69.07615       	68.987854      	69.11182       	68.88558       	69.261284      	68.879425      	68.99008       	69.13053       	69.52085       	68.41138       	68.94957       	69.604294      	68.773994      	68.86487       	68.63836       	68.29195       	68.43775       	
69.31851       	69.08328       	68.96538       	69.8464        	67.76455       	68.91078       	69.25378       	68.9857        	69.48609       	69.02427       	69.12767       	69.38352       	69.06078       	69.32582       	68.26879       	69.16482       	69.22418       	69.61506       	70.46713       	67.6356        	67.946014      	69.108894      	69.43457       	68.92851       	68.96148       	69.23315       	69.35787       	68.78809       	69.06218       	69.08164       	69.43108       	70.75721       	67.996445      	67.90976       	68.90933       	69.6616        	68.742645      	69.12476       	69.30959       	69.05829       	69.26294       	69.140144      	68.95552       	68.797485      	69.13932       	68.94977       	69.08553       	68.93105       	69.05155       	69.25777       	68.97453       	68.76405       	69.43806       	68.669785      	69.09212       	69.22674       	68.84182       	69.1644        	69.00805       	69.2695        	69.201775      	68.818275      	70.28296       	67.9181        	68.93873       	68.995544      	69.02921       	69.36647       	69.12483       	68.95094       	68.85416       	69.29735       	69.290146      	69.86328       	67.89402       	69.119         	69.19564       	68.83645       	68.806755      	69.20849       	69.30328       	68.92079       	68.800804      	69.282326      	69.04791       	69.138504      	68.824844      	69.19366       	69.26119       	68.93986       	69.11781       	69.07954       	68.93788       	69.023125      	69.092415      	69.0204        	68.682106      	68.38145       	68.35182       	68.24708       	
69.34964       	69.15849       	69.11036       	68.70837       	68.88095       	68.86235       	69.292755      	68.98762       	68.97611       	68.84558       	70.070175      	70.710335      	69.382355      	68.16521       	67.278015      	68.95828       	69.15384       	69.27131       	68.890526      	69.07516       	69.075424      	68.98233       	69.365234      	68.77773       	69.00873       	69.06997       	69.1199        	69.117516      	69.04847       	69.105034      	68.778694      	69.19881       	68.976395      	69.209755      	68.9903        	69.257675      	69.11981       	69.24858       	69.20629       	69.454094      	68.751854      	68.725044      	69.28547       	69.07438       	69.01951       	68.89755       	69.500595      	69.09003       	68.88338       	68.74586       	69.11709       	69.26788       	68.806816      	69.04317       	68.903824      	69.12815       	70.9168        	67.42426       	68.879395      	69.11602       	69.08705       	69.04216       	69.08984       	69.185616      	68.931175      	69.35837       	68.714745      	69.21435       	69.399574      	68.99681       	68.41616       	69.23446       	68.866264      	69.23593       	68.99227       	68.996254      	69.0582        	68.90075       	69.393845      	69.11282       	69.15157       	69.90026       	68.90189       	68.315445      	69.181885      	69.090195      	69.17154       	68.91677       	68.98272       	69.23081       	69.12456       	69.0509        	68.98218       	69.0601        	69.303604      	68.97725       	68.80657       	67.99099       	68.30955       	68.53607       	
69.18433       	68.98287       	68.83071       	69.18544       	69.10605       	69.6241        	68.3578        	68.837906      	69.565414      	68.4588        	69.371956      	71.36665       	69.671135      	68.00841       	67.10193       	69.19154       	69.18799       	69.03619       	68.9478        	69.358986      	68.81249       	68.76714       	69.13034       	69.408714      	68.51858       	69.29644       	68.80305       	69.01463       	69.23325       	69.12343       	68.853584      	68.975784      	68.94505       	69.21982       	69.06765       	69.25451       	68.9001        	70.75798       	67.13334       	69.25174       	69.20503       	69.07083       	68.98182       	68.76464       	71.01146       	67.07861       	69.44865       	69.02717       	69.301094      	68.82189       	68.992485      	69.061134      	68.92883       	69.72488       	68.33842       	69.1519        	68.97816       	68.78946       	69.043755      	69.33888       	69.091484      	69.19603       	68.93904       	69.37631       	69.06986       	68.84584       	69.17795       	69.1654        	69.201805      	68.67406       	69.1169        	68.92374       	69.139656      	69.05676       	69.107956      	69.2177        	68.894226      	69.22106       	68.95598       	68.98368       	69.01746       	68.86229       	69.22076       	68.95043       	69.50042       	69.08519       	68.819176      	69.04954       	70.25473       	69.17665       	68.35871       	68.35883       	69.10968       	69.04707       	68.83879       	68.79353       	68.7356        	68.47755       	68.34412       	68.795975      	
69.413994      	68.95904       	68.856606      	69.14947       	69.085915      	69.14179       	68.88839       	69.292076      	68.91763       	69.09568       	68.87176       	70.02804       	69.33077       	68.21902       	68.70863       	69.25186       	69.10802       	69.053375      	69.149826      	69.10332       	68.92713       	68.97748       	69.03592       	69.22745       	68.975174      	69.12637       	68.7762        	69.09513       	69.503494      	68.673096      	69.194214      	68.80201       	69.348         	68.514786      	69.05849       	69.247116      	69.43459       	69.09788       	69.134186      	69.17995       	69.174355      	69.008865      	69.011375      	69.08165       	68.96868       	68.95905       	69.37443       	69.1213        	69.012634      	68.87781       	69.100876      	69.13441       	69.10546       	69.08623       	69.12365       	68.970024      	68.93182       	68.97606       	69.245605      	68.85473       	69.184875      	68.892746      	69.104935      	69.593124      	68.39502       	68.99244       	69.1           	69.33875       	68.82265       	68.86722       	69.25526       	68.87183       	69.33467       	70.38435       	67.74921       	69.02821       	69.0705        	69.766         	68.47688       	68.742096      	69.15342       	68.958626      	69.074234      	68.75204       	69.53042       	68.98505       	69.00172       	69.99942       	70.92916       	69.54913       	68.150894      	66.62221       	68.87095       	69.19777       	69.0348        	68.792595      	68.57218       	68.63263       	68.36126       	68.427765      	
69.49806       	68.794014      	69.069275      	69.45064       	68.661705      	69.0487        	69.08938       	69.42808       	68.70343       	69.46015       	68.843094      	68.71162       	69.19803       	69.23247       	69.18234       	69.05499       	68.80772       	69.07797       	69.263855      	68.97785       	69.655464      	68.10091       	69.1117        	69.03115       	70.64698       	67.43868       	69.0091        	69.28779       	68.93677       	69.09167       	69.14642       	68.83509       	69.173256      	69.04343       	69.1642        	69.213615      	69.66436       	68.63957       	69.17789       	69.0678        	68.706604      	69.22493       	69.25505       	69.12033       	68.96303       	69.2514        	68.86806       	68.84587       	69.20414       	69.035164      	68.98139       	69.287346      	69.06318       	69.021225      	69.014496      	69.20942       	68.97775       	69.256195      	68.917076      	68.96656       	68.82489       	69.2872        	69.22035       	68.82644       	69.25651       	68.88954       	69.476074      	68.91252       	69.15953       	68.56821       	69.27003       	68.878         	69.20792       	69.23946       	68.726974      	69.05142       	69.086784      	70.48989       	69.74055       	67.22123       	69.051056      	68.65852       	69.29345       	68.98705       	69.14687       	69.01703       	69.279686      	69.64621       	71.01159       	69.7613        	68.51956       	66.605804      	68.60943       	69.00464       	69.33221       	69.02921       	68.51218       	69.06291       	69.32875       	68.119095      	
69.34343       	68.941635      	69.04124       	69.39071       	68.70963       	69.43871       	68.89927       	69.13621       	68.66513       	69.29062       	68.9001        	69.07302       	69.12828       	69.260574      	68.797226      	69.12703       	68.79911       	69.492744      	68.78267       	69.329735      	68.820656      	69.18585       	69.21497       	69.185425      	68.97128       	69.20207       	68.717064      	69.13453       	70.56122       	69.64358       	67.29929       	68.8789        	69.05356       	68.88149       	69.14091       	69.11473       	69.08264       	69.16776       	69.2487        	69.19695       	68.83124       	69.281975      	69.433655      	68.49521       	69.13693       	69.04768       	69.1658        	68.79009       	69.03512       	68.87811       	69.42187       	69.49735       	70.005974      	67.331184      	68.88575       	69.07037       	69.77021       	68.20417       	68.96586       	69.28826       	68.87552       	69.06734       	69.09816       	69.17287       	69.269714      	69.1344        	68.961105      	69.11906       	69.09686       	70.36512       	70.3895        	68.46114       	66.93118       	69.140495      	68.97797       	69.0162        	69.05787       	68.93508       	69.19599       	68.86626       	69.393135      	68.8556        	69.268326      	69.352455      	68.92553       	69.32513       	69.0992        	69.15603       	69.39023       	69.746124      	68.50051       	68.24688       	68.995895      	69.14204       	69.31475       	69.051025      	68.813805      	68.81002       	69.39616       	67.77059       	
69.20124       	68.60008       	69.03412       	69.086815      	68.92948       	69.28563       	69.13276       	69.55818       	68.5071        	70.36995       	67.34075       	69.24506       	69.14432       	68.852234      	69.00211       	69.22396       	68.894714      	69.09042       	69.00256       	69.26742       	69.1285        	68.84981       	69.279945      	68.95489       	69.28035       	68.86508       	69.13132       	69.05746       	69.70128       	70.27596       	67.049194      	69.21862       	69.09005       	69.16374       	68.90703       	69.118385      	68.95653       	69.26169       	68.974686      	69.09107       	68.97315       	69.236855      	69.16471       	68.76081       	68.83294       	69.3729        	69.09212       	69.14856       	68.96431       	68.95098       	68.89331       	69.18959       	70.58064       	67.87401       	68.518585      	68.90264       	68.7901        	70.43007       	68.22369       	68.50418       	69.09173       	69.04224       	69.72775       	68.332825      	68.86546       	69.2702        	69.17791       	69.195145      	68.930084      	69.93012       	71.047775      	68.23021       	67.198235      	68.80465       	69.29092       	68.89161       	69.05388       	69.223816      	69.13368       	69.021736      	69.2041        	68.83342       	69.08989       	69.05295       	69.49278       	68.90776       	69.41741       	68.90445       	69.098434      	68.84479       	69.09947       	68.960266      	68.988655      	68.836624      	69.35551       	69.04915       	68.8169        	68.570015      	68.501785      	68.14824       	
69.30336       	68.96684       	69.11335       	69.084145      	69.18886       	69.352844      	69.0364        	69.17338       	69.81649       	68.0587        	69.15946       	69.27747       	68.86254       	68.96899       	68.96692       	69.52176       	70.670204      	68.13302       	68.07559       	68.97815       	69.35473       	69.20828       	69.15401       	68.71023       	69.15019       	69.25184       	68.90664       	69.25744       	69.09413       	69.336975      	69.00435       	68.95529       	68.99323       	69.26648       	69.06788       	68.97444       	69.116486      	69.25373       	68.79565       	69.03778       	69.11411       	69.20855       	69.117         	69.80384       	67.817795      	69.3151        	68.801025      	70.08205       	68.551384      	68.88011       	68.83612       	69.056984      	69.20007       	69.03287       	69.19293       	68.91557       	68.86329       	69.483116      	70.01314       	67.91507       	69.16496       	68.95955       	69.03278       	69.34197       	68.67531       	69.062935      	69.16264       	68.86207       	69.14247       	69.30937       	68.953125      	68.93252       	69.24838       	69.2363        	69.28598       	69.02895       	69.10483       	68.81082       	69.19138       	69.17787       	69.12557       	69.094574      	68.84982       	69.2479        	69.00398       	68.99394       	69.4487        	68.84517       	69.02619       	69.31237       	68.65916       	69.333466      	68.75134       	69.32961       	69.12352       	68.70222       	68.52839       	68.74389       	68.36157       	68.73076       	
68.97345       	69.16325       	69.0084        	68.950714      	69.13707       	69.17611       	69.14397       	69.25248       	70.03869       	68.514         	68.68929       	69.014885      	68.84288       	69.19652       	68.83729       	70.33259       	70.63414       	68.92492       	67.79694       	67.98516       	68.8559        	69.4033        	68.746895      	69.060646      	69.10302       	69.436966      	68.656975      	69.125595      	69.03988       	68.99158       	69.08513       	68.82003       	68.9157        	69.045         	70.20559       	67.92155       	69.09927       	69.29144       	69.15215       	69.11942       	69.82258       	68.21351       	69.15492       	69.18402       	68.87923       	69.074425      	68.89777       	70.84177       	69.56801       	66.57473       	68.90887       	68.87316       	69.31401       	69.13665       	68.98579       	68.95918       	69.04229       	69.24862       	69.0539        	69.0682        	69.12635       	68.83773       	69.135574      	69.15573       	69.00079       	69.17274       	68.84567       	69.32232       	68.96888       	69.21952       	69.09282       	69.08815       	68.76531       	69.3249        	69.04343       	69.12954       	68.79168       	69.23492       	69.18066       	69.424095      	68.82409       	68.97583       	69.09762       	69.17358       	68.8248        	68.53189       	69.21445       	69.141716      	68.99639       	69.11205       	70.385414      	67.78005       	69.36264       	69.17233       	69.011284      	68.45028       	68.33179       	68.92217       	68.98353       	68.31752       	
69.33906       	68.74261       	69.0829        	69.00242       	69.17674       	68.97488       	69.12845       	69.023125      	69.19018       	69.13598       	69.224205      	68.81723       	68.824615      	69.15727       	69.22584       	68.90995       	70.65155       	70.316         	68.073784      	67.61936       	68.97877       	68.94223       	69.29153       	69.04534       	69.18473       	68.951355      	69.2268        	69.20938       	68.984474      	69.14272       	69.0869        	68.77691       	68.7703        	70.81028       	72.08609       	66.35005       	67.36647       	68.98274       	69.16535       	69.199326      	69.03844       	69.1309        	69.10298       	70.36564       	67.11013       	68.84676       	69.41211       	69.12326       	69.656296      	68.234985      	69.06948       	69.10873       	69.01997       	68.96147       	68.946106      	69.078255      	69.209885      	68.91839       	69.1239        	69.2592        	68.94219       	69.28395       	68.95264       	68.964874      	69.014885      	68.84095       	69.115135      	69.16361       	68.98176       	70.675896      	69.55003       	66.859566      	68.79472       	69.58055       	69.12658       	68.59688       	69.26852       	69.52559       	68.7236        	69.11297       	69.03229       	69.19363       	69.033806      	69.240105      	69.041985      	69.055         	68.80194       	69.05065       	69.411194      	68.70859       	69.57359       	68.81393       	69.09458       	68.8886        	69.17673       	69.018715      	68.22924       	68.55824       	68.34983       	68.77489       	
68.95507       	68.09146       	69.26266       	68.87337       	69.12247       	68.9728        	69.10597       	69.19292       	69.054276      	69.01487       	69.30318       	69.456924      	69.11522       	68.39627       	69.06036       	69.13692       	68.94952       	69.90556       	68.480576      	68.83666       	68.97833       	69.12019       	69.56515       	68.77812       	69.275055      	68.805885      	69.091286      	69.1356        	69.28499       	68.84948       	69.10476       	68.83624       	68.93236       	70.22711       	71.99413       	66.25605       	67.68842       	68.766396      	68.94256       	69.276695      	69.210526      	68.92957       	69.17179       	69.23832       	69.2034        	68.73966       	69.0235        	68.877304      	69.13436       	68.93528       	69.25763       	69.029175      	68.91709       	68.658806      	69.11208       	68.97219       	68.95614       	69.332375      	69.31684       	68.85123       	69.08047       	69.1453        	69.60803       	70.84459       	68.41847       	67.50546       	68.96443       	69.0843        	68.932655      	69.41994       	70.217674      	67.8952        	68.72661       	69.16984       	69.02885       	68.97161       	69.1533        	69.04788       	69.31612       	69.10281       	68.93275       	69.4429        	68.964226      	69.20943       	69.02067       	68.81001       	68.98986       	69.18244       	69.33734       	69.01044       	69.02628       	69.06516       	69.03043       	69.0525        	69.21811       	69.09982       	68.37407       	68.611786      	68.97771       	68.689476      	
69.33368       	68.664375      	68.94897       	69.20904       	69.06838       	69.3051        	68.889786      	69.45741       	68.34691       	69.55369       	68.711784      	68.757614      	70.15223       	67.686035      	69.17774       	69.31545       	68.987206      	69.07166       	69.14767       	68.83134       	69.43133       	68.919624      	69.16907       	69.05907       	68.976         	69.3092        	69.07956       	69.30184       	69.059784      	69.04303       	68.93728       	68.962395      	68.943954      	69.16919       	69.176506      	69.132965      	68.81429       	69.09437       	69.195885      	69.14017       	69.01552       	69.15719       	69.48188       	68.72842       	69.142715      	68.82378       	68.99578       	69.42948       	68.66612       	68.923256      	68.95506       	69.21202       	69.05029       	69.0671        	68.74275       	69.11638       	69.193214      	69.23973       	69.13007       	69.15085       	69.089615      	68.72697       	71.41924       	70.20521       	68.76655       	66.51348       	68.638756      	69.51123       	68.540855      	69.36039       	68.80139       	68.91615       	69.18155       	68.95952       	69.17346       	68.78383       	69.15625       	69.092834      	69.30535       	69.05173       	69.11531       	69.2678        	69.092026      	69.14698       	68.85695       	68.87171       	69.08207       	68.86184       	69.43687       	68.867836      	69.15979       	69.22344       	69.25573       	68.560196      	69.20075       	69.50428       	68.29204       	67.6904        	68.38552       	68.83128       	
69.5401        	69.19213       	68.91991       	69.044266      	69.40807       	68.55025       	69.24731       	68.984634      	69.30929       	69.21297       	68.76046       	69.01309       	69.33495       	68.82325       	68.914185      	69.04266       	69.11585       	69.218475      	69.32871       	68.821556      	69.12713       	69.15215       	68.90346       	68.992165      	69.27904       	69.152245      	69.16208       	69.23959       	68.89855       	68.98495       	68.83292       	69.108086      	69.026054      	69.10308       	68.99395       	69.266266      	68.93272       	69.27921       	69.02104       	68.96365       	69.25647       	68.98747       	70.60342       	67.49322       	69.033905      	68.80636       	69.15855       	69.26718       	69.29589       	69.06105       	68.80283       	69.37045       	68.65813       	69.514404      	70.51799       	67.820175      	68.40133       	69.31308       	69.06943       	68.92993       	68.89535       	68.87288       	71.06766       	70.01994       	69.095215      	67.02533       	68.61255       	69.23875       	68.79034       	69.21971       	68.85511       	69.02036       	69.01078       	69.65892       	68.528336      	69.73203       	68.3001        	69.04386       	69.169685      	69.28238       	68.98995       	69.02984       	69.05228       	69.33556       	69.08531       	70.78994       	69.19849       	67.43611       	68.565735      	69.13694       	69.053825      	69.12716       	68.991714      	68.93526       	69.06648       	69.17644       	68.492836      	69.33776       	68.118904      	68.0227        	
69.26808       	69.03178       	68.82191       	69.150826      	69.00028       	68.94274       	69.746605      	68.00357       	68.79115       	69.47362       	68.7123        	69.18935       	69.03599       	69.12865       	68.90987       	69.00436       	68.86106       	69.26585       	69.1613        	69.03798       	69.27033       	68.99298       	69.45513       	68.39934       	69.34895       	68.91479       	69.29884       	68.96014       	69.165886      	70.44467       	67.702065      	68.88745       	69.0638        	69.03694       	69.07608       	68.98672       	69.30618       	68.72664       	69.16318       	69.1935        	69.118416      	69.17583       	69.17933       	68.6067        	69.08909       	69.18637       	68.922745      	69.18902       	69.49114       	68.88494       	70.15167       	67.98934       	69.05353       	69.057495      	69.48315       	68.46078       	68.95453       	69.09573       	69.04578       	69.01822       	69.11633       	68.91371       	69.08815       	69.93929       	68.75663       	68.60624       	69.174324      	69.01612       	68.95532       	69.18769       	69.13904       	69.32865       	69.65321       	68.20846       	69.11333       	68.99478       	69.07069       	68.926445      	70.322         	70.384865      	66.99069       	68.96289       	69.27442       	68.8054        	71.18726       	70.615395      	69.31958       	67.54978       	66.60966       	69.246574      	69.006325      	69.05238       	71.163216      	68.32916       	67.504395      	68.95126       	68.52918       	68.68693       	68.82374       	68.98627       	
69.00704       	69.1507        	69.117195      	69.27932       	68.761604      	69.23453       	68.97634       	69.05564       	69.22439       	68.97001       	69.33676       	68.64619       	69.15733       	69.03655       	68.85871       	69.207306      	68.941345      	69.137856      	69.15862       	68.971825      	69.26149       	68.69534       	70.862564      	68.17458       	68.596504      	68.95485       	69.06867       	69.12283       	69.037415      	70.72419       	68.49009       	67.16959       	69.39562       	69.118454      	69.00634       	69.18253       	68.97795       	69.12269       	69.723236      	68.33156       	69.13869       	69.30256       	68.65682       	70.34759       	68.18005       	68.90859       	69.18488       	68.82012       	68.99936       	69.16104       	68.975975      	69.10493       	69.19488       	68.98578       	68.95475       	70.207214      	67.93441       	68.48095       	69.010666      	69.330696      	68.964874      	69.27291       	68.81682       	68.76326       	69.18455       	69.31076       	69.17841       	68.96962       	68.9056        	69.27754       	69.189865      	68.89056       	68.97226       	69.17119       	69.19009       	69.016106      	68.88309       	69.25119       	68.92769       	69.8051        	68.406586      	68.89001       	69.27396       	69.18161       	70.260605      	71.011024      	69.36459       	67.80641       	66.73764       	68.97483       	68.966064      	69.0882        	70.682365      	68.36397       	67.96539       	69.10583       	68.63859       	68.35463       	68.89787       	68.95147       	
69.395905      	70.033394      	68.36616       	69.01605       	69.081505      	69.13991       	68.68719       	69.27429       	69.037346      	69.087135      	69.15021       	69.189095      	69.118484      	68.90854       	68.98717       	69.01471       	70.77078       	67.729225      	68.764366      	69.101616      	69.19886       	68.98645       	69.139694      	69.42268       	68.76871       	69.35187       	68.9625        	69.10059       	69.18378       	69.092255      	68.75954       	69.01823       	69.03774       	69.34995       	68.96016       	68.69728       	69.295135      	68.80748       	70.82245       	67.27311       	69.4417        	68.69833       	69.79533       	68.076965      	69.13659       	69.6996        	68.2495        	69.35746       	68.82612       	69.311874      	69.01463       	68.95855       	69.28537       	68.9929        	69.0077        	69.04751       	68.86808       	69.1708        	69.2055        	69.29709       	68.87971       	69.06864       	68.94011       	68.966606      	69.15476       	69.18899       	69.31086       	69.04259       	68.94797       	69.118286      	68.83511       	68.71632       	69.39074       	69.20674       	69.04963       	69.191765      	68.833046      	68.823135      	69.1534        	69.05037       	69.143394      	69.19216       	68.510506      	69.19498       	69.06204       	70.30713       	69.618004      	67.65214       	68.5633        	69.14788       	69.3199        	68.89765       	69.14157       	68.855804      	69.01721       	69.08834       	68.57998       	68.49939       	68.669914      	68.71705       	
69.22276       	70.14538       	69.68998       	67.25795       	68.97032       	68.85828       	69.3127        	69.21185       	69.234505      	69.1207        	68.93762       	68.88521       	69.16489       	69.19539       	69.14517       	68.94708       	69.19278       	68.75121       	69.75828       	68.13892       	69.22505       	69.10753       	68.849625      	69.70151       	68.39522       	69.28007       	69.277695      	68.95703       	69.10284       	69.00174       	68.79775       	69.27334       	69.700066      	68.326294      	69.10137       	68.69667       	69.1057        	68.964554      	69.23209       	69.02547       	69.12387       	69.115685      	69.687195      	68.38383       	69.02949       	69.15931       	69.10342       	69.05938       	69.65917       	68.51652       	68.702095      	69.179565      	68.78821       	69.266014      	69.045746      	69.07849       	68.866234      	69.14076       	68.8823        	68.95108       	69.16452       	69.20781       	69.05406       	69.22634       	69.139305      	68.99721       	69.11901       	69.28518       	69.01295       	68.99995       	68.79756       	69.04993       	69.05721       	69.05885       	70.02763       	68.350746      	68.672165      	68.86382       	69.17763       	69.04364       	69.21955       	69.06363       	69.082214      	68.904854      	69.12292       	69.3436        	69.08655       	68.911896      	68.82074       	69.14789       	69.93746       	68.210175      	68.94338       	68.72663       	68.99687       	69.175896      	69.06943       	68.7287        	68.43605       	68.66327       	
69.32948       	69.10665       	69.12242       	69.03569       	69.25926       	69.16179       	68.99402       	69.124756      	68.87294       	69.48566       	68.76857       	69.04157       	68.97544       	69.308784      	68.939064      	69.307205      	69.2807        	68.68428       	69.16698       	69.35833       	69.22626       	68.8469        	68.99852       	69.13097       	68.854805      	69.09457       	69.15574       	70.98258       	68.65794       	67.6083        	69.074745      	69.227036      	68.849556      	68.83153       	69.25374       	69.32101       	68.91295       	69.05977       	69.121506      	69.178345      	68.68296       	69.20115       	69.44408       	69.16572       	68.87768       	69.215515      	69.157486      	69.008224      	68.95548       	68.994576      	69.200356      	69.03533       	69.18057       	68.899536      	69.049385      	69.26784       	69.01427       	69.61265       	68.78566       	68.841736      	69.02619       	68.97894       	69.36553       	69.05435       	69.0953        	69.63036       	68.57001       	69.165565      	69.20925       	69.1097        	69.09007       	68.735085      	69.09478       	69.20191       	69.48277       	68.90271       	68.84469       	68.80978       	69.03458       	69.85229       	68.259026      	69.26757       	68.88567       	69.23176       	69.09599       	68.980286      	69.20666       	69.03644       	69.22324       	68.64099       	69.12381       	69.1277        	68.993095      	69.00655       	68.98043       	68.87251       	68.51584       	68.50413       	68.95341       	68.65304       	
69.2051        	69.08106       	69.16407       	69.115074      	69.22961       	69.0245        	69.162865      	69.084435      	69.10609       	68.85236       	69.264206      	68.999756      	69.67085       	68.20924       	69.625404      	68.9757        	69.14516       	68.92035       	69.20439       	69.246765      	69.203514      	69.08646       	68.82202       	69.00103       	68.964615      	68.96153       	69.02217       	71.74855       	69.17035       	66.2698        	69.08524       	68.85576       	69.1219        	69.23548       	68.78374       	69.210754      	69.05024       	69.04012       	69.174904      	68.94894       	69.05103       	69.053345      	69.05514       	69.39482       	68.85486       	69.153534      	68.95667       	68.977394      	69.06152       	69.05981       	69.175255      	68.877464      	69.07379       	69.10329       	68.99242       	69.12503       	68.92074       	69.20413       	69.2785        	69.04753       	68.76365       	68.94384       	69.19557       	69.04202       	68.97742       	70.27689       	67.925095      	69.20247       	68.94261       	69.07774       	68.912415      	68.90465       	69.39162       	68.92134       	69.08932       	68.94646       	68.92538       	69.19804       	69.0334        	68.690025      	69.146965      	69.43512       	69.814804      	67.749146      	69.033714      	69.171135      	69.405304      	68.80482       	69.17187       	69.04635       	68.79119       	69.20972       	68.76289       	69.37405       	69.05586       	68.66499       	69.21745       	68.72973       	68.5474        	68.98911       	
69.30247       	69.17121       	69.232155      	68.63409       	68.97392       	68.98145       	69.146034      	69.18547       	68.71853       	69.19373       	68.87447       	69.21686       	69.01617       	69.185425      	69.2625        	68.87689       	69.260506      	68.8299        	69.22243       	68.915886      	69.294624      	68.77604       	69.01661       	69.04983       	68.732475      	69.19611       	68.969315      	70.75399       	69.61061       	67.06364       	68.821594      	68.83549       	68.98097       	69.193146      	69.316696      	69.294716      	69.07611       	70.16334       	67.96393       	68.90234       	69.152016      	69.079666      	68.95488       	69.18937       	69.15043       	69.02204       	69.14409       	68.7935        	69.11196       	68.911385      	69.1099        	68.9504        	69.082375      	69.4426        	68.94016       	69.04412       	69.07329       	69.22156       	69.29531       	68.98169       	68.83468       	69.16358       	69.210556      	68.80436       	68.8674        	69.104065      	68.960106      	69.45345       	70.88185       	69.084         	66.86092       	69.0269        	68.88525       	68.97919       	69.05292       	68.80165       	69.23471       	68.9334        	69.45453       	69.14472       	69.26675       	68.86963       	69.925835      	67.899796      	69.165         	69.28686       	68.89449       	68.79422       	69.300095      	69.11638       	69.067154      	68.96398       	68.97939       	69.03525       	68.82799       	68.71142       	69.08148       	68.89464       	68.45659       	68.68659       	
69.3498        	69.10905       	69.36222       	69.2063        	69.00928       	69.27855       	68.84952       	69.04637       	69.04043       	69.23858       	69.081         	69.06345       	69.09225       	69.105446      	68.87318       	69.34229       	69.07606       	69.14457       	69.098724      	69.15367       	68.91566       	69.037544      	69.08513       	69.118484      	69.08187       	68.793106      	69.26362       	69.03223       	69.030045      	68.856995      	70.37311       	67.87486       	68.69935       	69.21338       	68.93781       	69.01427       	69.40716       	69.01751       	68.84971       	70.255974      	67.78037       	69.43173       	68.93141       	69.19359       	69.093544      	68.993385      	68.93593       	69.05171       	70.5207        	69.72258       	68.173325      	67.92592       	69.22379       	68.87215       	68.91555       	69.490814      	69.17301       	69.021996      	69.01059       	69.10322       	69.123215      	68.91873       	68.89807       	69.150505      	69.16151       	68.87123       	69.35432       	69.0006        	70.519684      	70.03636       	67.1315        	68.399536      	68.97077       	69.0072        	69.05722       	69.11244       	68.82726       	69.45208       	69.35273       	68.94549       	69.40049       	68.51781       	68.898605      	69.263084      	68.80426       	69.33238       	69.021645      	68.75648       	69.12622       	68.991264      	69.317116      	68.914314      	69.03719       	68.80099       	68.95158       	69.02226       	68.97184       	68.52308       	68.30916       	68.37499       	
69.68236       	69.171936      	69.14127       	69.071045      	69.44835       	68.88622       	68.783676      	69.19465       	69.21064       	68.846466      	69.05536       	70.43983       	68.03737       	69.5313        	68.48581       	68.96177       	69.02772       	69.04203       	69.05853       	69.364204      	69.16493       	69.0244        	69.14504       	69.05343       	68.869896      	69.15691       	69.22435       	68.48201       	68.919586      	69.25766       	70.0918        	68.356766      	69.19331       	68.76197       	69.008446      	69.26293       	68.992836      	69.466866      	68.668945      	69.09142       	69.38074       	68.88548       	68.99909       	69.113266      	69.20948       	69.209656      	68.59778       	69.782074      	71.54184       	69.56481       	68.29863       	66.324554      	68.85016       	69.06062       	68.92849       	69.198555      	71.324104      	66.934875      	69.0437        	68.71033       	69.26471       	68.877075      	69.081         	69.57167       	68.37316       	69.04376       	69.318184      	68.98178       	69.56585       	68.90641       	69.04093       	68.63358       	68.920654      	69.213844      	69.010025      	69.89461       	69.56492       	67.3697        	69.28324       	69.304436      	68.934784      	68.97374       	69.16129       	68.4704        	69.20099       	69.12343       	68.9355        	69.203835      	69.20211       	68.80742       	69.18387       	69.101875      	68.611374      	68.88636       	69.49239       	69.16171       	68.67273       	68.91982       	69.576904      	69.91543       	
69.016594      	69.1811        	69.28582       	69.05859       	68.78715       	69.27295       	69.146545      	68.85598       	69.1327        	69.37705       	69.02085       	69.23897       	68.70104       	69.02694       	69.22738       	69.557686      	69.21683       	68.21839       	69.282         	68.91102       	69.2117        	68.92306       	69.35345       	68.530235      	69.2433        	69.10738       	69.27353       	68.57844       	70.37097       	69.54568       	67.64217       	69.18941       	68.77559       	68.75904       	69.41923       	69.08418       	69.008125      	69.08358       	69.097496      	68.96813       	68.86412       	69.136024      	69.2651        	68.709755      	69.30212       	68.7287        	69.10699       	69.928894      	71.46226       	70.2544        	68.43652       	66.17415       	68.02572       	69.2441        	69.32892       	69.00996       	68.94308       	69.069565      	69.04217       	69.11444       	69.212234      	69.16619       	68.70318       	69.222565      	69.48866       	68.94814       	68.94752       	68.97614       	69.09074       	69.07241       	69.01876       	69.08403       	68.97458       	68.856766      	69.15303       	69.03551       	69.17899       	68.85263       	69.130005      	69.17445       	69.60932       	68.437416      	68.9222        	69.01889       	69.7988        	68.33688       	68.91227       	69.01847       	68.99618       	69.20268       	68.844185      	69.18735       	68.9215        	69.151764      	69.161995      	68.80369       	68.44305       	68.80191       	70.83614       	71.45132       	
69.154274      	69.11003       	69.1799        	68.97842       	68.95997       	68.94238       	69.23623       	68.977         	69.85575       	68.238525      	69.82179       	68.14614       	69.26313       	68.985466      	68.83573       	69.11479       	69.09041       	69.156395      	69.062225      	69.47814       	68.69846       	69.22022       	68.85778       	69.113815      	69.3387        	69.28135       	68.61336       	69.21326       	69.006516      	69.170204      	69.11509       	69.135864      	68.67803       	68.88246       	69.15908       	69.13867       	69.23291       	68.98451       	68.94592       	68.882835      	69.26154       	69.220825      	68.814186      	69.05946       	69.20918       	69.22901       	69.08285       	69.12727       	71.26956       	69.60725       	68.136475      	67.33286       	68.886955      	69.143456      	69.1522        	68.81419       	69.202774      	68.92863       	68.66413       	69.66875       	68.84742       	69.29976       	69.31505       	69.03646       	69.00885       	69.10622       	69.02248       	69.064156      	68.87791       	69.11531       	69.298325      	68.73563       	68.85935       	69.11337       	69.017525      	69.02282       	69.12172       	69.12765       	70.17683       	67.73222       	68.83135       	69.10233       	68.95387       	69.10689       	69.16711       	69.97959       	67.95379       	69.2319        	69.10465       	69.01534       	68.80938       	69.20989       	69.10607       	69.091774      	68.87315       	69.27711       	68.7429        	68.16932       	69.76573       	70.20327       	
69.35941       	68.94896       	68.938065      	69.220184      	69.19371       	68.882454      	68.926216      	69.96562       	68.177475      	69.049995      	69.221596      	69.138054      	68.83077       	68.79141       	69.34963       	68.87885       	69.10271       	69.21282       	68.633575      	69.156906      	68.8733        	69.35886       	68.86841       	68.9672        	69.727         	71.18928       	66.78369       	68.959885      	68.90861       	69.46387       	68.94758       	68.69281       	69.13044       	69.02717       	68.91152       	69.401924      	68.93923       	68.987045      	69.13941       	68.93923       	70.00483       	67.79801       	69.147125      	69.09277       	68.876015      	69.131165      	69.23933       	68.98154       	69.08535       	68.853874      	69.26753       	68.9796        	69.020905      	69.12508       	69.40584       	68.80565       	68.98099       	69.13486       	68.97001       	69.042984      	68.99708       	69.06339       	69.49706       	69.09944       	68.72966       	69.024864      	69.46622       	68.527405      	69.2254        	69.25274       	69.02494       	68.87531       	68.96717       	69.05269       	69.19924       	68.89827       	69.14413       	68.98693       	68.79548       	69.12743       	69.00628       	69.1573        	69.23145       	68.83078       	69.05767       	69.13182       	68.99706       	69.20068       	68.967224      	68.95702       	69.42069       	69.142624      	68.842964      	68.82074       	69.03009       	69.25671       	69.26979       	68.68464       	68.45419       	68.574         	
69.28311       	68.946655      	69.031525      	68.7423        	69.02608       	69.0858        	69.191734      	68.9743        	69.05607       	69.57706       	68.85449       	68.934044      	69.097084      	68.746956      	68.9121        	69.37076       	69.36354       	68.727005      	68.998795      	69.20479       	69.04172       	69.0286        	69.17993       	68.93326       	69.138         	70.46187       	67.89286       	69.027626      	68.97173       	69.18022       	69.255066      	68.86774       	68.8907        	68.85241       	69.440216      	69.2481        	69.06138       	68.8935        	68.973335      	69.41833       	68.69552       	69.0614        	69.19155       	68.87353       	68.9986        	68.945496      	69.34285       	68.74254       	69.3865        	69.05356       	69.01086       	69.040794      	69.35028       	69.030655      	69.00022       	69.31219       	68.80981       	69.09823       	69.02368       	70.35842       	68.453415      	68.56846       	68.91624       	69.34416       	68.723465      	69.09301       	69.28619       	68.89135       	68.96916       	69.006615      	68.84539       	69.15717       	69.114296      	69.08936       	69.04408       	68.97227       	69.125496      	68.83986       	68.96551       	69.31033       	68.957726      	69.12394       	69.280914      	69.02532       	68.73634       	69.40764       	69.024414      	68.84659       	69.14483       	68.86283       	68.94894       	69.28677       	69.145836      	68.867714      	69.042885      	69.45052       	68.724655      	68.71167       	68.26035       	68.992004      	
69.20039       	69.084694      	68.98257       	69.1287        	68.783936      	69.469376      	68.9015        	69.087906      	69.18632       	69.22144       	69.05089       	68.88796       	69.17983       	68.859665      	69.0999        	69.18805       	69.026306      	68.90889       	69.3511        	68.994286      	68.827835      	68.91982       	70.58581       	67.64762       	69.33577       	69.23904       	68.987625      	69.237076      	69.1283        	69.25512       	68.55025       	69.11592       	68.61338       	69.35104       	68.928825      	68.921616      	69.16729       	69.083206      	68.98016       	69.070526      	69.01462       	69.265205      	69.22252       	68.852196      	69.030045      	69.02439       	69.15787       	68.9963        	69.088455      	68.89434       	69.41842       	68.955925      	69.31093       	69.05504       	68.964066      	69.06871       	69.13237       	69.00676       	68.98829       	69.87947       	70.16971       	67.41271       	68.99246       	69.183846      	69.19981       	68.958046      	69.06446       	69.88678       	68.13745       	69.024956      	69.12977       	68.6889        	68.88274       	69.17468       	68.90663       	69.0713        	70.07256       	69.58005       	66.68658       	69.25315       	69.23673       	68.79343       	69.1572        	69.13801       	68.57643       	69.18751       	69.28069       	68.99202       	69.22289       	68.82676       	69.16483       	69.104675      	68.88893       	68.78284       	69.074005      	69.339714      	69.00763       	68.32474       	68.2755        	68.90437       	
69.20542       	69.298454      	68.94428       	69.112236      	70.77057       	68.570915      	67.17285       	68.955696      	68.82107       	69.241035      	69.00041       	69.15609       	69.41006       	68.77313       	68.652         	70.4831        	67.550545      	69.309944      	69.172775      	69.06435       	68.90452       	68.82864       	69.17892       	69.187744      	69.16981       	69.23252       	68.882225      	68.84219       	69.722374      	68.609146      	69.33333       	68.83962       	69.430595      	68.66108       	69.0968        	69.111755      	68.998726      	68.78696       	69.24707       	68.78405       	69.250565      	69.109215      	69.26284       	68.72732       	68.991165      	69.17007       	69.00392       	69.00754       	69.1288        	69.0917        	69.24991       	69.05886       	69.001396      	69.349144      	68.90469       	68.99817       	69.369095      	70.6652        	67.43259       	68.82813       	68.929184      	69.24002       	68.982574      	68.75311       	69.02932       	69.66361       	68.68605       	68.79936       	69.084694      	69.23933       	68.837585      	69.1863        	68.94705       	69.11909       	68.74146       	69.16328       	69.269424      	70.16708       	67.451256      	69.21909       	69.10286       	69.04308       	69.02727       	69.07678       	69.0694        	68.96345       	69.138084      	69.045494      	68.89048       	69.04313       	69.1139        	69.16915       	69.845535      	67.77166       	68.74609       	69.31941       	68.64252       	68.3497        	68.75751       	68.58795       	
69.21968       	68.71185       	69.14298       	71.19282       	70.277794      	68.92017       	67.49424       	67.47404       	69.068405      	69.18934       	69.14782       	69.06107       	68.999146      	68.93678       	68.88218       	68.94066       	69.07627       	69.18568       	69.18698       	68.9175        	69.26102       	68.83322       	69.1251        	69.05457       	69.25299       	69.32327       	68.85334       	68.92099       	70.54682       	67.703156      	69.06218       	68.95606       	69.03653       	69.459496      	68.82323       	68.96298       	69.09973       	69.15397       	69.359474      	68.984764      	68.872604      	68.98079       	69.0707        	69.06171       	69.14448       	69.08071       	69.00642       	69.32262       	69.10942       	68.87214       	69.293594      	69.28012       	68.94403       	68.97921       	69.07062       	69.45738       	68.953224      	70.14408       	67.94297       	69.20816       	69.23091       	69.00665       	68.64488       	69.04666       	69.09121       	69.3678        	68.847244      	69.14612       	69.286644      	68.95442       	68.891624      	69.18094       	68.89097       	68.97006       	69.19149       	68.96438       	68.935776      	69.13244       	68.87139       	69.09705       	68.98572       	69.32888       	69.020294      	69.07525       	68.86311       	69.11185       	69.189095      	69.54895       	68.077         	69.14089       	69.0099        	70.27483       	71.24233       	65.91542       	69.04245       	68.79688       	68.92824       	69.37599       	68.17237       	67.76161       	
69.18629       	69.06967       	69.09497       	70.61982       	69.922005      	68.29447       	68.93776       	67.85251       	68.900925      	69.08424       	69.1737        	69.00222       	69.04356       	68.84129       	69.98261       	68.05004       	69.35493       	68.81813       	70.13924       	68.13435       	68.8171        	69.08974       	69.21175       	68.88091       	69.26741       	68.95672       	69.18126       	68.99932       	68.81939       	69.37993       	69.020485      	68.78264       	69.15922       	69.05859       	69.06067       	69.220795      	69.46453       	68.66604       	69.01816       	68.966805      	69.12423       	68.72382       	69.121895      	68.84504       	69.62259       	68.42513       	69.03219       	69.16544       	69.47253       	68.72887       	69.02402       	69.310974      	70.66065       	67.512276      	68.85074       	69.29453       	69.20566       	68.95649       	69.5406        	68.80711       	69.218796      	69.25658       	68.95158       	68.93059       	68.94452       	68.97169       	69.23489       	68.8598        	69.42232       	69.07812       	69.09341       	68.88445       	69.2449        	68.80116       	68.99125       	69.067635      	68.997345      	68.75081       	69.303314      	69.16181       	68.650696      	69.216934      	69.05742       	68.304016      	69.98999       	67.91634       	69.08738       	68.99818       	69.38518       	68.71843       	68.989746      	69.32778       	69.39944       	68.728165      	68.97852       	68.53642       	68.72919       	69.90569       	69.780945      	68.02761       	
69.21573       	68.905914      	68.85909       	69.54639       	69.29197       	69.03021       	69.056816      	69.09004       	68.76341       	69.38511       	69.096535      	68.840034      	69.02259       	69.246994      	69.17284       	68.04976       	69.0427        	68.97747       	69.30663       	68.7282        	69.14883       	68.90951       	68.83417       	69.3809        	68.91024       	69.0689        	69.07869       	68.96429       	68.82482       	69.786156      	68.21134       	70.244995      	69.13425       	66.98065       	69.20975       	69.26437       	69.12257       	69.1106        	69.50557       	68.16258       	69.04503       	68.75202       	69.03577       	70.00069       	71.1729        	68.69063       	66.62727       	68.93656       	69.29385       	69.06469       	69.07339       	68.907585      	70.00704       	68.00405       	69.72622       	68.792694      	68.770966      	69.16966       	69.40482       	68.8745        	69.150696      	69.25816       	69.07269       	68.67843       	69.02883       	68.96681       	69.12596       	69.31073       	69.65338       	68.54993       	68.8919        	68.969765      	69.80485       	68.15191       	68.98295       	69.1321        	69.22009       	68.732216      	70.266205      	69.18643       	67.9714        	69.053696      	69.19244       	69.27829       	68.67396       	69.043076      	69.098564      	69.44941       	68.93483       	69.35277       	68.447754      	69.00071       	69.117004      	69.22772       	69.259445      	68.69314       	68.60332       	68.22933       	68.43756       	68.367584      	
69.25102       	69.20006       	69.28579       	69.09203       	69.232765      	69.110374      	69.08017       	68.85554       	69.0852        	68.26532       	69.33858       	68.93186       	69.217125      	68.92391       	69.35769       	68.96615       	69.1594        	69.027725      	68.7793        	68.998055      	69.30942       	68.83722       	68.97825       	69.06396       	69.01054       	69.15174       	68.87257       	69.33203       	69.00245       	69.13818       	68.92239       	69.29488       	68.766556      	68.878296      	69.36033       	69.1016        	69.1974        	68.942406      	69.06448       	69.24191       	68.833435      	68.84952       	69.11107       	68.89207       	71.31224       	69.767075      	67.04716       	67.87763       	69.34787       	69.05309       	69.194176      	69.05256       	68.91505       	69.14906       	69.18901       	68.84135       	69.10472       	69.38555       	68.87727       	69.279884      	68.3296        	69.03286       	69.26404       	68.886246      	69.043396      	68.92204       	69.208466      	68.93325       	69.137085      	69.27392       	68.75146       	68.994835      	69.36575       	68.80805       	69.08299       	68.77798       	68.79421       	69.02458       	71.036606      	69.4899        	66.91715       	68.818016      	69.0939        	69.12502       	68.910324      	69.135704      	68.95303       	68.59524       	69.25901       	68.98995       	69.12595       	68.11733       	69.2667        	68.92612       	69.34116       	69.24384       	68.5226        	67.92443       	68.18937       	68.82044       	
68.99943       	69.117676      	69.363106      	69.07484       	69.140175      	69.10471       	69.09692       	68.93421       	69.053215      	68.92596       	69.05227       	69.07394       	69.14972       	69.01354       	68.98457       	69.288994      	69.17677       	69.08224       	68.82936       	68.99888       	69.264145      	69.252495      	68.75473       	69.197624      	69.12294       	69.074104      	68.745636      	69.46734       	69.01247       	69.15727       	69.14624       	68.78651       	69.16421       	69.09448       	69.266396      	68.779945      	69.04556       	69.052475      	68.983894      	69.26528       	68.70725       	69.00076       	68.99375       	69.04699       	69.27214       	69.37433       	68.50583       	68.92525       	69.09075       	68.9031        	69.2811        	69.02733       	69.04279       	69.22011       	69.0648        	68.842415      	68.9051        	69.22538       	69.19585       	69.18921       	69.03364       	69.14761       	68.82825       	69.32822       	68.92078       	69.14152       	69.618546      	70.55119       	68.3097        	67.49409       	69.14749       	68.98255       	68.975296      	68.9722        	69.73718       	68.21095       	69.13036       	68.75543       	68.94223       	69.504         	68.563194      	69.17753       	69.34743       	68.67287       	69.04459       	68.91584       	69.0312        	69.09751       	68.98911       	69.13449       	69.097015      	68.90176       	68.97847       	68.92651       	69.411545      	69.102264      	68.24132       	68.589226      	68.83708       	68.55684       	
69.882996      	69.57327       	68.80227       	69.02362       	69.01998       	69.18204       	68.954666      	68.766624      	69.27505       	68.71984       	69.08915       	69.10789       	69.60949       	68.839226      	69.31818       	68.80484       	70.10123       	68.03871       	68.53316       	69.09435       	69.01558       	69.4584        	68.797745      	68.863106      	69.190445      	69.10016       	69.51747       	69.76624       	67.75914       	68.933426      	68.91812       	69.60723       	68.85791       	68.83538       	69.12744       	68.69689       	69.48168       	68.93719       	69.34803       	68.75677       	68.69707       	69.08296       	69.15659       	69.05512       	69.01569       	69.435455      	68.88962       	69.19417       	69.501335      	68.16176       	69.22965       	69.27924       	68.88578       	69.22478       	68.88001       	69.11188       	69.44642       	68.81869       	69.32151       	68.89649       	68.94352       	69.42741       	69.02504       	68.63131       	69.17218       	69.08963       	69.064804      	71.34936       	69.31257       	66.977554      	68.96437       	68.7178        	69.21366       	69.007164      	68.71035       	69.0734        	69.232216      	68.57199       	69.038055      	69.22454       	68.97481       	69.16238       	69.05651       	68.87073       	68.95007       	68.95187       	68.92529       	69.1191        	68.863945      	69.28283       	69.48526       	68.41871       	69.04514       	68.870804      	69.3949        	69.27446       	68.681435      	68.60984       	68.53088       	68.54875       	
68.67556       	69.20856       	69.298225      	68.87986       	69.01394       	68.933945      	69.29708       	69.13972       	68.55726       	69.05348       	69.23393       	68.98647       	69.07007       	69.47617       	69.24913       	68.89828       	68.826195      	68.93293       	69.05355       	68.89238       	68.953995      	68.91813       	68.917755      	69.17697       	69.11156       	69.04161       	69.03          	70.24329       	68.32512       	68.66407       	68.56672       	69.09921       	69.05484       	68.933304      	69.14003       	69.19311       	69.01172       	68.97185       	69.110016      	69.11403       	69.16428       	68.949615      	69.13339       	68.75098       	69.51838       	68.9523        	68.90439       	69.21846       	69.10873       	68.903725      	69.18941       	69.10078       	69.00502       	69.29364       	69.05164       	68.8479        	69.16021       	69.12059       	69.20966       	68.68079       	68.97231       	69.36524       	68.90067       	69.19673       	68.84121       	69.44347       	69.0211        	69.23233       	69.35856       	68.882355      	68.72093       	70.32711       	69.33853       	67.49563       	69.08387       	69.23487       	68.999535      	69.03472       	68.54986       	69.179436      	69.352455      	69.25485       	68.803566      	69.0529        	68.956154      	68.86821       	69.02392       	69.13427       	68.76072       	70.395256      	70.48937       	66.72207       	68.65588       	69.32192       	68.64774       	68.73203       	68.86974       	68.58752       	68.23888       	68.65962       	
69.075966      	69.06521       	68.889824      	69.20383       	69.28364       	68.53139       	69.0745        	68.87688       	69.423584      	69.854965      	68.04153       	68.79265       	69.34224       	69.15864       	69.552284      	68.67919       	69.086754      	68.83107       	69.02053       	69.19953       	69.179756      	68.948746      	68.9505        	69.14427       	69.016396      	68.92389       	69.15768       	69.08497       	71.34937       	69.07999       	67.0159        	68.93437       	69.1886        	69.024925      	69.2323        	68.80009       	69.036896      	69.16923       	68.94687       	69.03047       	69.02028       	69.08618       	68.96991       	68.90529       	69.26379       	69.29682       	69.083046      	69.215706      	68.76923       	69.205666      	69.11355       	69.03832       	69.30343       	69.018295      	69.11337       	69.02651       	68.99058       	69.09308       	69.18245       	70.798454      	67.02217       	69.33966       	68.92446       	69.95425       	68.35947       	69.18049       	68.75543       	69.36799       	68.8934        	69.384224      	68.76304       	69.43586       	70.24097       	67.108826      	68.9193        	69.13628       	68.78621       	69.20889       	69.16634       	68.93954       	69.35092       	69.020905      	68.648285      	69.02664       	69.40254       	69.04138       	69.20327       	68.98033       	69.11188       	69.058464      	69.57725       	68.78182       	68.97281       	68.889366      	69.39904       	68.39092       	67.35103       	68.66397       	68.66415       	68.64649       	
69.75438       	69.217995      	69.14747       	68.945915      	68.705215      	69.32301       	68.83604       	68.834         	70.58693       	70.52888       	68.68786       	66.77168       	69.1961        	69.24489       	68.95646       	69.28544       	69.07249       	68.9083        	69.07437       	69.23903       	68.77541       	69.24825       	69.14076       	68.84917       	68.94216       	69.16041       	68.85742       	69.13277       	70.15388       	69.18239       	67.97119       	68.953766      	69.111984      	69.01911       	69.08522       	68.89746       	68.9651        	68.919685      	70.927505      	68.29242       	67.997444      	69.29796       	68.44878       	69.02183       	68.99055       	69.343346      	68.89378       	68.789665      	69.68393       	68.97798       	69.22044       	68.93085       	68.95115       	69.20962       	69.03989       	69.252304      	69.46021       	68.47786       	69.09662       	69.457085      	68.681335      	69.12126       	69.167595      	69.4505        	69.937706      	67.56804       	69.47744       	68.99029       	68.964676      	69.10931       	69.298134      	68.69049       	68.81906       	69.03704       	70.30068       	67.83288       	69.12726       	68.88724       	69.494705      	68.69182       	68.87448       	69.0415        	68.77392       	69.15797       	69.1762        	69.44406       	69.111755      	69.06314       	69.054146      	68.91245       	69.0449        	69.21442       	69.36192       	68.68733       	68.831055      	68.924904      	68.27966       	68.710846      	68.59454       	68.45633       	
69.23224       	68.899956      	69.12522       	69.47036       	68.858574      	68.679695      	69.23098       	68.887115      	69.860634      	71.3715        	68.93631       	66.98173       	68.78177       	68.90375       	69.72223       	68.64675       	69.04711       	69.024124      	69.029945      	69.095314      	68.907         	69.532555      	68.53748       	69.051384      	68.852974      	69.21571       	69.068985      	69.23239       	69.051865      	69.02381       	68.77459       	69.19958       	69.16111       	68.92917       	69.05421       	69.15636       	69.00725       	69.153435      	68.81493       	69.7626        	68.54978       	68.90933       	69.117714      	68.890816      	69.273285      	69.83468       	68.32434       	68.890236      	68.991104      	69.12834       	69.59751       	68.4876        	69.083336      	68.896835      	69.17012       	69.46311       	68.41565       	68.97488       	69.17007       	68.89069       	68.97134       	69.19404       	69.108475      	68.94822       	69.174774      	68.90881       	69.65011       	68.275826      	69.2988        	68.98966       	69.20474       	68.82955       	69.172134      	69.061714      	68.93415       	68.854034      	69.22555       	69.02978       	69.034134      	69.186         	68.950005      	68.9293        	69.12522       	69.1011        	68.914856      	68.896355      	69.24776       	69.415115      	69.07267       	68.80285       	69.29357       	69.1386        	68.84436       	69.06548       	69.18783       	68.807724      	68.63738       	68.453964      	68.61749       	68.61484       	
69.06208       	69.183304      	69.06143       	69.03718       	69.08384       	69.10148       	69.03068       	68.783646      	69.236565      	69.98206       	69.01906       	68.45988       	69.22595       	68.67689       	69.2451        	69.05046       	69.07136       	69.13202       	69.08276       	68.884766      	69.29318       	68.91848       	69.0398        	69.0253        	69.01496       	69.22584       	69.18482       	68.90857       	69.44372       	68.93285       	70.12647       	67.99525       	69.57126       	68.12125       	69.18978       	69.210945      	68.88917       	69.88624       	67.92612       	68.917946      	69.33112       	69.073944      	68.966034      	69.16866       	69.07154       	69.178604      	69.22955       	69.01213       	69.13483       	68.69366       	69.20671       	69.17786       	69.08545       	69.19106       	68.80696       	69.21638       	68.91159       	68.837524      	69.27469       	69.150795      	69.18429       	68.96394       	68.870766      	68.884         	70.08026       	68.43633       	68.82387       	68.96096       	69.07689       	69.33278       	68.61824       	68.88576       	69.23399       	68.85611       	69.13838       	69.162384      	68.99228       	68.86909       	69.27677       	68.823425      	69.0306        	69.134575      	69.23048       	68.880516      	68.80322       	69.30957       	69.21517       	69.23518       	69.37431       	69.07747       	68.86423       	69.60108       	70.10464       	67.13337       	68.597374      	68.87079       	68.73198       	68.72391       	68.573265      	68.53137       	
69.37168       	69.11848       	69.03469       	69.18613       	69.16773       	68.96804       	69.10791       	69.04563       	68.922485      	69.17551       	69.10289       	69.34833       	68.86129       	68.82933       	69.04159       	69.12513       	69.190636      	69.05569       	69.36813       	68.76471       	69.263115      	70.32636       	67.49984       	69.11289       	69.20094       	68.86368       	69.11623       	69.14993       	68.975         	69.13843       	68.86039       	69.1428        	69.6212        	68.31734       	69.05573       	68.821625      	69.286316      	69.03076       	69.019455      	69.05972       	69.12694       	69.102585      	68.998985      	69.090385      	69.129776      	69.163864      	69.371635      	68.76286       	69.25503       	68.812614      	68.83685       	69.42655       	68.92501       	69.17696       	69.08578       	68.94706       	69.35708       	68.96683       	68.81125       	69.38074       	68.96352       	69.22625       	69.121506      	68.99514       	69.73339       	68.70822       	68.53168       	68.900894      	68.809074      	69.232834      	68.97422       	69.314804      	69.144165      	69.328094      	68.68661       	69.08448       	69.15853       	69.16613       	68.652374      	69.27879       	69.02368       	69.78343       	68.42695       	69.02573       	69.16018       	68.95397       	69.416885      	68.6597        	69.37373       	69.19466       	68.963715      	70.11446       	70.47241       	67.63481       	67.20952       	68.754524      	68.71261       	68.5798        	68.46896       	68.71695       	
69.36464       	69.141396      	68.9855        	69.26482       	68.9914        	68.80688       	70.18825       	68.02114       	68.75666       	69.27336       	69.24445       	68.92463       	69.26198       	68.82592       	69.09252       	69.00194       	68.94387       	69.158         	69.23833       	68.86016       	69.48308       	68.97842       	68.70682       	69.75489       	68.60429       	68.94546       	69.00687       	68.9452        	69.29707       	69.147125      	69.06673       	68.83942       	69.13974       	68.92881       	69.529915      	68.280716      	69.18498       	69.286354      	69.07247       	68.833084      	69.36734       	68.88275       	69.17002       	68.95465       	69.03457       	69.09931       	69.287865      	68.82307       	69.17489       	69.00386       	69.13968       	69.10497       	69.14279       	69.17451       	68.91223       	69.238785      	69.01586       	69.3002        	68.71009       	69.18118       	69.324684      	69.10209       	69.0594        	69.32472       	68.73072       	68.9912        	69.915245      	67.99464       	68.90501       	69.0606        	69.07477       	69.29249       	68.91735       	68.94431       	69.11568       	68.905174      	69.27234       	69.05011       	69.142624      	69.48146       	68.72288       	69.24113       	68.87305       	69.07435       	68.917244      	69.266716      	68.991325      	69.19303       	69.16558       	69.25286       	69.031136      	68.9853        	69.63221       	68.58384       	68.65107       	68.890884      	68.79305       	68.70658       	68.14754       	68.260635      	
69.517784      	68.934555      	68.86861       	69.71454       	68.33322       	69.138596      	68.9597        	68.98835       	69.27528       	68.93622       	68.97648       	68.94312       	69.33616       	69.30439       	68.56731       	69.03402       	69.20238       	69.19289       	68.951256      	68.83791       	69.4158        	69.22885       	68.70083       	69.14148       	69.22715       	68.908516      	69.07525       	68.8768        	68.96578       	69.12008       	69.36407       	68.78303       	69.00001       	69.30939       	68.90509       	68.765564      	69.03917       	69.337906      	69.376396      	70.44629       	69.10503       	67.18314       	69.29971       	68.91268       	69.144196      	69.10341       	69.13894       	69.04677       	69.325         	68.9244        	69.28454       	68.54243       	69.01023       	69.213615      	68.93466       	69.3674        	68.547165      	69.12989       	69.1535        	69.085464      	69.25296       	69.25963       	69.16286       	68.9388        	69.225395      	68.41869       	68.93151       	69.297066      	68.88244       	69.191734      	69.01953       	69.10485       	68.858536      	69.04268       	69.16292       	69.011696      	69.726295      	68.726105      	68.919624      	69.06544       	68.96866       	69.19976       	68.9844        	69.17053       	68.95279       	68.96117       	69.29403       	69.073586      	69.06153       	69.22759       	69.232895      	68.82736       	68.91947       	69.209816      	68.86102       	69.34448       	68.61754       	68.633064      	68.349815      	68.252365      	
69.131294      	69.19253       	69.129425      	68.94935       	69.052765      	69.013565      	69.06756       	69.22862       	68.80914       	69.29827       	68.78866       	68.88093       	69.33172       	69.21944       	68.63432       	69.25125       	68.986206      	68.91789       	69.15843       	68.92947       	69.0245        	69.277374      	70.20347       	69.493866      	67.769226      	68.613396      	70.75569       	69.53523       	66.84464       	69.08459       	69.01703       	68.77286       	69.165115      	69.145355      	69.027306      	68.97279       	69.34924       	68.83977       	69.03858       	70.66834       	69.69302       	67.058235      	68.9647        	69.30376       	69.11948       	69.75895       	68.067154      	68.97518       	68.936745      	69.470146      	68.7828        	69.215454      	68.87943       	69.111626      	69.14034       	69.12751       	69.14381       	68.798004      	69.240776      	69.14962       	69.27776       	69.04179       	69.18877       	69.14341       	68.84031       	69.1782        	69.609634      	68.2387        	69.048515      	68.6612        	68.99161       	71.58381       	65.78053       	68.834015      	69.11339       	69.2726        	69.04482       	68.68682       	69.521065      	68.95548       	68.944885      	68.95952       	70.74352       	68.940544      	67.45737       	68.80686       	69.67884       	68.85128       	68.92405       	69.20589       	68.79333       	69.091354      	69.10716       	68.904106      	69.35134       	68.61953       	68.366554      	68.83798       	68.30158       	67.971535      	
69.18183       	68.8744        	69.504585      	68.833855      	68.978836      	69.17889       	68.917206      	69.32795       	68.82047       	69.01299       	69.21226       	68.55907       	69.05848       	69.28281       	69.18187       	68.92965       	69.01373       	69.40384       	68.56726       	69.06001       	69.125595      	68.96581       	71.69108       	69.65116       	67.69652       	67.358444      	69.15996       	70.2575        	67.66648       	69.14765       	68.83426       	69.218506      	68.91673       	69.07372       	69.18222       	68.96838       	69.38088       	69.00627       	68.865166      	69.35173       	69.19766       	68.77769       	69.18984       	69.12245       	69.268074      	68.77987       	69.03228       	69.18429       	69.02909       	69.16595       	69.336685      	68.48209       	69.01282       	70.8507        	67.16383       	69.144806      	68.99072       	69.01205       	68.861015      	69.491005      	69.08927       	69.225334      	68.83452       	69.25818       	69.17711       	68.92852       	69.08904       	69.09422       	68.983215      	69.09859       	69.20684       	69.02577       	68.98606       	69.11512       	69.082985      	69.2263        	68.83203       	68.81685       	69.485146      	69.00137       	68.93359       	69.80328       	71.37664       	69.279175      	67.6256        	67.34903       	69.09934       	69.02293       	69.095695      	69.02436       	69.02938       	69.00145       	69.040184      	69.31014       	71.090126      	68.77629       	65.89728       	67.84901       	68.82681       	68.73531       	
70.01676       	68.84428       	69.449104      	68.817505      	69.258316      	69.00097       	69.1393        	69.06136       	69.35119       	68.79262       	69.08626       	68.74697       	69.24092       	69.487045      	69.17155       	68.84426       	69.21008       	68.85076       	68.927956      	68.987305      	69.07662       	69.143326      	69.64938       	70.47182       	68.49375       	67.8875        	68.891045      	69.43888       	69.025986      	69.10463       	68.92144       	68.71178       	69.125435      	68.60742       	69.19209       	69.0351        	69.10231       	69.22606       	68.65534       	69.12295       	69.29434       	69.21872       	68.95798       	69.23023       	69.101746      	68.98664       	68.95455       	69.126         	69.31907       	69.25022       	68.83482       	68.98285       	69.18392       	69.16443       	69.16293       	69.10012       	69.004814      	68.94416       	69.31932       	68.804474      	69.29259       	69.12852       	68.90705       	69.23636       	68.537384      	68.9152        	69.15779       	69.000084      	68.91787       	69.07486       	69.20404       	69.055084      	69.01238       	69.32829       	68.95137       	69.224915      	68.89937       	68.98168       	69.11662       	69.055374      	69.04634       	69.15705       	71.02565       	69.860016      	67.90445       	67.415344      	69.114784      	68.93608       	68.90206       	69.342545      	68.81325       	69.230774      	69.073456      	68.9151        	70.3325        	70.14208       	66.5658        	67.5182        	68.552444      	68.58326       	
69.19457       	69.11971       	69.20059       	68.90476       	69.05831       	69.2964        	68.75844       	69.09762       	69.34629       	69.04865       	68.789505      	69.206604      	69.21867       	69.23527       	68.734055      	69.105225      	70.23883       	67.375374      	68.79011       	69.06856       	69.09148       	68.83792       	69.84351       	68.11172       	69.14923       	69.21065       	69.25671       	68.74657       	68.89113       	70.74085       	67.465546      	69.12358       	68.97727       	68.83674       	69.03848       	69.28821       	69.08501       	69.65415       	68.34035       	68.972694      	69.37825       	68.71678       	69.305756      	69.22642       	68.96499       	68.915794      	69.1515        	69.25286       	68.974174      	68.98089       	69.2974        	68.93285       	69.10269       	69.00136       	68.96655       	69.036         	69.06183       	68.88052       	70.544975      	68.14702       	68.76692       	68.92118       	69.1158        	69.36605       	69.06364       	69.01382       	69.02755       	68.83093       	68.94885       	69.095726      	69.25975       	68.709015      	69.16109       	69.07938       	69.00958       	69.21005       	69.26367       	68.99727       	69.10511       	68.82742       	69.06275       	68.945854      	69.11834       	69.74922       	68.66514       	69.14997       	68.93575       	69.224396      	69.23607       	68.56854       	69.24868       	69.32643       	68.76499       	68.75975       	69.34733       	69.28476       	68.78193       	68.434074      	68.64109       	68.693         	
69.155426      	69.172104      	68.86913       	69.00409       	69.27371       	68.914085      	69.28898       	68.94575       	69.16965       	69.27496       	68.419235      	69.42565       	68.96179       	69.24843       	69.01273       	68.58042       	71.36565       	68.19012       	68.32771       	68.880455      	69.11757       	69.09153       	69.17555       	69.02885       	68.974594      	69.40767       	68.82522       	69.262054      	69.17396       	68.7459        	69.050896      	69.18941       	68.96035       	68.803055      	68.790375      	69.45033       	68.8917        	69.38516       	68.52937       	69.07241       	69.04655       	69.297775      	69.00309       	69.117096      	69.0522        	69.03088       	69.14243       	68.96741       	69.01901       	70.24269       	68.585495      	68.38716       	68.98821       	69.18117       	69.069885      	68.57986       	69.166794      	68.95326       	69.42442       	69.19679       	68.58205       	69.07748       	69.19065       	69.034355      	69.36397       	69.15745       	68.68096       	69.15159       	69.25632       	68.81751       	69.16511       	68.91484       	68.750916      	69.294624      	69.10132       	68.941345      	70.84337       	67.230965      	69.15263       	69.1135        	69.205666      	68.80315       	69.035515      	69.400826      	69.06345       	69.03559       	69.038         	69.12312       	68.82184       	69.07167       	68.92103       	69.63393       	68.51646       	68.87068       	69.03463       	68.91766       	68.84187       	68.698555      	68.97401       	68.53705       	
69.29519       	69.0088        	69.20466       	68.88637       	69.27003       	68.95793       	69.206726      	69.14628       	69.09344       	69.18706       	68.90551       	68.91693       	68.88476       	69.29346       	69.53278       	68.70786       	69.07369       	68.81746       	69.327675      	69.06419       	68.74752       	69.243355      	69.387         	68.802246      	69.10423       	69.16767       	68.787994      	69.38161       	68.832596      	69.16773       	69.14183       	69.018364      	69.13768       	68.921005      	69.092155      	68.79716       	69.50764       	68.748         	69.17157       	69.2036        	69.145584      	69.192856      	69.06846       	69.06642       	68.90533       	68.8688        	69.45325       	68.79255       	69.67026       	71.47733       	69.32708       	67.50504       	67.34819       	68.921005      	69.14353       	69.13323       	69.096565      	68.785904      	69.08002       	70.05289       	68.23033       	69.01981       	68.71795       	69.1407        	69.41075       	68.74306       	69.14614       	69.00269       	69.10014       	69.055786      	69.02187       	69.0647        	69.01652       	68.79997       	69.08019       	69.3095        	68.9085        	69.04462       	69.52779       	68.644745      	69.07816       	68.854065      	70.64841       	67.91846       	68.83958       	69.21165       	69.212906      	69.16077       	68.84414       	68.99304       	68.899086      	68.71616       	69.03595       	69.22105       	69.15602       	68.88127       	68.81448       	68.67987       	68.55999       	68.53981       	
69.51547       	68.61715       	68.850044      	69.26863       	69.06417       	69.135086      	69.2183        	69.11764       	68.956314      	69.11508       	68.885284      	68.96993       	69.16684       	69.25713       	68.5963        	69.18184       	70.042046      	70.006454      	67.124374      	68.792114      	69.01329       	69.20904       	69.15237       	68.936295      	68.88671       	69.26172       	69.14434       	69.36699       	68.82195       	69.44813       	68.598404      	69.13167       	69.13266       	68.950455      	68.89953       	69.394714      	69.05422       	69.09055       	69.01911       	68.90936       	69.0894        	69.44811       	69.06494       	68.896065      	68.94598       	69.15051       	68.9428        	69.09102       	69.97524       	71.3344        	69.82076       	67.62975       	66.38622       	68.84055       	69.20229       	68.74204       	69.076584      	69.01004       	69.268906      	68.89089       	69.14745       	69.189316      	68.96438       	69.03941       	69.74854       	69.915565      	67.63917       	68.90426       	69.10102       	69.04418       	69.02571       	69.20195       	69.112686      	69.151764      	68.73493       	69.2361        	69.12895       	69.114334      	69.152756      	68.9253        	69.037254      	69.02801       	69.41847       	69.09122       	68.73612       	69.14279       	69.11119       	69.66759       	69.27447       	68.29173       	68.49094       	68.98982       	69.02918       	69.003716      	69.249214      	69.23346       	68.69197       	68.67158       	68.32947       	68.29166       	
69.69672       	66.46643       	69.21415       	69.18785       	68.822395      	68.990746      	69.34856       	69.14943       	70.15917       	69.97773       	67.7454        	67.84147       	68.81857       	69.0364        	69.11117       	68.95449       	69.46679       	70.45937       	67.495766      	68.74306       	69.06188       	69.21286       	69.11773       	69.17495       	69.2785        	68.65067       	69.02801       	69.05954       	69.29466       	69.11194       	69.005936      	69.058556      	68.68173       	68.917076      	68.99599       	68.954475      	69.353775      	69.236115      	69.20061       	68.798935      	69.1404        	69.02598       	69.25261       	68.911316      	69.11412       	69.39373       	69.0315        	68.72292       	69.36059       	71.345314      	69.98099       	68.191444      	66.51706       	69.04141       	68.71821       	69.19067       	68.949554      	69.22205       	69.03786       	69.246635      	69.09283       	68.76221       	68.73659       	69.29272       	69.46019       	68.872734      	68.97787       	68.91335       	69.04619       	69.33104       	69.0288        	69.92619       	67.69056       	70.78455       	67.55246       	69.23931       	69.1685        	68.95903       	69.10537       	69.1817        	68.978615      	69.07497       	69.28996       	69.27514       	68.81989       	68.89673       	68.800415      	69.14999       	70.27283       	67.85608       	68.88974       	69.04452       	69.009895      	68.696304      	69.34798       	68.80774       	69.29111       	68.17211       	67.57203       	68.02617       	
69.67872       	67.97188       	69.32194       	69.1522        	68.97183       	69.06404       	69.443375      	68.78184       	70.585754      	70.93264       	68.27749       	66.22909       	68.948616      	69.075554      	69.149185      	68.98211       	69.21149       	68.96304       	68.83321       	69.20079       	68.99668       	69.39017       	68.97141       	68.87768       	68.91105       	69.18499       	68.96166       	69.246445      	68.91771       	69.22807       	68.99372       	69.19004       	69.27072       	68.42331       	69.10183       	69.37255       	69.33261       	68.98285       	68.8685        	69.10683       	69.082245      	69.29825       	69.04211       	68.89924       	69.15405       	69.03809       	69.22404       	69.1677        	68.51479       	69.06178       	69.55535       	68.61253       	69.05862       	69.180786      	68.96527       	69.124504      	69.14306       	68.978584      	69.11741       	70.51313       	67.45853       	68.894966      	69.17861       	69.18744       	68.94704       	68.77154       	69.32495       	70.19497       	67.49628       	69.11175       	69.54049       	68.88575       	68.94767       	69.33213       	68.92271       	69.23933       	68.83401       	68.89288       	68.83991       	69.07394       	69.04362       	68.79648       	69.39973       	69.21003       	69.06485       	68.77503       	69.61061       	68.81042       	69.207375      	68.95567       	68.67323       	69.26148       	69.60707       	68.39662       	68.9441        	68.991615      	68.643845      	68.7031        	68.868866      	68.73514       	
69.34452       	69.177505      	68.96851       	68.970116      	69.08919       	69.30787       	69.11425       	69.01912       	68.59513       	71.34984       	69.16188       	66.95416       	68.9152        	69.069336      	68.7995        	69.321915      	69.36612       	68.9598        	68.9661        	68.95187       	69.50332       	68.85778       	69.02151       	68.866806      	69.05557       	69.10983       	69.08517       	70.573586      	67.54489       	69.3033        	68.93675       	69.00435       	68.990364      	69.142334      	69.04218       	69.22806       	69.19355       	68.936554      	69.20158       	69.04776       	69.16387       	69.257256      	68.65448       	69.01294       	69.21919       	69.20926       	69.183846      	68.812515      	69.00862       	68.92887       	69.12822       	69.37206       	69.02328       	68.64578       	69.32332       	69.227135      	68.98163       	69.19594       	69.07457       	69.1958        	69.13115       	68.88555       	69.270164      	68.80772       	68.94692       	69.2357        	68.718544      	69.35372       	69.17837       	69.06643       	69.32883       	68.98431       	69.125         	69.18213       	69.08428       	69.06112       	69.158936      	69.26207       	68.89076       	68.66591       	68.908325      	69.24103       	69.07219       	69.117905      	69.93423       	68.22332       	69.29835       	68.84858       	69.095566      	69.02252       	69.03215       	69.344215      	68.75963       	69.079796      	68.94511       	68.93482       	68.774124      	68.562454      	68.877045      	68.431435      	
69.18006       	69.041466      	69.03513       	69.31018       	68.6535        	68.99695       	69.2218        	69.029465      	69.280754      	68.944244      	69.05547       	68.83455       	68.863335      	69.50004       	68.37146       	69.19896       	69.17243       	69.165184      	69.72689       	69.883865      	67.65464       	69.09249       	68.87751       	68.97217       	69.347275      	69.16767       	68.799904      	69.22905       	69.08662       	69.19488       	68.92925       	69.25713       	69.03663       	68.954056      	69.06417       	69.28291       	69.04692       	69.04683       	69.11592       	70.474335      	67.52273       	68.89526       	69.25882       	69.95968       	67.82105       	69.15997       	69.13536       	68.821686      	69.00083       	69.29648       	69.099945      	69.16239       	68.93657       	69.146835      	68.89653       	69.16503       	69.48027       	68.89805       	68.92329       	69.054276      	69.03041       	68.95458       	69.052345      	68.74243       	69.27776       	69.07781       	68.862404      	69.22291       	69.18225       	69.22001       	69.1627        	69.23237       	69.03538       	69.16342       	69.072975      	69.22382       	68.74121       	68.91104       	69.07967       	69.2564        	68.60179       	69.18648       	69.13833       	68.98749       	69.1745        	69.06875       	69.2023        	69.09012       	69.04441       	68.676346      	69.04549       	69.33896       	69.12527       	68.79066       	69.09462       	68.85313       	69.07764       	68.64167       	68.458435      	68.526825      	
69.121254      	69.22014       	68.927734      	69.2265        	69.19914       	69.029366      	69.357925      	68.998085      	69.15914       	69.06499       	69.03607       	68.96836       	68.71408       	68.86812       	69.42509       	69.22057       	68.829124      	69.31472       	68.87779       	70.09708       	67.95979       	68.66266       	69.20696       	69.31602       	68.58444       	69.27067       	69.11865       	69.29785       	68.84571       	69.49016       	68.71037       	68.99827       	68.94893       	69.05333       	69.32143       	68.91563       	69.13787       	69.034935      	69.38662       	69.08179       	69.14836       	68.83435       	69.353836      	69.09798       	69.085846      	68.68862       	69.399         	68.570595      	69.421425      	68.0914        	69.41466       	68.95607       	69.30143       	69.11529       	69.20326       	69.029594      	69.09836       	69.23123       	69.80859       	68.333275      	70.04493       	67.88499       	69.13715       	69.15849       	68.84536       	68.97373       	69.20669       	69.007904      	69.00146       	69.09651       	69.16243       	69.9437        	68.0697        	69.3886        	69.11702       	68.90428       	68.776344      	69.12469       	70.12384       	70.94101       	68.64208       	67.16579       	68.41138       	69.10583       	69.09175       	69.24513       	68.701965      	69.336395      	68.968605      	69.07875       	68.78797       	69.07912       	69.37902       	69.08555       	68.58873       	68.792534      	68.54046       	68.71579       	68.818474      	69.141396      	
69.25826       	68.998085      	69.01251       	69.03989       	68.73234       	68.92731       	69.41276       	69.089676      	68.28778       	68.96069       	69.149704      	69.04593       	68.86585       	68.81896       	69.264786      	69.21098       	69.09107       	69.12489       	69.05141       	69.11449       	68.98214       	69.073235      	68.832         	69.05393       	69.12517       	69.15608       	69.138115      	69.46988       	68.81501       	69.22887       	69.02121       	68.5889        	69.22768       	69.11955       	68.913086      	69.1066        	69.19538       	69.183105      	68.78884       	69.06624       	69.02324       	69.66429       	68.76084       	69.20692       	69.21547       	68.84666       	68.83397       	68.97581       	68.886604      	68.91074       	69.21819       	69.09992       	69.165634      	68.93391       	69.17555       	69.16462       	68.76007       	69.322365      	69.07984       	69.18458       	69.28303       	69.09623       	68.73328       	69.05673       	68.96105       	69.29891       	68.97019       	68.769905      	69.176636      	69.27514       	68.98217       	68.7937        	69.15206       	69.08657       	69.42083       	69.12343       	69.00523       	68.76789       	70.25373       	70.969635      	69.157776      	67.30895       	67.12064       	69.74136       	68.53634       	68.87926       	69.17257       	69.05191       	68.64928       	68.93806       	68.900665      	69.03768       	69.22084       	69.27967       	68.64254       	69.03131       	68.77914       	68.847885      	68.34893       	68.20766       	
69.012         	69.5546        	67.71003       	69.08587       	68.854126      	68.955124      	69.58454       	71.41046       	69.1044        	66.60233       	69.26763       	68.78536       	69.13951       	69.069336      	69.20611       	69.04907       	69.21405       	69.04683       	70.90645       	67.67615       	68.282         	69.59151       	68.48152       	68.93895       	69.31659       	69.59378       	68.48907       	69.17747       	69.10332       	69.05695       	68.84627       	69.29194       	68.93729       	69.11206       	68.79986       	69.320526      	69.10386       	68.73803       	69.294685      	69.01997       	69.11745       	69.113396      	68.82971       	69.188385      	69.10042       	68.958984      	69.14831       	68.70287       	69.0157        	68.99065       	69.14612       	68.91546       	68.94157       	69.61709       	68.88413       	69.04632       	68.85681       	69.31899       	68.99615       	69.34068       	68.75263       	69.362755      	68.68172       	68.936295      	69.016014      	68.95493       	70.28169       	67.796196      	69.29118       	69.18705       	68.90817       	69.10511       	69.140976      	69.10854       	69.031494      	69.08096       	68.930885      	69.09058       	69.343994      	71.01428       	69.61327       	66.85427       	68.23103       	69.54155       	70.14093       	67.28496       	69.30554       	69.06733       	69.16979       	69.272644      	68.97575       	69.1891        	68.54883       	69.27811       	68.96623       	68.5784        	70.40127       	69.9055        	66.039955      	65.69363       	
69.09542       	70.39113       	68.15074       	66.979256      	69.169586      	69.15105       	69.05952       	70.35347       	69.441765      	67.13315       	69.06183       	69.21491       	69.14869       	68.925095      	69.30533       	68.88011       	68.91912       	69.38107       	68.80545       	69.25839       	68.89307       	68.99483       	69.11098       	69.0993        	68.886665      	69.304726      	69.128586      	69.29211       	68.941246      	69.14864       	68.90288       	68.98776       	68.94624       	70.4155        	69.10765       	67.83941       	69.22118       	68.87458       	69.15366       	70.14508       	67.71916       	69.08273       	69.1754        	69.15488       	69.18478       	68.93014       	69.025505      	69.1822        	68.91924       	69.06769       	69.038315      	69.03972       	69.00385       	69.01537       	70.00871       	67.87739       	69.22117       	69.246315      	68.90168       	69.24065       	68.9565        	69.14205       	68.735146      	69.12287       	69.22234       	68.978516      	68.963104      	69.09025       	69.098785      	69.3062        	69.00993       	69.00199       	69.10444       	69.07966       	69.09762       	69.2033        	68.96644       	68.91701       	68.98809       	69.03168       	69.2747        	68.89857       	69.07534       	69.32932       	68.613846      	68.65803       	69.4548        	68.99505       	69.20663       	69.138626      	68.86367       	69.176865      	69.27099       	69.60874       	68.119125      	68.530685      	71.26017       	70.96931       	65.9786        	63.78808       	
69.06055       	71.12575       	68.72735       	67.392746      	69.12736       	69.126305      	69.19839       	69.1762        	69.27465       	68.574196      	69.19051       	69.14244       	68.9624        	68.751434      	69.23495       	69.286026      	68.8707        	68.95574       	69.27003       	69.004654      	68.885124      	69.12855       	69.05025       	69.00078       	69.002716      	69.2074        	69.00232       	69.1285        	69.23365       	69.23358       	68.9579        	68.92177       	70.72932       	70.60299       	68.80302       	67.22396       	67.93767       	69.083015      	69.181786      	69.0239        	69.138756      	69.249565      	68.75231       	69.17796       	68.7353        	69.37276       	68.90644       	69.17026       	68.97741       	68.91639       	69.15089       	69.05341       	69.11766       	69.09252       	69.48159       	68.622215      	69.05695       	69.15612       	68.95627       	69.222084      	68.60604       	69.22947       	69.13038       	69.119026      	69.18941       	68.91253       	69.180664      	68.887184      	69.50682       	68.98933       	69.02294       	68.828545      	69.15785       	69.318825      	69.10423       	68.83552       	69.28287       	68.951866      	68.66125       	69.250305      	69.18743       	68.97779       	68.83937       	69.19581       	68.961334      	68.86322       	69.25927       	69.36564       	69.001625      	69.0254        	68.97864       	69.077354      	68.99128       	69.02067       	68.75923       	68.749596      	71.97931       	71.5403        	65.9737        	63.62486       	
69.35432       	69.09982       	68.91877       	69.14236       	69.14486       	69.3646        	68.811874      	69.248215      	68.66744       	69.273415      	68.88747       	69.27604       	70.08973       	67.96075       	68.95386       	69.3101        	68.97232       	69.00075       	69.0115        	69.06919       	69.37473       	69.22056       	68.90673       	69.082664      	68.89162       	69.24385       	68.98326       	69.09606       	69.193855      	69.4317        	69.03799       	68.96709       	70.054596      	70.59265       	69.13008       	67.36213       	68.14975       	69.03309       	70.63586       	67.855835      	68.94027       	68.84091       	69.3374        	68.76069       	69.022         	69.043274      	68.921776      	69.10468       	69.06279       	68.914314      	69.20137       	69.31774       	68.90876       	69.00685       	69.00369       	69.310265      	69.09082       	69.10689       	69.04978       	69.37594       	68.75305       	68.70806       	69.4078        	69.09089       	68.97212       	69.185555      	68.97398       	69.82195       	68.24941       	69.14752       	70.77722       	67.698494      	68.87631       	69.12702       	69.07402       	69.34001       	69.01082       	68.936966      	68.888596      	69.06821       	68.95156       	68.93148       	69.1724        	68.86951       	69.025665      	69.12566       	68.99907       	69.13172       	69.26559       	69.03061       	68.90545       	69.06885       	69.144325      	68.94003       	69.129074      	68.877106      	69.680084      	70.58494       	65.935394      	65.64877       	
69.08294       	69.28339       	69.063484      	68.755714      	68.97968       	69.168205      	68.817955      	69.25529       	68.95578       	69.17053       	69.07405       	69.083         	70.08544       	68.17067       	69.136185      	69.11384       	69.12618       	68.58072       	69.117516      	69.19012       	69.23006       	69.13833       	69.303474      	68.67324       	69.11674       	69.23768       	68.963295      	69.17017       	69.33273       	68.46886       	69.22492       	68.82961       	69.122925      	69.11186       	69.093475      	69.17278       	68.96729       	69.34164       	68.95596       	69.21064       	69.123184      	68.795975      	69.45759       	68.85305       	69.17476       	69.43691       	68.42047       	69.09068       	69.97559       	67.673996      	69.27051       	69.03911       	69.06391       	69.24118       	68.86387       	69.31263       	69.899155      	68.0939        	69.17843       	69.1449        	68.93184       	69.174965      	68.99963       	69.18443       	68.89864       	68.76942       	69.21564       	70.641106      	68.714775      	68.212425      	71.08891       	68.23668       	67.632454      	69.136406      	69.34608       	69.19572       	68.91495       	68.85485       	69.066734      	69.07409       	69.18524       	68.9754        	69.079216      	69.215454      	68.89524       	69.04945       	68.928406      	69.12432       	69.25117       	68.99207       	68.880165      	69.26265       	69.11977       	68.58637       	69.07095       	69.01666       	69.13065       	68.82997       	68.10925       	68.34213       	
69.425064      	68.84562       	69.111206      	69.2249        	68.93666       	69.10558       	68.81941       	69.46596       	69.052376      	68.86993       	69.061325      	69.43908       	69.03852       	69.11312       	69.07869       	69.015495      	68.91509       	68.890816      	69.00743       	69.14611       	70.1987        	70.40201       	67.00915       	69.04998       	68.57907       	69.08763       	69.12439       	69.00863       	69.23484       	69.02934       	69.02217       	68.9118        	69.135124      	69.02191       	69.35901       	68.9917        	69.14005       	68.85629       	68.962234      	70.41484       	68.01924       	68.90792       	69.15076       	68.9228        	68.98312       	69.292656      	68.83691       	70.35258       	70.4152        	67.43895       	67.787636      	69.16937       	69.13025       	68.99604       	68.8866        	68.99324       	69.31748       	69.1406        	68.98167       	69.08015       	70.12534       	68.97034       	67.9839        	69.0778        	68.83335       	69.21532       	69.078224      	69.17705       	69.14948       	69.058         	69.24209       	69.049934      	68.76122       	69.37885       	68.97672       	68.75802       	69.19869       	68.863686      	69.03612       	69.268196      	68.958626      	69.04523       	69.02787       	69.236206      	69.43735       	68.857155      	68.95069       	69.11744       	69.21729       	68.71857       	69.194214      	69.1154        	68.981064      	68.981606      	68.926414      	69.01417       	68.97046       	68.74277       	68.232025      	68.057396      	
69.19738       	68.94455       	69.325554      	68.91382       	69.034546      	69.206955      	69.03128       	69.11963       	69.1864        	68.91648       	69.02972       	69.012596      	69.25535       	68.93036       	68.673546      	68.85302       	69.2488        	69.20767       	69.01667       	68.90093       	69.09105       	70.03209       	68.122795      	69.22446       	69.18967       	69.06288       	69.14407       	69.01129       	69.034775      	69.0474        	69.18416       	68.9567        	69.3252        	69.02677       	69.06412       	69.13173       	68.95982       	68.819435      	69.199615      	69.20662       	69.04131       	69.07312       	68.68802       	69.49464       	68.904816      	68.935844      	69.44692       	68.84428       	71.11985       	68.16178       	68.00051       	69.01386       	69.44368       	68.79752       	68.846596      	69.25762       	69.19032       	69.0806        	68.70688       	71.0519        	69.55585       	68.793686      	67.61634       	67.645836      	69.14086       	68.82657       	69.09029       	69.28279       	68.990654      	68.99539       	68.94922       	69.25423       	69.27463       	69.04317       	69.07311       	69.10223       	68.93411       	69.13249       	69.118576      	69.13975       	68.728836      	68.821815      	69.262024      	69.167114      	70.48852       	67.75959       	68.898224      	69.09222       	69.26425       	68.6258        	69.02274       	69.19516       	69.28388       	68.50988       	68.9869        	69.3675        	68.98447       	68.9036        	68.26355       	68.581245      	
69.40025       	68.88729       	69.29982       	69.13849       	69.01878       	68.99369       	69.18015       	69.051476      	69.04439       	69.11048       	68.89018       	69.39814       	68.916626      	69.053535      	68.98189       	69.00263       	69.267105      	69.00398       	68.92676       	69.38919       	68.7355        	69.204445      	68.967125      	69.02902       	69.50218       	69.11999       	69.67079       	67.8193        	69.00961       	69.20773       	69.23415       	69.16072       	69.02926       	68.8678        	69.131134      	69.18412       	69.060425      	69.17487       	69.01751       	69.03206       	69.10391       	68.776306      	69.295265      	68.9076        	69.17589       	69.05296       	69.35863       	68.731415      	69.06053       	69.1486        	68.92113       	68.96189       	69.05627       	69.03159       	68.96224       	68.72356       	69.26798       	68.81041       	69.048355      	70.46172       	72.19113       	70.80079       	65.59383       	66.79002       	69.01504       	69.01463       	68.78259       	69.00255       	69.148155      	69.01623       	69.111176      	69.27125       	68.959595      	69.03092       	69.41627       	68.76579       	68.912636      	69.47299       	68.62491       	68.875496      	69.078575      	69.1163        	68.74704       	69.223305      	69.298294      	69.108215      	69.17478       	68.975266      	68.93958       	69.09283       	68.82841       	69.169655      	69.22369       	69.09014       	69.07291       	68.76602       	68.21572       	68.69604       	68.25704       	68.297104      	
69.26476       	69.08668       	69.18436       	69.12159       	69.014755      	69.043175      	69.0683        	69.27158       	68.75602       	69.01004       	69.35922       	69.16507       	69.17793       	68.82322       	69.17756       	68.93897       	69.2899        	69.326195      	68.94057       	69.00172       	68.96922       	68.91404       	69.12216       	69.732414      	68.429085      	68.95885       	68.64163       	69.25037       	68.97646       	69.30122       	68.938835      	68.73889       	69.41263       	69.24358       	68.80124       	69.734436      	68.257355      	68.81961       	69.04625       	69.07472       	69.020836      	68.97961       	68.96965       	69.09146       	69.24806       	69.07117       	69.17966       	69.18629       	68.77372       	70.18689       	67.87893       	68.85086       	68.96318       	69.21347       	69.0393        	68.81901       	68.7682        	69.545395      	69.001114      	68.92147       	71.03526       	71.113884      	67.63448       	66.44291       	68.87552       	68.97732       	69.56042       	68.756         	69.180565      	68.70086       	69.31167       	69.10442       	69.00695       	69.197174      	68.82456       	69.32108       	68.971115      	69.024666      	69.00034       	69.28348       	68.782326      	69.0584        	69.123955      	69.119804      	69.18328       	69.076744      	69.24902       	69.0181        	68.813354      	69.40993       	68.71907       	69.151474      	68.89512       	68.79081       	69.32193       	68.97661       	69.03003       	68.703575      	68.28363       	68.32238       	
69.10425       	69.22321       	68.88373       	69.16146       	70.01285       	68.139565      	68.83637       	69.41984       	68.72498       	69.31696       	68.81799       	69.15964       	69.33318       	69.068146      	68.77771       	69.03352       	69.11558       	68.74309       	69.284485      	69.03714       	69.10741       	68.795395      	69.133316      	69.50322       	68.87415       	68.94557       	69.13537       	69.03563       	69.079666      	69.20671       	69.26095       	68.86295       	69.026215      	69.0619        	69.07511       	69.18541       	68.639946      	69.23988       	69.04655       	69.07626       	69.28712       	68.86869       	68.90118       	69.19303       	68.8708        	69.40508       	68.92955       	68.898964      	69.09026       	69.06983       	69.108505      	69.54932       	68.56778       	69.12114       	69.06141       	68.94801       	68.78562       	69.403786      	69.10459       	69.005486      	69.17537       	69.7683        	68.50605       	69.202934      	68.81351       	68.96423       	69.24473       	69.210884      	68.90417       	69.03897       	69.274796      	69.04979       	69.23294       	69.15193       	68.97714       	68.96636       	68.99128       	68.88113       	69.44565       	68.877625      	68.95079       	69.27702       	69.13148       	69.172424      	68.99565       	69.13207       	69.21446       	68.72062       	69.109344      	68.428925      	69.10183       	68.95762       	68.84619       	69.193085      	69.01974       	68.9861        	69.286964      	67.852806      	67.183525      	68.67186       	
69.278114      	69.37238       	68.92667       	68.922195      	69.113556      	68.69395       	69.39109       	69.11489       	68.92734       	69.05591       	69.6851        	68.09009       	69.103004      	69.18587       	69.18666       	68.86891       	68.83811       	69.02192       	69.119354      	69.17289       	69.2398        	69.14477       	68.80918       	69.20469       	69.40158       	68.704254      	69.12024       	69.05268       	68.99214       	69.02441       	68.985825      	69.541855      	68.635185      	69.01966       	69.30189       	69.06859       	68.63234       	69.37568       	69.00711       	68.83551       	69.613396      	68.84537       	68.86031       	69.13612       	69.04209       	69.38399       	69.1496        	68.871864      	69.00517       	68.87427       	69.11053       	69.1462        	69.153244      	69.02829       	69.085144      	69.12717       	68.89544       	69.25674       	69.096924      	69.05161       	69.109955      	68.85396       	69.49781       	68.850266      	69.19789       	68.951805      	68.995995      	69.388855      	68.60316       	68.87706       	69.43358       	69.14202       	68.85527       	69.376434      	68.56109       	69.04015       	69.63759       	68.40348       	69.059555      	69.25774       	68.668         	69.2195        	68.903755      	69.0023        	69.23431       	69.06962       	68.90478       	69.10067       	69.70095       	68.7329        	69.03883       	69.11805       	68.20304       	69.498344      	69.1388        	68.649796      	68.74704       	68.836685      	68.39466       	68.4319        	
69.65608       	69.24713       	68.89855       	68.95809       	69.13408       	69.66766       	69.9258        	68.5437        	68.08403       	68.89449       	69.1575        	69.01815       	69.0134        	68.98297       	69.114555      	68.87307       	69.57843       	70.31896       	67.44878       	69.084175      	69.05212       	69.096375      	69.189926      	68.873566      	69.253784      	68.73495       	70.4866        	67.70112       	69.077324      	69.070114      	69.13163       	69.15376       	69.15001       	69.06361       	68.85154       	69.05469       	69.117836      	69.05706       	69.10884       	69.16153       	68.826096      	69.00492       	69.06766       	69.23408       	68.799225      	69.1779        	68.90291       	69.19955       	69.26473       	68.83343       	68.77863       	69.330864      	69.2417        	69.14313       	68.9909        	69.14038       	68.86771       	69.33859       	69.03752       	68.621796      	69.13333       	68.96815       	69.36406       	68.90617       	68.8859        	70.289925      	68.06931       	68.86455       	69.18103       	69.03459       	69.25682       	68.980774      	69.11832       	69.011986      	68.95929       	68.82031       	70.23056       	68.0603        	69.061615      	69.05419       	68.99827       	69.24388       	69.11954       	69.07287       	69.186554      	68.74362       	69.27664       	69.19796       	69.0467        	68.961914      	69.177055      	68.93778       	69.04231       	68.97838       	69.33109       	68.988144      	68.61617       	68.336006      	68.384865      	68.05785       	
69.94337       	69.05313       	69.08098       	69.15757       	68.969284      	71.28016       	70.11362       	68.62716       	67.402466      	67.29523       	69.225464      	68.9082        	69.48414       	68.58324       	68.937256      	69.00649       	68.81157       	69.07914       	69.30642       	69.038124      	69.39196       	68.84996       	69.17734       	69.40041       	69.38215       	68.13152       	68.982         	69.10896       	69.27142       	69.11905       	69.03677       	69.15092       	69.08121       	69.47393       	68.51388       	69.033966      	68.811714      	68.88013       	70.54505       	68.53252       	67.82777       	69.333755      	68.78939       	69.12403       	69.710915      	70.884865      	68.17904       	66.58837       	69.35356       	69.15887       	68.59882       	69.23895       	68.90938       	69.233696      	69.038536      	68.98995       	69.05724       	69.1052        	69.04077       	68.80574       	69.22038       	69.32889       	68.9705        	69.09016       	68.95084       	69.05262       	68.994         	69.090775      	69.05094       	69.27374       	68.99025       	68.92856       	69.195786      	68.96713       	69.47237       	68.526245      	69.0048        	69.03502       	69.55215       	69.15758       	68.59406       	68.864365      	69.05221       	68.99291       	69.09565       	69.67119       	68.70924       	69.182945      	68.8482        	69.13647       	69.02332       	68.97077       	69.07143       	69.16361       	68.92056       	68.72815       	68.90026       	68.65363       	68.59394       	68.243965      	
69.334274      	68.894844      	69.36007       	68.92383       	69.29233       	70.47391       	70.73949       	69.30644       	67.735176      	66.89297       	69.00311       	69.160545      	68.897125      	69.048775      	69.25955       	69.08538       	68.84458       	69.06537       	69.05673       	69.66994       	68.88885       	68.76164       	69.0553        	69.173         	68.94221       	69.15172       	68.96758       	69.441185      	68.795525      	68.8604        	69.07822       	68.8674        	70.546974      	67.804146      	69.18137       	69.12815       	68.83299       	68.564064      	71.48621       	69.589806      	66.87697       	69.24001       	68.75998       	68.97166       	69.49518       	71.40696       	67.75001       	67.5417        	69.071815      	69.155106      	69.17102       	69.03503       	69.10544       	69.140396      	68.90422       	69.1609        	69.376884      	69.03417       	68.907074      	68.88873       	68.95407       	69.38528       	69.1141        	68.92762       	69.069534      	69.20995       	68.99046       	69.01454       	68.48815       	69.01076       	69.06842       	69.400795      	68.87159       	69.920555      	68.21072       	69.22367       	68.853905      	68.82513       	69.13686       	69.30391       	68.783066      	69.762634      	68.488205      	68.89521       	69.25219       	69.20637       	68.90636       	69.27894       	68.99186       	68.59893       	69.42242       	69.16644       	69.67868       	68.561356      	67.78257       	68.934235      	69.025536      	68.49034       	68.52619       	68.73897       	
69.48933       	69.05616       	69.17026       	68.90726       	69.01893       	69.53678       	70.91883       	69.47012       	68.04615       	67.29295       	69.22497       	69.119835      	68.89881       	68.98515       	69.375725      	68.9301        	69.20065       	68.940865      	68.999176      	69.452736      	68.637474      	68.895195      	69.34314       	68.94027       	69.07302       	69.03363       	69.08946       	69.13174       	69.24674       	69.11595       	68.83076       	69.121544      	69.30262       	69.209816      	69.05446       	69.05481       	69.042404      	68.912865      	69.11186       	69.20661       	69.16122       	68.91095       	68.93628       	69.23442       	69.24869       	68.74449       	68.9673        	69.20221       	68.939804      	69.09686       	69.04629       	68.95291       	69.132484      	69.06242       	69.021416      	69.09927       	69.28169       	68.857574      	69.19395       	68.66552       	69.1516        	69.22754       	69.18612       	68.713326      	69.04202       	69.185555      	69.222046      	68.86133       	69.41859       	68.53751       	69.25687       	69.11526       	68.93934       	69.2678        	68.81663       	69.06138       	68.91479       	69.15565       	69.05299       	68.983765      	69.104614      	69.058464      	69.004005      	69.02829       	69.23659       	69.07201       	68.9862        	69.383766      	69.09495       	69.102875      	68.96494       	68.80762       	69.18972       	69.073746      	69.11267       	68.411446      	68.55002       	68.59725       	68.88902       	69.03323       	
