# www.neaspec.com
# Scan:	 	AFM
# Project:	 	20251007_PS
# Description:	 	
# Date:	 	10/07/2025 10:43:47
# Scanner Center Position (X, Y):	[µm]	49.99	50.01	 
# Rotation:	[°]	0	 	 
# Scan Area (X, Y, Z):	[µm]	5.000	5.000	0.000
# Pixel Area (X, Y, Z):	[px]	100	50	1
# Averaging:	 	1	 	 
# Integration time:	[ms]	5	 	 
# Laser Source:	 	4.5-15 µm nano-FTIR laser
# Detector:	 	R
# Target Wavelength:	[µm]	7.502	 	 
# Demodulation Mode:	 	Fourier
# Tip Frequency:	[Hz]	241,340.500	 	 
# Tip Amplitude:	[mV]	45.700	 	 
# Tapping Amplitude:	[nm]	79.665	 	 
# Modulation Frequency:	[Hz]	0.000	 	 
# Modulation Amplitude:	[mV]	0.000	 	 
# Modulation Offset:	[mV]	0.000	 	 
# Setpoint:	[%]	79.75	 	 
# Regulator (P, I, D):	 	4.206850	8.625812	1.000000
# Tip Potential:	[mV]	0.000	 	 
# M1A Scaling:	[nm/V]	0.426	 	 
# M1A Cantilever Factor:	 	1,000	 	 
# Q-Factor:	 	487.4	 	 
# Version:	 	2.1.11536.0
66.445755      	66.49623       	66.52131       	66.65147       	66.676575      	66.86889       	66.159225      	66.34537       	66.46456       	66.33967       	66.0219        	66.65686       	66.503746      	65.81896       	66.54518       	66.33769       	66.23318       	66.33512       	66.29923       	66.278534      	66.04404       	66.44995       	65.82385       	65.7944        	66.04463       	65.76681       	65.7393        	65.952896      	65.907646      	65.92783       	66.37822       	66.34015       	65.60581       	65.713745      	66.17773       	66.12994       	65.87919       	66.09658       	66.02341       	66.311646      	66.46942       	66.35883       	65.916016      	66.118706      	65.81616       	65.92891       	66.16482       	65.69855       	65.90321       	65.86252       	66.378746      	66.09158       	66.05194       	66.28183       	65.895424      	66.175354      	66.6817        	66.371         	66.15562       	66.37477       	66.089264      	66.06125       	66.33155       	66.45928       	65.885765      	65.69202       	65.79538       	65.93941       	66.444786      	66.44618       	66.36513       	66.21624       	66.548965      	66.27243       	66.01254       	66.350296      	66.08613       	66.41277       	66.746376      	66.29116       	66.16805       	66.62496       	66.05221       	65.99076       	66.56947       	66.29491       	64.185814      	63.572594      	63.55824       	62.61082       	63.260185      	63.18137       	62.711243      	63.310085      	61.725746      	58.291443      	57.91868       	57.59917       	56.057423      	56.548527      	
66.22764       	66.21062       	66.26949       	66.437874      	66.67781       	66.233444      	66.0068        	66.18758       	65.98651       	65.88211       	66.15234       	66.285675      	65.80898       	65.60113       	65.895256      	65.601845      	65.38728       	66.337166      	66.130264      	65.87962       	66.38514       	66.10489       	65.58945       	65.54304       	66.00081       	65.84021       	65.95279       	65.9665        	65.798744      	65.698074      	66.28944       	66.0966        	66.14829       	66.5439        	66.05741       	65.87634       	66.23631       	65.80676       	65.61499       	66.359566      	66.042366      	66.062454      	66.13888       	66.46916       	66.04196       	66.230194      	66.34256       	65.70874       	65.81132       	66.05161       	66.00447       	65.82769       	66.0302        	66.26676       	66.19331       	66.74868       	66.57          	65.89197       	66.426094      	66.63541       	66.323006      	66.213135      	66.61482       	65.85195       	66.34771       	66.747185      	66.36697       	66.10758       	66.55854       	66.42313       	66.150536      	66.811844      	66.39554       	66.03282       	66.56356       	65.975334      	66.20636       	66.32713       	66.22775       	66.02792       	66.22833       	66.41954       	65.91148       	65.926704      	66.17786       	65.60451       	60.81955       	61.033043      	59.7938        	57.676346      	57.5025        	56.05968       	55.80015       	56.545853      	56.57018       	56.087425      	56.843834      	56.335575      	56.263824      	56.726017      	
66.255554      	66.593185      	66.23476       	65.60726       	65.45505       	66.450775      	66.30252       	65.618195      	66.0729        	66.49557       	65.62087       	66.41342       	66.49142       	65.53071       	66.08024       	66.621346      	65.64636       	66.36705       	66.527985      	65.79917       	66.19317       	66.60698       	65.47973       	65.54544       	66.0387        	66.0685        	65.942116      	66.18627       	66.04932       	65.714355      	66.099525      	65.95411       	65.46407       	66.1772        	66.361565      	65.726074      	66.19551       	66.1392        	65.61764       	65.96761       	66.73463       	65.93113       	66.02577       	66.532074      	66.03503       	65.79976       	66.446106      	66.3892        	65.79882       	66.09922       	65.97615       	65.82997       	65.97365       	65.9298        	65.690025      	66.29848       	66.430145      	66.29261       	66.21639       	66.31919       	66.04198       	66.101295      	66.5397        	66.03531       	65.794205      	66.39303       	66.35342       	66.08267       	66.21191       	66.18672       	66.1267        	65.83295       	66.13461       	65.91089       	65.8848        	66.168846      	65.95491       	66.107285      	66.042404      	66.126175      	65.998764      	66.0351        	66.119316      	63.63315       	59.455017      	57.278137      	55.85902       	55.73063       	56.095673      	56.31318       	56.457863      	56.552505      	56.48745       	56.741547      	56.75869       	56.945686      	56.877926      	56.892796      	57.146572      	57.243458      	
66.34682       	66.523674      	66.464005      	66.22921       	66.12674       	66.660164      	66.1642        	66.022285      	66.357254      	66.31609       	65.822044      	66.52693       	66.41773       	66.060715      	66.33681       	66.33427       	65.64784       	66.71369       	66.68631       	65.802986      	66.432335      	66.68455       	65.66721       	65.54957       	66.20543       	66.11026       	66.38376       	66.897865      	66.535446      	66.19796       	66.37609       	65.87817       	65.63125       	66.41672       	65.93437       	65.61993       	66.45872       	66.04311       	65.66299       	66.14199       	66.83589       	66.27898       	66.15564       	66.53559       	66.04988       	66.30479       	66.93147       	66.14986       	65.954414      	66.77838       	66.332565      	66.230354      	66.696335      	66.37164       	66.16138       	66.88615       	66.37563       	65.98782       	66.596405      	66.43862       	65.99254       	66.80601       	66.331726      	66.00683       	66.54561       	66.45587       	66.05673       	66.76284       	66.69977       	65.764404      	66.4912        	66.62787       	65.4346        	66.137856      	66.59          	65.87446       	66.040344      	66.58701       	65.81917       	65.79601       	66.5461        	66.27272       	65.67305       	63.240704      	59.428654      	57.810276      	56.971107      	56.133945      	56.67072       	57.307697      	57.074768      	57.125343      	57.516926      	57.744896      	57.177925      	57.823696      	57.665         	57.259377      	57.90774       	57.813976      	
65.780876      	65.89356       	66.1752        	66.56097       	66.19219       	65.75642       	66.868454      	66.337234      	66.1413        	66.56698       	66.46624       	65.903595      	66.023415      	66.79989       	65.863716      	66.28721       	66.476845      	65.8502        	66.27386       	66.91531       	65.873344      	66.162254      	66.75033       	65.76106       	65.7248        	66.15529       	66.20367       	66.285385      	66.60491       	66.382355      	65.769         	66.62337       	66.260124      	65.87658       	66.17227       	66.22934       	65.6146        	66.15195       	66.123825      	65.93232       	66.466606      	66.62314       	65.85439       	66.05198       	66.52159       	65.879715      	66.381035      	66.947784      	65.993355      	66.18535       	66.591324      	65.98616       	66.114136      	66.543045      	65.69979       	64.836784      	67.70101       	67.30537       	66.595985      	67.02386       	66.657234      	66.46514       	66.847824      	66.75376       	66.316925      	66.952225      	66.665985      	65.83904       	66.44502       	66.5149        	65.750084      	66.62307       	66.65628       	65.86254       	66.61905       	66.90229       	65.81577       	66.38718       	66.50585       	65.81776       	66.40121       	66.72373       	65.265175      	61.186394      	61.294037      	59.187572      	58.1079        	57.65512       	56.812298      	57.313305      	57.758854      	57.75867       	57.672497      	58.188366      	57.93193       	57.854374      	58.066494      	58.17422       	57.62531       	58.167847      	
66.01646       	66.73171       	67.08888       	67.01874       	66.40618       	66.21214       	66.934006      	66.42826       	66.1729        	66.646515      	66.846664      	66.17485       	66.41462       	66.29432       	66.02261       	66.34669       	66.5333        	66.06947       	66.090904      	66.59827       	66.40874       	66.12809       	66.41086       	66.17606       	65.88526       	65.78696       	66.64495       	66.46606       	66.75725       	66.582924      	66.4596        	66.52118       	66.2465        	66.576744      	66.26258       	66.24964       	66.68189       	66.50146       	66.21316       	66.80132       	66.08251       	66.27016       	66.293205      	66.07288       	66.23699       	66.64067       	66.1709        	65.96898       	65.68637       	64.34562       	63.7062        	63.244232      	62.863914      	62.779396      	63.499134      	63.076767      	62.947304      	64.486046      	63.554317      	69.080925      	67.07574       	66.78903       	66.85525       	66.85895       	66.9961        	66.38818       	66.2865        	66.88542       	66.22783       	66.45349       	66.538414      	66.44378       	66.55011       	66.4858        	66.38924       	66.301994      	66.49973       	66.72213       	66.11707       	66.39682       	66.49836       	66.37449       	66.38438       	63.286114      	61.1377        	60.90845       	59.205215      	57.710598      	57.350746      	57.675163      	57.717224      	57.906162      	58.24471       	58.11863       	58.012268      	58.158466      	58.150093      	57.790688      	58.1405        	58.083218      	
66.62082       	65.990486      	65.95273       	66.4155        	66.7081        	66.20409       	66.01296       	66.548836      	66.38501       	66.1012        	66.47907       	66.66886       	66.23391       	66.00598       	66.33656       	66.058876      	66.36029       	66.13246       	65.73958       	66.313774      	66.5184        	66.0586        	66.393814      	66.51951       	66.004326      	65.6298        	66.27403       	66.32048       	66.05138       	66.95119       	66.45378       	65.997734      	66.69347       	66.17695       	65.62863       	66.93133       	66.174675      	65.65432       	66.28989       	66.307846      	65.65977       	65.70386       	64.78119       	63.325443      	62.46562       	63.075527      	62.51399       	62.9665        	63.350323      	62.152374      	60.982777      	58.991135      	57.17494       	56.51186       	56.474854      	55.904034      	55.40525       	56.3116        	56.851864      	57.816402      	65.44636       	68.55313       	66.88019       	66.94403       	66.601364      	66.06643       	66.92019       	66.87984       	66.16839       	66.59861       	66.81738       	66.44629       	66.5871        	66.81754       	66.36909       	66.26758       	66.69306       	66.530075      	66.235756      	66.373924      	66.47493       	66.23078       	66.27477       	66.07552       	61.593468      	61.399155      	59.36737       	57.93846       	57.122         	57.23699       	57.762173      	57.4354        	58.061325      	58.125187      	57.80336       	58.177986      	58.07254       	57.749073      	58.03861       	57.9534        	
66.365944      	66.18661       	66.262245      	66.65035       	66.520424      	66.02481       	66.27571       	66.577644      	66.23741       	66.20336       	66.498474      	66.405815      	65.87747       	66.42581       	66.56352       	66.03938       	66.463615      	66.17228       	65.72173       	66.17707       	66.72791       	65.56629       	66.610596      	66.56943       	65.874306      	66.0279        	66.015785      	65.341194      	66.03259       	66.245766      	65.862015      	66.32516       	66.398384      	65.17558       	64.80506       	64.76281       	62.618614      	62.599632      	63.440544      	62.790382      	62.62768       	63.38626       	62.4312        	58.463387      	57.91431       	57.32681       	56.55581       	56.614822      	56.102634      	55.729218      	56.38654       	56.604427      	56.005802      	56.6889        	56.758247      	56.08998       	56.196693      	56.453278      	56.100704      	57.26014       	59.936615      	61.91733       	69.025566      	67.622185      	66.63644       	67.11836       	67.07115       	66.27148       	66.89846       	67.2211        	66.45788       	66.77013       	66.88729       	66.17448       	66.74701       	66.983185      	66.29755       	66.33417       	66.85809       	66.35553       	66.28474       	67.084145      	66.54107       	66.56129       	64.39704       	61.24115       	60.213562      	59.396454      	57.559658      	56.699764      	57.658474      	57.616814      	57.961426      	58.29511       	57.969864      	57.77062       	58.336227      	57.76594       	57.50201       	57.910103      	
65.95428       	66.27321       	66.81777       	66.71476       	66.41598       	66.32941       	66.645294      	66.68703       	66.384674      	66.48277       	66.79725       	66.29268       	66.03972       	66.846794      	66.1315        	66.06295       	66.6625        	66.27355       	66.26758       	66.66635       	66.477264      	66.3718        	66.49514       	66.34746       	66.08085       	66.71947       	65.477875      	63.66269       	63.626156      	62.572376      	62.71339       	63.070763      	63.06688       	62.827145      	63.30443       	61.815533      	58.314976      	57.027733      	57.257736      	57.02617       	55.9624        	56.53445       	56.292847      	56.205505      	56.279575      	56.205647      	56.343563      	56.639973      	56.895042      	56.704334      	57.026703      	57.085968      	56.838932      	57.2706        	57.0703        	56.62157       	56.9617        	56.8902        	56.255226      	57.367733      	58.479572      	60.735767      	66.59072       	68.68221       	67.13673       	66.91637       	67.16324       	66.937294      	66.46868       	67.03931       	66.728485      	66.48494       	66.655815      	66.568405      	66.29812       	66.58459       	66.57542       	66.50951       	66.668884      	66.84214       	66.14477       	66.58829       	66.57385       	65.854416      	65.23148       	60.99096       	61.56999       	59.518917      	58.638813      	57.575146      	57.076183      	57.605583      	57.624763      	57.636993      	58.196186      	57.921707      	57.41256       	57.835342      	57.66504       	57.795815      	
66.16691       	66.057465      	66.270836      	66.93548       	66.82919       	66.24766       	66.10194       	66.59514       	66.239204      	66.15833       	66.97462       	66.322         	66.11989       	66.82198       	66.22225       	65.952484      	66.78048       	66.39263       	66.25635       	66.82161       	66.612564      	65.9703        	66.25659       	66.34763       	65.8893        	66.33579       	65.858986      	61.289337      	60.433727      	59.057823      	57.79439       	56.984375      	56.270813      	55.90072       	56.237183      	56.78738       	55.89394       	56.41969       	56.831177      	56.282127      	56.417957      	56.871002      	56.58762       	56.52736       	57.05587       	57.155807      	56.805798      	57.121662      	57.316753      	57.17371       	57.58216       	57.675095      	57.24156       	57.549408      	57.702793      	57.081493      	57.217663      	57.26553       	56.44794       	57.36461       	58.199665      	59.860405      	61.960674      	69.12533       	67.50488       	67.32186       	67.59748       	66.90205       	66.79931       	67.06583       	67.08134       	66.46455       	66.67157       	67.091324      	66.49756       	66.46277       	66.88538       	66.34829       	66.398384      	67.07742       	66.409454      	66.46333       	66.42221       	66.55882       	66.403564      	63.83969       	61.184868      	60.713486      	59.0261        	57.841946      	56.928917      	57.327034      	57.87338       	57.68778       	57.78206       	58.117126      	57.76706       	57.686836      	58.0992        	57.719955      	
66.04013       	65.97984       	66.36405       	66.834145      	66.422195      	66.03726       	66.404205      	66.58381       	66.23581       	66.34137       	66.5474        	66.342636      	66.2923        	66.32483       	66.11018       	65.983475      	66.12388       	66.111115      	65.846924      	66.03295       	65.59384       	65.98304       	65.86832       	64.99965       	61.965096      	57.74115       	55.73467       	55.64836       	56.337273      	56.40287       	56.38954       	56.76455       	56.244835      	56.85869       	56.93471       	56.64907       	57.017902      	57.220203      	56.72064       	56.555874      	56.240635      	56.135902      	57.094532      	58.235966      	59.028072      	57.51761       	57.900017      	57.48767       	57.75134       	57.88327       	57.32555       	57.634148      	58.20326       	57.205593      	57.29707       	57.80087       	57.080376      	57.082035      	56.84451       	56.528         	57.45276       	58.51816       	60.853855      	66.71853       	68.477486      	66.909645      	66.908806      	67.080345      	66.692314      	66.362045      	67.125755      	67.01251       	66.12097       	66.96526       	66.56098       	66.23818       	66.917274      	66.65493       	66.11556       	66.693344      	66.67581       	66.144005      	66.69824       	66.597115      	66.1007        	66.12749       	62.230343      	61.371967      	59.487488      	58.82408       	57.35157       	57.1411        	57.937504      	57.37287       	57.540127      	58.221848      	57.498756      	57.730774      	58.328915      	57.59347       	
66.0376        	66.48318       	66.655         	66.84177       	66.4708        	66.5053        	66.374886      	66.554276      	66.472664      	66.1063        	66.33738       	66.2701        	66.21286       	66.25038       	66.09445       	66.098885      	66.04745       	65.95427       	66.42072       	66.11675       	66.088745      	65.91842       	66.071686      	64.17538       	60.46922       	58.687973      	57.563866      	56.613907      	56.35101       	56.975216      	57.26433       	57.00358       	57.536274      	57.428204      	56.908516      	57.81987       	57.663696      	57.124634      	57.652725      	57.494747      	57.403187      	57.828316      	58.710682      	57.81289       	58.076435      	58.237114      	57.89853       	57.871323      	57.93389       	57.97612       	58.23683       	57.83477       	57.847656      	57.881107      	57.79861       	57.930344      	57.416645      	57.31509       	57.337643      	57.091274      	56.96085       	57.78617       	58.564903      	61.8163        	67.874886      	66.84973       	67.23687       	67.07521       	66.623024      	67.0277        	66.53511       	66.73907       	66.79434       	66.48331       	66.19443       	66.562706      	66.617294      	66.240654      	66.46749       	66.55379       	66.31886       	66.48437       	66.38657       	66.59466       	66.48401       	66.23216       	63.69057       	61.24993       	61.32952       	59.599144      	58.412125      	57.164875      	57.236885      	57.614834      	57.777103      	58.029137      	57.90898       	57.797363      	58.012543      	57.82747       	
66.33879       	66.2349        	65.92111       	65.80898       	66.096054      	66.43415       	65.91364       	65.88792       	66.14625       	65.93535       	65.85421       	66.05161       	66.226944      	65.7815        	66.225975      	66.03966       	65.92433       	66.711754      	65.931046      	65.932205      	66.58047       	66.217094      	66.130516      	63.314198      	61.1489        	59.693672      	57.825172      	56.756813      	56.672993      	57.11389       	57.215027      	57.552334      	57.72604       	57.61227       	57.78528       	57.907387      	57.78003       	57.874035      	57.480835      	57.28173       	57.69443       	57.85698       	57.54103       	57.388653      	57.702606      	57.613747      	57.54555       	57.417007      	58.24851       	58.17261       	57.598763      	57.470642      	58.062557      	57.718037      	57.603912      	57.805252      	57.473392      	57.17555       	57.609474      	56.42866       	56.422974      	57.315807      	57.975258      	60.0064        	62.313904      	68.96919       	66.74626       	66.959946      	67.0642        	66.20838       	66.87493       	66.4548        	66.08184       	66.94881       	66.674194      	66.14334       	66.49723       	66.39208       	66.12179       	66.5189        	66.64369       	66.14567       	66.32032       	66.72976       	65.77608       	66.54299       	66.22618       	62.08722       	61.662067      	60.183712      	58.8901        	57.479485      	57.060097      	56.995888      	57.11873       	57.667465      	57.789394      	57.745903      	57.516983      	57.933487      	
65.75233       	65.764275      	66.243935      	66.57593       	66.31502       	65.54277       	66.26979       	66.52347       	65.93276       	66.15952       	66.57527       	66.141945      	66.24086       	66.43166       	65.86242       	66.2622        	66.46896       	66.087524      	65.930214      	66.44792       	65.93029       	65.80916       	66.520424      	64.987366      	61.38105       	61.23084       	59.17392       	57.527496      	57.234016      	57.122215      	57.17225       	57.82119       	57.386356      	57.514565      	58.169422      	57.868176      	57.360214      	57.93683       	57.92006       	57.31679       	57.71497       	57.99486       	57.23272       	57.76442       	57.802036      	57.112206      	57.8107        	58.02015       	57.22892       	57.731815      	58.10373       	57.131176      	57.61201       	58.114826      	57.14085       	57.609562      	57.857758      	57.251072      	56.94722       	57.2058        	56.315746      	56.513336      	58.002895      	58.65653       	60.810787      	66.86445       	67.301796      	67.12849       	67.30783       	66.33429       	66.47427       	66.841675      	66.15643       	66.47553       	67.02066       	66.26218       	66.379486      	66.54104       	66.42977       	66.54518       	66.28058       	66.32494       	66.20744       	66.36232       	66.20378       	66.31123       	66.29088       	65.841064      	61.781326      	61.469093      	59.677025      	58.561977      	57.057335      	56.804604      	57.291245      	57.490803      	57.78322       	57.79592       	57.74458       	57.45976       	
63.97985       	66.97699       	67.540245      	66.662155      	66.742615      	66.25278       	66.535095      	66.73669       	66.40094       	66.17093       	66.68318       	66.33369       	66.05304       	66.51609       	66.157295      	66.43639       	66.43181       	66.32847       	66.36154       	66.49885       	66.5173        	66.1139        	66.223724      	65.909         	61.819386      	61.749363      	60.373707      	59.205         	57.483906      	56.98959       	57.884926      	57.636044      	57.812588      	57.984905      	58.036823      	57.917286      	57.935505      	57.738564      	58.035248      	57.7696        	57.622635      	57.510487      	58.05228       	57.662075      	57.518623      	58.177418      	57.581924      	57.703506      	57.85629       	57.677967      	57.541233      	57.807514      	57.532063      	57.662155      	57.53192       	57.464622      	57.5372        	57.54831       	57.203842      	56.954014      	56.710663      	56.375526      	57.079         	57.78476       	59.459164      	63.594048      	68.766075      	66.99553       	66.927666      	66.53754       	66.52153       	66.44204       	65.66724       	66.39507       	66.76011       	66.65183       	66.375145      	66.39008       	66.21641       	66.342606      	66.18233       	66.14824       	66.03127       	66.26628       	66.194374      	66.17549       	66.363144      	65.937996      	64.67241       	61.09284       	60.972572      	59.358063      	57.73118       	56.728535      	56.92282       	57.42492       	57.594353      	57.683075      	58.309643      	57.372562      	
58.906082      	60.661232      	66.006874      	69.80666       	67.52399       	67.52506       	67.55582       	67.0335        	66.67792       	67.13481       	67.00736       	66.92009       	66.99153       	66.49803       	66.62451       	66.940506      	66.46184       	66.303925      	66.80194       	66.44814       	66.46718       	67.03719       	66.24973       	66.26193       	65.8156        	61.563896      	61.273518      	59.765324      	58.10438       	57.289677      	57.588776      	57.80704       	57.7859        	58.366913      	58.012203      	57.452305      	58.331898      	58.112713      	57.581387      	58.26616       	58.399708      	57.520245      	57.964066      	58.31285       	57.265858      	57.777615      	58.02231       	57.390217      	57.84959       	57.90996       	57.514057      	57.8224        	57.784985      	57.47446       	57.804832      	57.86435       	57.3238        	57.50355       	57.719116      	56.820774      	56.878647      	56.976467      	56.40794       	57.592987      	58.371822      	60.57771       	66.34844       	68.09486       	66.952934      	66.56771       	67.15962       	66.51086       	66.446045      	66.757256      	66.41093       	66.61859       	66.84062       	66.166916      	66.51521       	66.50672       	66.30844       	66.32039       	66.679344      	66.11062       	66.143974      	66.477585      	66.34035       	66.263016      	66.50078       	63.288635      	60.913887      	59.930645      	58.313187      	57.05604       	57.456898      	57.324192      	57.549053      	57.916374      	57.74893       	58.148727      	
58.54598       	59.172108      	63.461098      	70.01438       	68.52655       	67.213135      	67.53841       	67.5703        	66.667984      	66.96419       	67.07637       	66.71316       	66.68364       	67.28993       	66.72071       	66.26503       	67.22174       	66.28281       	66.17667       	66.998535      	66.400734      	66.120094      	66.73078       	66.57167       	66.07862       	63.181732      	61.124622      	60.417236      	59.347137      	57.46449       	56.986385      	57.724014      	57.346523      	57.66412       	57.968353      	57.780647      	57.66499       	57.786972      	57.58508       	57.74153       	57.74121       	57.845985      	57.497547      	57.541267      	57.55797       	57.73235       	57.58312       	57.57174       	57.648197      	57.579483      	57.74483       	57.461388      	57.299324      	57.89122       	57.365276      	57.47238       	57.672604      	57.140785      	57.164642      	57.5484        	56.98521       	56.536858      	56.620697      	56.866383      	57.430325      	59.534477      	61.509605      	68.38769       	67.420784      	66.73113       	66.672714      	66.661125      	66.42627       	66.32022       	66.92721       	66.25532       	66.49971       	66.54858       	66.391         	66.26413       	66.62575       	66.51892       	65.949844      	66.44998       	66.48349       	66.12918       	66.45807       	66.33429       	66.136154      	65.36918       	60.9736        	60.804783      	59.656887      	57.400597      	56.861523      	57.433445      	57.144344      	57.378094      	58.098854      	57.68931       	
57.89935       	58.398376      	61.636673      	67.90139       	68.38586       	67.44177       	67.095024      	67.23513       	67.41356       	66.769615      	66.83073       	67.10185       	66.45213       	66.76351       	67.01982       	66.558334      	66.831345      	66.72822       	66.61665       	66.77676       	66.67615       	66.64539       	66.376724      	66.45444       	66.61686       	65.35698       	61.39908       	61.950825      	59.820194      	58.799194      	57.78327       	57.07506       	57.46281       	57.621117      	58.006065      	57.87949       	57.90848       	57.944576      	57.613194      	57.950832      	57.634823      	57.522022      	57.827034      	57.648693      	57.323883      	57.916023      	57.50014       	57.205284      	57.808052      	57.87512       	57.23263       	57.991405      	57.82891       	57.100574      	57.83544       	57.936543      	57.163033      	57.936466      	57.621532      	56.95306       	57.472378      	57.461113      	56.15019       	56.844997      	57.063457      	57.228855      	60.169918      	66.18869       	67.88115       	67.338356      	66.80246       	66.54184       	66.868935      	66.9768        	66.714676      	66.39353       	66.9573        	66.3681        	66.50082       	66.75081       	66.3864        	66.600266      	66.577415      	66.15919       	66.412636      	66.30975       	66.37529       	66.40745       	66.64794       	66.1975        	62.977478      	61.149006      	59.6778        	59.49189       	57.868504      	56.941868      	57.56605       	58.08452       	57.989464      	58.437775      	
57.150665      	57.25355       	58.950115      	62.54125       	68.52247       	67.44194       	66.90918       	67.25551       	66.830376      	66.665596      	67.1434        	66.580215      	66.379         	67.09449       	66.50073       	66.50942       	66.72195       	66.72786       	66.70848       	66.74347       	66.51268       	66.31785       	66.60052       	66.204956      	65.94663       	66.71421       	64.43656       	60.980534      	61.650417      	59.483166      	57.631996      	57.59935       	57.581192      	57.2821        	57.67084       	57.777622      	57.518204      	57.974297      	57.840416      	57.70972       	57.79938       	57.54801       	57.503407      	57.948685      	57.53907       	57.273483      	57.701782      	57.39382       	57.086567      	58.131786      	57.572636      	57.66361       	57.74791       	57.65561       	57.800472      	57.759045      	57.275414      	57.68646       	57.614887      	57.271717      	57.540257      	57.492004      	56.56495       	56.640064      	56.960705      	57.6536        	59.104183      	60.93895       	66.11397       	67.66979       	66.70998       	67.13568       	66.65163       	66.63583       	66.58043       	66.18754       	66.50957       	66.51359       	65.97705       	66.33362       	66.75347       	66.13291       	66.17136       	66.47075       	66.2219        	66.20949       	66.33547       	66.04477       	66.44908       	66.533745      	64.754654      	60.70319       	61.83109       	61.178753      	61.243137      	59.73356       	59.56906       	60.732567      	60.85449       	61.392433      	
56.632854      	57.29494       	58.41616       	61.29347       	67.45342       	68.10573       	67.68713       	66.88491       	66.126656      	67.09153       	66.528336      	66.38805       	66.72411       	66.95561       	66.12616       	66.73257       	66.87358       	66.13075       	66.42659       	67.01254       	66.23668       	66.74588       	66.636116      	65.9325        	66.24054       	66.592834      	65.89844       	62.482224      	61.810017      	60.224014      	58.99958       	57.924603      	57.040977      	57.273476      	58.120445      	58.013897      	57.62545       	58.34931       	57.875134      	57.483597      	58.10331       	57.63526       	57.389397      	57.99815       	57.576447      	57.31467       	57.744244      	57.684837      	57.51745       	57.91636       	57.943417      	57.232132      	57.54671       	58.206074      	57.579754      	57.387424      	58.12292       	57.298534      	57.487938      	57.939476      	57.106922      	57.327484      	57.63793       	56.57418       	56.533733      	57.63383       	57.769222      	59.935444      	64.217964      	69.02752       	66.95419       	67.59671       	66.92074       	66.73848       	67.32545       	66.51142       	66.99109       	67.10784       	66.81927       	66.53584       	66.69356       	66.28822       	66.41687       	66.89867       	66.78871       	66.565765      	67.044235      	66.7761        	66.616684      	67.00037       	66.661674      	66.9251        	66.7123        	66.55313       	65.89141       	65.34047       	65.32516       	66.55457       	67.22365       	67.10508       	
56.41797       	56.658863      	57.898582      	60.128403      	62.336887      	68.031906      	67.212875      	67.28494       	66.42606       	66.500305      	66.941414      	66.41017       	66.3106        	66.634026      	66.16011       	66.628845      	66.78816       	66.11623       	66.55366       	66.85378       	66.44887       	66.41194       	66.68992       	66.32974       	66.52009       	66.690704      	66.22393       	65.53025       	61.90914       	61.059944      	59.35498       	58.019         	57.1363        	57.43097       	57.87598       	57.685444      	57.80328       	57.98757       	57.98636       	58.064907      	57.99251       	57.6327        	57.84341       	57.68201       	57.64796       	57.8507        	57.736378      	57.74153       	57.936054      	57.694973      	57.77469       	57.84197       	57.713253      	57.78072       	57.825745      	57.934147      	57.7218        	57.760654      	58.028366      	57.37848       	57.696716      	57.714         	56.812965      	57.329117      	56.94117       	56.563984      	57.65191       	59.008553      	60.928223      	67.44199       	67.97092       	67.0089        	67.07682       	66.82202       	66.9115        	67.34744       	67.07833       	66.680954      	67.00376       	67.112946      	66.48638       	66.87302       	67.316765      	66.64065       	66.62014       	66.899254      	66.7848        	66.56674       	66.72816       	66.61407       	66.52525       	66.83091       	66.72384       	66.99089       	66.82795       	66.39186       	66.804596      	66.57793       	66.478195      	66.31946       	
56.84594       	57.060055      	57.509296      	58.752686      	60.808624      	65.67451       	68.38021       	67.52901       	67.27211       	66.99594       	67.146774      	67.00731       	66.8665        	67.01749       	66.70363       	66.71941       	67.25073       	66.7702        	66.48505       	67.29665       	66.80989       	66.66136       	66.86775       	66.409195      	66.24196       	67.06738       	66.7674        	66.59731       	63.88709       	61.286495      	60.44212       	59.50812       	57.494293      	57.36539       	57.660492      	57.460716      	57.97471       	58.13356       	58.081112      	58.30389       	58.03061       	57.884895      	57.997395      	57.93117       	58.049652      	57.809155      	58.00274       	58.093365      	57.82976       	57.71097       	58.190105      	57.686283      	57.957752      	58.156292      	58.01497       	57.839382      	57.964558      	57.91688       	58.08895       	57.987206      	57.626972      	57.345955      	57.622604      	56.81236       	56.607384      	57.26132       	58.101215      	59.93569       	59.13968       	61.567066      	69.67863       	68.28558       	67.59866       	67.34152       	67.66102       	67.10633       	67.36655       	67.215485      	66.86714       	67.203415      	67.2092        	66.83875       	67.248924      	67.10282       	66.79422       	67.22107       	67.00376       	66.800575      	66.96643       	66.8593        	67.0139        	66.851204      	66.89098       	66.699776      	67.0372        	66.96349       	66.52988       	66.60671       	66.338234      	66.21791       	
57.328983      	56.9078        	57.231373      	58.600193      	60.416946      	61.94888       	67.72622       	67.829605      	67.226166      	67.2731        	67.15556       	67.20977       	67.08133       	66.87376       	67.02332       	66.938286      	66.94304       	67.04942       	66.81778       	66.73491       	66.82067       	66.70517       	66.75869       	66.69987       	66.73616       	66.84987       	66.70887       	66.95469       	65.40378       	61.78884       	61.981174      	59.486713      	59.02015       	57.708145      	57.188168      	58.10224       	57.96393       	58.2283        	58.307175      	58.069412      	57.969505      	58.55548       	58.3629        	58.100506      	58.23781       	57.974155      	57.839134      	58.06713       	58.00792       	57.91067       	58.05501       	58.048138      	57.93272       	57.738304      	57.27686       	57.495895      	58.11031       	57.717396      	57.727745      	57.850807      	58.10374       	58.556274      	58.859043      	58.593502      	58.52128       	58.91259       	61.28386       	60.400795      	60.06204       	63.323032      	69.26567       	67.50996       	67.9913        	67.45706       	67.2341        	67.65907       	67.0854        	67.30706       	67.30404       	66.46942       	66.892815      	67.25673       	66.75056       	66.761086      	67.11591       	66.77469       	66.72404       	67.08277       	67.11142       	67.09621       	66.91515       	66.67639       	67.28104       	66.68558       	66.67977       	67.10569       	66.69317       	66.85136       	66.514824      	66.33042       	
57.381992      	57.25763       	57.135838      	57.672222      	58.78554       	61.86734       	67.09432       	67.85492       	67.805084      	67.22669       	67.20201       	67.39028       	67.11903       	66.80511       	67.17648       	66.80081       	66.48391       	67.15902       	67.07857       	66.284035      	66.75497       	66.975685      	66.3763        	66.83764       	67.22          	66.44973       	66.64627       	66.52767       	66.32932       	64.56976       	61.65636       	60.886234      	59.790863      	58.160168      	57.340485      	57.816486      	57.935028      	57.999847      	58.343853      	58.354095      	58.389954      	58.61378       	58.17922       	58.21922       	58.17768       	58.119144      	57.950264      	57.837364      	57.86876       	57.888462      	57.937435      	57.68514       	58.08073       	58.121582      	58.27765       	58.253765      	59.15416       	58.730644      	59.44485       	59.657536      	60.693         	61.46674       	63.02069       	63.404915      	63.638893      	64.460464      	66.155205      	66.68695       	67.10695       	69.24587       	68.15865       	67.77466       	67.87898       	67.593956      	67.50007       	67.79534       	67.258896      	67.27228       	67.29155       	66.81215       	67.155136      	67.62153       	67.046425      	66.60625       	67.1697        	67.03238       	66.73144       	67.195045      	66.90967       	67.049385      	67.046005      	66.769966      	66.78224       	67.18773       	66.993515      	66.70509       	67.475815      	66.99723       	66.02118       	66.92065       	
57.628063      	57.656593      	57.172394      	57.123066      	58.229137      	59.41991       	62.26865       	68.81668       	67.14725       	66.87313       	67.041504      	66.880486      	66.67716       	67.08983       	66.68196       	67.02159       	67.14079       	66.524025      	66.51851       	66.68866       	66.08154       	66.65979       	67.28802       	68.44981       	67.24367       	67.293045      	66.365555      	66.78709       	67.10944       	66.84029       	63.29049       	61.731205      	60.09575       	59.006393      	57.578625      	57.188225      	57.83535       	57.900032      	57.77484       	58.038986      	58.10103       	57.711887      	57.757736      	57.961575      	57.800674      	57.89799       	58.767437      	58.732002      	59.317867      	59.2916        	59.697723      	59.806526      	60.373135      	60.616535      	61.208046      	61.797848      	63.18681       	64.37288       	64.5771        	65.17472       	66.45937       	66.88143       	68.86947       	69.012695      	68.08438       	67.63436       	67.47061       	67.19771       	67.48346       	67.54166       	67.1614        	67.263084      	66.872826      	67.16232       	67.17739       	66.8863        	66.98798       	66.78811       	67.07618       	66.936516      	66.95751       	66.89269       	67.028854      	66.8213        	66.73994       	67.10746       	66.54259       	66.79595       	67.36555       	66.81523       	66.80903       	67.189545      	66.650185      	67.21793       	67.24839       	66.63115       	67.13604       	67.37918       	66.67979       	66.344574      	
58.131756      	57.784424      	57.151844      	57.1922        	58.157413      	59.356014      	60.825363      	63.50862       	69.500084      	67.12666       	67.33531       	67.64402       	67.04317       	67.33342       	67.20441       	67.072876      	67.097786      	67.08645       	66.62072       	67.22462       	66.9737        	66.81815       	66.81121       	66.92504       	66.47184       	66.588936      	66.42183       	66.42841       	66.876175      	66.632935      	65.54454       	61.821842      	61.11901       	59.76081       	58.808777      	57.610203      	57.462166      	58.017994      	58.61933       	58.73978       	59.607044      	59.720924      	59.37547       	60.20248       	60.035362      	60.4713        	61.8373        	62.45091       	63.789192      	64.18681       	65.13023       	66.622284      	66.863144      	66.98118       	68.05635       	68.28717       	69.01001       	68.60807       	68.3001        	67.7881        	67.93387       	67.234375      	67.06469       	67.34059       	67.17686       	67.2237        	67.193306      	66.74621       	66.86041       	67.409004      	67.12463       	66.76865       	66.964294      	67.017006      	67.302574      	67.22723       	66.88193       	67.2911        	66.99684       	66.644196      	66.919914      	66.94233       	66.86221       	66.97988       	66.99541       	66.81641       	67.1454        	66.74517       	67.041695      	66.993744      	66.654396      	66.62098       	67.194275      	67.003685      	66.81193       	67.152336      	66.649055      	66.715805      	66.86244       	66.83821       	
57.780117      	57.8015        	57.797367      	57.611168      	57.371593      	57.810497      	59.320114      	62.143463      	68.22108       	67.73032       	67.46172       	67.24467       	67.268234      	67.31817       	67.2257        	67.23554       	67.229294      	66.69658       	67.02092       	66.98106       	66.6585        	67.39348       	67.18215       	66.790245      	66.9208        	66.844154      	67.024635      	66.91783       	66.71823       	67.23504       	66.560646      	62.623234      	61.85866       	62.39592       	61.59125       	59.912975      	59.975822      	60.198517      	61.328636      	61.846806      	62.731052      	63.89096       	64.97789       	65.10606       	66.483894      	67.47121       	67.2415        	68.44957       	69.606834      	68.190475      	68.11558       	68.52431       	67.53388       	66.9653        	68.01128       	67.318375      	66.79199       	67.70351       	67.03894       	67.23324       	67.3784        	67.02167       	66.93231       	67.31577       	66.884155      	66.947426      	67.3593        	66.91594       	66.71144       	67.40003       	66.923965      	66.89632       	67.396835      	66.97375       	66.78529       	67.267334      	66.94966       	66.84303       	67.28278       	67.053665      	66.40188       	67.33562       	67.13091       	66.76128       	67.12279       	66.794334      	66.84457       	67.2036        	67.183945      	66.69912       	67.19606       	66.899475      	66.79624       	66.942406      	66.98799       	66.64406       	67.24054       	67.21828       	67.11741       	66.99405       	
57.934345      	58.211662      	57.957325      	57.368446      	57.100124      	57.62977       	58.829548      	59.947086      	63.96604       	70.08735       	67.6321        	67.93994       	67.86499       	67.53426       	67.32001       	67.336235      	67.277916      	67.31957       	67.26088       	67.21029       	67.04504       	67.105316      	66.93214       	67.3321        	67.220535      	66.8481        	67.12678       	67.37609       	67.22754       	67.275665      	67.17114       	66.807335      	66.978836      	67.198235      	65.71939       	65.398315      	65.475075      	65.52991       	67.10207       	68.029015      	68.38795       	69.891045      	68.5364        	67.71811       	67.65548       	67.53483       	67.27414       	67.646286      	67.44783       	66.69666       	67.21095       	67.27622       	66.56256       	67.34168       	67.21669       	66.65291       	67.21361       	67.16152       	66.3498        	67.04684       	67.20634       	66.59283       	67.02388       	67.14907       	66.62867       	66.82403       	67.24039       	66.57991       	66.59957       	67.09197       	66.74979       	67.21044       	67.07673       	66.808014      	67.08774       	66.86781       	66.479034      	67.06068       	66.74545       	66.905075      	67.12623       	66.62061       	66.726         	67.1646        	66.841194      	66.92038       	67.008224      	66.68955       	67.05315       	67.042305      	66.4701        	67.46901       	66.92673       	66.27904       	66.69328       	67.04313       	66.79022       	66.98506       	67.09445       	66.699135      	
58.567047      	58.240753      	57.771954      	57.505962      	57.572994      	57.687157      	58.117         	59.270485      	61.648335      	65.79621       	69.233345      	67.87203       	67.18706       	67.40453       	67.80684       	67.26117       	67.27667       	67.28137       	67.04565       	67.08333       	67.53226       	67.10102       	67.00147       	67.480446      	67.210106      	66.98823       	67.549484      	67.125336      	66.8212        	67.3319        	66.96003       	66.84552       	67.44951       	67.09812       	66.638535      	67.35791       	66.95148       	66.35916       	67.01672       	66.58293       	66.46004       	67.04919       	66.67716       	66.504         	66.61699       	66.40815       	66.10208       	66.547165      	66.564606      	66.72369       	67.117584      	66.62952       	66.67885       	66.70585       	66.423096      	66.459496      	66.85191       	66.60499       	66.53016       	66.85215       	66.466446      	66.47002       	66.762955      	66.95537       	66.407875      	66.945564      	66.64732       	66.46023       	67.05196       	66.453476      	66.86949       	66.98056       	66.60632       	66.97874       	67.12541       	66.715256      	67.13105       	66.86148       	66.89714       	67.38458       	66.8667        	66.74503       	67.183235      	66.816475      	66.653694      	67.01617       	67.039566      	66.871704      	67.028046      	67.331116      	66.99896       	67.26074       	67.069916      	66.70846       	67.4471        	66.854256      	66.95041       	67.16581       	66.86517       	66.74904       	
58.041122      	57.792427      	57.805565      	57.806053      	57.754738      	57.411854      	58.400013      	60.520527      	59.760403      	62.97587       	70.32406       	68.78067       	68.003975      	68.087685      	68.01648       	67.29717       	67.52406       	67.71179       	67.20099       	67.67871       	67.71071       	67.28446       	67.39909       	67.57568       	67.359314      	67.24079       	67.73304       	67.31661       	67.163635      	67.43978       	67.27041       	66.917885      	67.42277       	66.92652       	66.95651       	67.53943       	66.71228       	66.427345      	67.248         	66.7758        	66.54243       	67.50245       	66.87352       	66.80275       	67.57448       	66.47766       	66.26861       	66.92841       	66.51557       	67.005356      	66.986824      	66.67316       	66.542625      	66.95755       	66.52117       	66.57262       	66.93344       	66.42914       	66.82722       	67.0322        	66.54162       	66.661644      	66.884636      	66.492096      	66.78206       	67.003975      	66.6932        	66.525955      	66.83664       	66.854485      	66.59898       	67.10261       	66.84711       	66.94448       	67.12748       	66.9881        	66.78016       	66.91008       	67.04992       	66.91596       	67.295006      	66.783676      	66.72163       	67.16109       	66.81476       	66.830826      	66.93081       	67.131744      	66.93342       	66.97257       	67.058784      	66.669136      	67.07074       	66.93262       	66.87016       	67.0068        	66.99462       	67.08738       	66.81513       	66.806496      	
58.68749       	58.78217       	58.664444      	58.986916      	59.389515      	59.460194      	60.929115      	61.950844      	61.78413       	62.565536      	68.048836      	68.66845       	68.47431       	68.23817       	68.00667       	67.90091       	67.916016      	67.66825       	67.76045       	68.01864       	67.819695      	67.2124        	67.849724      	67.3522        	67.219536      	67.68458       	67.450485      	67.16205       	67.70682       	67.06718       	67.36762       	67.714516      	67.00494       	67.40608       	67.187836      	66.98119       	67.21859       	67.030914      	67.10056       	67.01185       	67.133835      	67.14356       	66.59085       	67.2969        	67.250725      	67.21953       	67.00335       	67.23529       	67.20917       	67.1814        	67.03329       	67.277336      	67.11708       	66.81754       	66.7269        	66.82733       	66.61617       	66.8985        	67.36156       	67.07564       	66.86886       	67.44061       	66.93268       	67.18414       	67.32961       	66.97083       	67.17761       	66.73035       	66.90729       	67.41537       	66.64307       	66.98557       	67.35299       	67.00074       	67.06916       	66.954155      	67.226135      	66.8259        	67.33937       	67.13009       	66.90463       	67.25182       	67.150826      	67.01906       	67.42296       	66.813515      	67.26444       	66.99956       	66.91876       	67.05096       	67.169106      	67.07269       	66.72883       	67.195786      	66.86048       	66.79849       	67.235886      	66.8137        	67.220985      	66.92826       	
61.509426      	62.10864       	63.414078      	64.50364       	65.10259       	65.4122        	65.84934       	67.308685      	69.075386      	69.17717       	68.46679       	67.77272       	67.916824      	67.49164       	67.51194       	67.559784      	67.51943       	67.0646        	67.64605       	67.64547       	67.327225      	67.659584      	67.66741       	67.29613       	67.63015       	67.11274       	67.430084      	67.60123       	67.307         	67.306595      	67.338554      	67.15541       	67.01278       	67.03951       	67.0786        	66.87126       	67.34809       	67.3771        	67.163734      	67.008766      	66.999214      	67.22109       	67.418816      	66.92207       	67.06884       	67.09393       	67.15532       	67.17905       	67.11526       	67.09025       	66.82681       	67.36597       	67.271805      	66.81379       	66.572464      	66.52161       	66.46893       	67.04792       	67.33533       	66.86319       	67.10984       	67.010666      	66.83548       	67.463005      	66.908615      	66.94588       	66.88303       	66.5872        	66.72518       	66.6862        	66.787224      	66.93551       	66.95646       	67.303         	67.23521       	67.39037       	66.82966       	67.298996      	67.102234      	66.95338       	67.3106        	67.16377       	67.11051       	67.410545      	66.89654       	67.30284       	67.712685      	66.94022       	67.23084       	67.209015      	66.95987       	67.19634       	67.089836      	66.93781       	66.88245       	67.11156       	66.72104       	66.84179       	67.19407       	62.917652      	
67.51158       	69.091125      	69.92317       	69.250824      	68.3017        	67.76221       	67.938286      	67.52393       	67.589325      	68.000435      	67.663246      	67.21558       	67.85114       	67.4422        	67.10899       	67.6239        	67.62493       	67.11767       	67.56328       	67.59614       	67.28844       	67.35894       	67.413475      	67.31195       	67.28251       	67.09048       	67.24502       	67.46366       	67.36162       	67.25915       	67.26101       	67.218834      	67.22353       	67.170135      	67.15544       	67.04462       	66.813065      	67.17423       	67.62204       	66.871605      	66.57888       	66.92747       	66.79544       	66.6047        	67.3954        	67.24298       	67.11114       	67.388374      	67.46532       	66.95385       	67.41664       	67.50093       	66.84086       	67.361465      	67.27172       	67.06525       	67.20351       	67.27754       	67.51269       	67.103455      	67.500786      	67.05438       	67.089         	67.65656       	67.16929       	66.973175      	67.95193       	66.82257       	66.78994       	67.41824       	66.65392       	66.94716       	67.12466       	67.189         	67.03551       	67.37193       	66.95512       	67.08976       	67.06826       	66.79745       	67.05298       	67.42514       	66.77523       	67.04552       	67.1029        	66.73914       	67.21107       	67.33164       	66.8064        	66.79032       	66.851776      	66.88925       	67.07213       	67.030396      	67.070564      	66.97085       	66.88581       	66.71305       	67.54782       	64.37327       	
66.99957       	67.517334      	67.44338       	67.372986      	66.7871        	66.65679       	67.363106      	67.10796       	66.77325       	67.68523       	67.35487       	66.86107       	67.35482       	66.92067       	67.18289       	67.45037       	67.26356       	67.01808       	67.14461       	67.17475       	67.07287       	67.27889       	67.374886      	67.163414      	66.989395      	67.44642       	66.98444       	67.07227       	67.56762       	66.86469       	67.06307       	67.741585      	66.80525       	67.02385       	67.53476       	66.855064      	66.91985       	67.45427       	66.82379       	66.93494       	67.79338       	66.521904      	66.609344      	67.15651       	66.698044      	67.06719       	67.683426      	66.899055      	67.08497       	67.462326      	67.1485        	66.92778       	67.62575       	67.146385      	66.58029       	67.20369       	67.36523       	66.71672       	67.22751       	65.92566       	63.898674      	65.54858       	65.96316       	68.4979        	69.55728       	68.66534       	68.042076      	68.641014      	68.15003       	67.22439       	65.628914      	65.41443       	62.571968      	68.08435       	68.993706      	67.74697       	68.4453        	68.13753       	67.40423       	67.90907       	68.02498       	67.15673       	67.696815      	67.68631       	67.31008       	67.43317       	67.81415       	67.401184      	67.50342       	67.58181       	67.27307       	67.60193       	67.56551       	67.2328        	67.46984       	67.62441       	66.8322        	67.68067       	66.89012       	62.238472      	
67.00681       	67.1969        	67.28382       	67.28263       	67.05254       	67.15135       	67.504776      	66.83823       	67.07819       	67.352425      	67.32428       	67.03037       	67.33819       	67.1698        	66.942955      	67.69478       	67.02935       	67.28477       	67.57275       	67.04747       	67.30821       	67.62192       	67.36659       	67.26203       	67.597015      	67.32391       	67.11289       	67.76661       	67.75427       	66.99283       	67.73006       	67.611496      	66.91912       	67.73102       	67.14981       	67.358055      	68.113266      	67.57562       	67.13671       	67.75697       	67.425934      	67.45378       	67.16056       	66.822525      	67.095146      	67.42479       	67.151764      	67.56528       	67.86347       	67.38771       	67.40422       	67.58471       	67.20313       	67.33823       	67.28375       	67.48155       	67.373505      	65.87234       	63.874146      	62.819714      	61.978218      	62.266617      	64.647156      	66.7366        	64.735275      	63.987183      	63.614925      	63.607742      	63.718037      	63.812675      	63.93544       	61.793842      	59.071632      	59.883816      	60.482204      	61.28918       	64.30085       	69.74777       	68.03632       	67.96073       	67.77347       	67.99323       	67.867676      	67.82192       	67.88102       	67.65174       	67.76463       	67.917946      	67.72634       	67.40151       	67.55953       	67.71236       	67.288574      	67.25003       	67.85323       	67.3847        	67.477234      	67.74546       	66.984985      	65.40075       	
67.13121       	67.03651       	66.83464       	66.99381       	67.29107       	67.58063       	67.05064       	66.96277       	67.38428       	67.05121       	67.46484       	67.17163       	67.650024      	67.11392       	67.203705      	67.62029       	67.33778       	67.331154      	67.48691       	67.12965       	67.42327       	67.640656      	67.45074       	67.3591        	67.78571       	67.25374       	67.45523       	67.80058       	67.03727       	67.621216      	67.521576      	66.85994       	67.29483       	67.759026      	67.19947       	67.42482       	67.895775      	67.27116       	67.20001       	67.59679       	67.03222       	67.01941       	67.11917       	66.71007       	67.56723       	67.20871       	66.961235      	67.02107       	67.33327       	66.9848        	67.03513       	67.36606       	66.75008       	66.15877       	66.761116      	65.48155       	64.42085       	63.838207      	63.643925      	63.79506       	63.59651       	63.759247      	63.937157      	63.86043       	62.57165       	60.408573      	58.724136      	57.75018       	57.583252      	57.546387      	56.95902       	56.756836      	56.87705       	57.12521       	57.486996      	58.396095      	60.942307      	67.679825      	68.50398       	67.745155      	67.197365      	67.33175       	67.30436       	67.4861        	67.27274       	67.365776      	67.39148       	67.12181       	67.56744       	67.430954      	67.14931       	67.67676       	67.27344       	67.03646       	67.84864       	67.182175      	67.200005      	67.447075      	66.89969       	66.92462       	
66.94896       	66.781235      	66.715485      	66.938324      	66.99221       	66.939255      	67.21641       	67.05489       	66.56014       	66.45469       	67.07363       	67.09065       	66.95085       	67.109146      	66.88138       	67.081055      	67.210335      	66.65645       	66.96233       	67.30282       	66.6982        	66.98945       	67.21002       	66.8168        	66.98841       	67.02894       	66.93073       	67.10322       	67.30624       	66.93079       	66.80037       	67.22036       	66.99757       	66.55036       	67.174706      	67.171906      	66.85755       	67.20121       	67.10067       	66.89411       	67.13837       	66.5883        	66.36341       	66.53817       	66.52          	66.59015       	66.4167        	66.20398       	66.01598       	64.17442       	63.834488      	63.1056        	63.660225      	63.19686       	63.35279       	63.762325      	61.71182       	59.90385       	59.037945      	57.719776      	57.325245      	57.398872      	56.83328       	56.873104      	57.270027      	56.864162      	56.721622      	57.362545      	57.189953      	57.018173      	57.34796       	56.96152       	56.803135      	57.190723      	57.019962      	57.883884      	59.072838      	61.685875      	68.75688       	68.48246       	68.3607        	67.56363       	67.87554       	67.73538       	67.30703       	67.63047       	67.381134      	67.311         	67.28557       	67.35056       	67.32077       	67.39318       	67.33895       	67.27743       	67.77479       	67.42966       	67.25202       	67.41945       	67.14913       	67.12345       	
66.12398       	66.377625      	66.91088       	67.34449       	66.93786       	66.72039       	66.99213       	66.71491       	66.36814       	66.70998       	66.99404       	66.582214      	67.019226      	67.46295       	66.64341       	66.746796      	67.145485      	66.507614      	66.96957       	66.84328       	66.84736       	66.95292       	67.34484       	66.96908       	66.94446       	67.16936       	66.67268       	66.65252       	67.8519        	66.686714      	66.621925      	67.27411       	66.74662       	66.82162       	67.29335       	66.832054      	66.63588       	67.32602       	66.80926       	66.57116       	67.08385       	67.02266       	66.22448       	62.558907      	63.745132      	63.398254      	63.431458      	63.513123      	63.521957      	61.406464      	60.462486      	58.13541       	57.336525      	56.98669       	56.95404       	56.94014       	57.12142       	56.8743        	57.02393       	56.862923      	57.189644      	57.602394      	57.242485      	57.538296      	57.51984       	57.648365      	57.84169       	57.732502      	57.615654      	57.7518        	57.84471       	57.337704      	57.680164      	57.581764      	56.740833      	57.86295       	58.523357      	59.754803      	62.695866      	69.9779        	67.83661       	67.76138       	67.87324       	67.42665       	67.358406      	67.565         	67.35595       	67.226585      	67.58327       	67.0469        	67.046875      	67.7424        	67.01084       	67.1031        	67.38731       	67.0463        	66.81661       	67.213425      	67.13892       	66.78871       	
66.9035        	67.25731       	67.169205      	66.990295      	66.94879       	67.7933        	66.81912       	66.58325       	67.06511       	67.2281        	66.57415       	67.46702       	67.61678       	66.75945       	66.98146       	67.439026      	67.26016       	67.02972       	67.58404       	66.956154      	67.13635       	67.53382       	66.71595       	67.16172       	67.66609       	66.77624       	67.01693       	67.39596       	66.82257       	66.77497       	67.43388       	66.98101       	66.90194       	67.61127       	67.07486       	66.83367       	67.489655      	67.145584      	66.51402       	67.238014      	67.29415       	62.29937       	59.825375      	58.360954      	57.478138      	57.841858      	57.18457       	56.518333      	57.358646      	57.331425      	56.73029       	57.564365      	57.6457        	57.046112      	57.55437       	57.721527      	57.076496      	57.59874       	57.875607      	57.53999       	57.83967       	57.948017      	57.688038      	57.850197      	58.610706      	57.856155      	58.138897      	58.447365      	57.990456      	58.17181       	58.629917      	57.827133      	57.785297      	58.02143       	57.24013       	57.148758      	58.266434      	58.8073        	61.202496      	66.898705      	68.83513       	67.89776       	68.04646       	67.478775      	67.58542       	68.06236       	66.834045      	67.09801       	67.9568        	67.79008       	67.17714       	67.93621       	67.5086        	67.25858       	67.398346      	67.67907       	66.77515       	67.613335      	67.731575      	66.8541        	
66.68417       	66.567795      	66.52565       	66.62237       	67.08126       	67.20819       	66.88627       	66.32925       	67.192245      	66.82698       	66.664375      	67.51298       	67.29551       	66.78347       	67.310005      	67.37057       	67.12436       	67.295044      	67.3399        	67.20573       	67.48603       	67.2834        	66.6308        	67.27867       	67.78277       	66.93041       	67.12672       	67.41141       	66.92308       	67.18695       	67.43311       	66.949615      	67.00214       	67.165146      	66.85717       	66.87818       	67.27639       	66.657074      	66.849174      	65.633156      	59.286236      	50.46028       	49.86637       	51.76237       	57.057274      	59.135242      	58.29508       	58.07878       	58.588287      	58.211483      	57.723934      	58.186714      	58.555317      	57.81555       	58.23226       	58.40141       	57.967484      	58.494064      	58.567696      	58.04867       	58.510944      	58.64835       	58.012966      	58.590076      	58.701168      	58.423256      	58.84543       	58.918964      	58.3645        	58.67913       	58.58374       	58.098366      	58.28135       	58.246876      	57.667835      	57.63224       	57.66362       	58.136974      	59.314003      	62.27225       	68.96327       	68.480896      	68.25634       	68.10232       	67.85512       	68.04554       	67.129974      	67.483925      	68.27468       	67.51611       	67.73137       	68.00862       	67.45399       	67.46738       	67.510925      	67.24873       	67.74753       	67.87517       	67.13237       	67.457245      	
66.944435      	66.42783       	66.28393       	66.641045      	67.160934      	67.37552       	66.91788       	67.17995       	67.30512       	67.04373       	67.36609       	67.3299        	66.98125       	67.251495      	67.317726      	67.06925       	66.86831       	67.20742       	67.17955       	66.659706      	67.28031       	67.081024      	66.939224      	67.09284       	67.18719       	67.09539       	67.01161       	67.18061       	66.972435      	66.77272       	67.085724      	66.86447       	67.00458       	66.9644        	67.10526       	66.87925       	66.86616       	66.9165        	59.69792       	56.670002      	52.379253      	50.39729       	48.358707      	49.130123      	50.58647       	50.6862        	52.790874      	57.682056      	60.3113        	59.0142        	58.93512       	58.834663      	58.51451       	58.72506       	58.68183       	58.501984      	58.588955      	58.68649       	58.877964      	58.52672       	58.799667      	58.433468      	58.408012      	58.8497        	58.559822      	58.654556      	58.8727        	58.63955       	58.284805      	58.730637      	58.695927      	58.193737      	58.52335       	58.433987      	57.631824      	57.816944      	57.977943      	58.098087      	59.109867      	61.070538      	62.732292      	69.92891       	68.22501       	67.96929       	67.877625      	67.764725      	67.73259       	67.43002       	67.65587       	67.80525       	67.21742       	67.61807       	67.593094      	67.5144        	67.45238       	68.20393       	67.52642       	67.424904      	67.62006       	67.49786       	
66.76975       	66.59291       	66.51236       	67.00145       	67.68575       	67.52858       	66.589935      	66.51816       	66.463524      	66.01365       	65.19555       	64.942055      	63.030827      	64.87021       	69.761284      	67.91814       	68.11617       	68.053894      	67.35173       	67.40343       	67.645966      	67.040535      	67.375694      	67.27452       	67.14248       	67.11536       	67.49726       	67.10275       	67.12371       	67.29202       	67.119026      	67.19952       	67.42955       	67.330345      	67.05093       	67.22976       	65.92654       	52.75311       	49.928764      	49.084137      	46.298588      	45.805225      	45.25972       	45.451126      	46.562107      	46.613655      	47.187187      	49.516045      	54.42923       	61.274967      	59.30768       	59.193462      	58.85367       	59.13135       	59.126022      	58.408413      	58.834675      	58.970505      	58.315945      	58.830902      	58.78535       	58.193333      	58.562836      	58.84145       	58.533333      	58.487293      	58.831886      	58.346073      	58.699993      	58.671257      	58.502007      	58.25445       	58.502113      	58.332073      	57.664925      	58.03616       	57.538723      	57.58325       	58.60599       	59.67364       	62.31105       	69.198425      	68.07869       	67.96941       	67.56129       	67.73493       	67.85192       	67.63787       	67.798935      	67.5637        	67.27454       	67.73466       	67.51751       	67.154076      	67.48175       	67.73916       	67.61143       	67.407616      	67.63349       	67.30543       	
65.93576       	65.40458       	65.250114      	64.6432        	63.549583      	63.189327      	63.719193      	63.62239       	63.49606       	63.76436       	63.753895      	61.496857      	59.20009       	59.614166      	59.616146      	60.634945      	62.09309       	69.02529       	68.30677       	68.14412       	67.69795       	67.62668       	67.78177       	67.52367       	67.53594       	67.98185       	67.79638       	67.44623       	67.767105      	67.58022       	67.54893       	67.52067       	67.30313       	67.601265      	67.39167       	67.369255      	64.95349       	52.08817       	48.465847      	46.814297      	46.43601       	46.11059       	46.01554       	45.982082      	46.051083      	47.62436       	49.21682       	48.347347      	49.884384      	53.53831       	60.74704       	59.274555      	59.46385       	58.92679       	58.71491       	58.981037      	58.62915       	58.826286      	58.887585      	58.462006      	58.68039       	59.008385      	58.52758       	58.42449       	58.935207      	58.63712       	58.33307       	58.93236       	58.704594      	58.322075      	58.728268      	58.58787       	58.15101       	58.724003      	58.18702       	57.938686      	57.823307      	57.587456      	57.322353      	58.608032      	60.213154      	63.384563      	69.88477       	68.00198       	67.40289       	68.07034       	67.81939       	67.19371       	67.48754       	68.06864       	67.26426       	67.57031       	67.91636       	67.0986        	67.78526       	67.95651       	67.16715       	67.47225       	67.809364      	67.46805       	
63.328754      	63.457066      	63.163216      	60.341747      	58.424984      	57.773754      	58.032043      	57.642876      	56.62979       	57.15094       	57.150356      	56.51562       	56.83556       	56.72928       	56.981606      	58.011955      	59.714012      	63.79277       	69.66223       	68.49741       	67.91837       	67.978         	68.07633       	67.456406      	67.719795      	67.42582       	67.72838       	67.52248       	67.723526      	67.68285       	67.488106      	67.56662       	67.80611       	67.503845      	67.56306       	64.97791       	55.48241       	51.77321       	49.25133       	48.345036      	49.6238        	48.250183      	47.330738      	46.995193      	47.877533      	50.07206       	51.0988        	49.19422       	50.218525      	53.025494      	61.273617      	59.80714       	58.95062       	58.932808      	59.015778      	58.77797       	58.698597      	58.8332        	58.75709       	58.538746      	58.946728      	58.53812       	58.391342      	58.874763      	58.334618      	58.03876       	58.70258       	58.755825      	58.123707      	58.843056      	58.879795      	58.262924      	58.729866      	58.448513      	57.921856      	58.169106      	57.927982      	57.21177       	57.932514      	58.900105      	59.38324       	61.27767       	65.49607       	69.21198       	68.218155      	68.36352       	68.0638        	67.62729       	68.23044       	67.85052       	67.70799       	68.09491       	67.72473       	67.66367       	68.408745      	67.79344       	67.66079       	67.98174       	67.40449       	67.1987        	
57.088703      	56.689182      	56.729748      	56.989952      	57.510868      	57.369724      	57.369476      	57.545616      	57.588634      	57.309505      	57.638824      	57.47937       	56.943447      	57.602966      	57.27387       	57.53061       	58.87896       	60.69332       	64.20404       	70.006935      	68.48722       	67.6192        	67.99591       	68.28444       	67.441         	67.90211       	68.1806        	67.34385       	67.339836      	68.0774        	67.64279       	67.42543       	67.93649       	67.29081       	67.420364      	63.798714      	53.794144      	53.066925      	51.409473      	48.47378       	48.555107      	51.491222      	49.747334      	49.407818      	51.2366        	52.326588      	53.04711       	53.79062       	53.9633        	58.234398      	61.406353      	59.409374      	58.836323      	58.9847        	58.78388       	58.47506       	59.051758      	58.713886      	58.48093       	58.9173        	58.77472       	58.36607       	58.61          	58.61589       	58.535355      	58.62184       	58.47388       	58.664406      	58.58437       	58.528603      	58.44422       	58.785873      	58.21157       	58.4789        	58.601227      	57.967537      	58.078995      	57.96197       	57.190426      	57.959644      	58.85469       	60.283035      	64.67272       	69.23681       	67.62046       	67.687004      	67.96865       	67.6479        	67.91154       	67.510414      	67.43744       	67.82151       	67.8337        	67.25953       	68.27625       	68.09151       	67.64181       	67.98343       	68.04547       	67.51255       	
57.14758       	57.197678      	57.174885      	57.38541       	57.884296      	57.5783        	57.308983      	57.796627      	57.982056      	57.669903      	58.122013      	57.812202      	57.443207      	57.65002       	57.39919       	57.180035      	58.269684      	59.63225       	61.526005      	67.877655      	69.069275      	68.00809       	67.82835       	68.20121       	67.58153       	67.60423       	68.23631       	67.44338       	67.49711       	68.03422       	67.228935      	67.33223       	67.82082       	67.51214       	67.60932       	67.94346       	67.73667       	64.38703       	62.27438       	60.243645      	57.12724       	55.34257       	54.91194       	55.093018      	54.93073       	55.595886      	57.18347       	60.336094      	59.863853      	59.07149       	59.419117      	59.110806      	58.72195       	58.969833      	58.550594      	58.41871       	58.73647       	58.454777      	58.374554      	58.73579       	58.384758      	58.26605       	58.69948       	58.517612      	58.19326       	58.676487      	58.37935       	58.205215      	58.680332      	58.474392      	58.249588      	58.622875      	58.35033       	57.844536      	58.759937      	58.166916      	57.593998      	57.98497       	57.530495      	57.232147      	58.113693      	58.783096      	60.858547      	67.52488       	68.02322       	67.41593       	67.70701       	67.03462       	66.92364       	67.55494       	67.53534       	67.256454      	67.80778       	67.727646      	67.412834      	67.93193       	67.31345       	67.24999       	67.558525      	67.6899        	
57.926975      	57.86766       	57.82166       	57.942814      	58.10155       	58.290398      	58.114143      	58.298283      	58.442055      	58.41544       	58.026417      	58.168674      	57.992386      	57.724648      	57.652206      	57.52547       	57.999847      	58.99034       	60.680595      	62.7451        	70.08601       	68.11023       	67.64762       	67.8129        	67.88821       	67.31547       	67.72957       	67.87247       	67.31702       	67.58769       	67.84289       	67.13167       	67.420944      	67.77619       	67.21823       	67.65997       	67.95765       	67.518295      	67.938354      	68.20549       	67.88047       	67.310295      	63.146378      	63.063854      	62.230392      	60.800785      	59.053497      	58.08618       	58.497936      	58.420006      	58.314724      	58.789455      	58.690784      	58.43951       	58.657993      	58.716373      	58.252926      	58.470882      	58.74961       	58.005264      	58.638474      	58.59028       	58.14096       	58.468815      	58.737537      	57.87332       	58.12757       	58.694008      	57.922493      	57.89965       	58.602585      	58.243423      	58.326958      	58.269855      	58.000126      	58.108425      	58.439434      	57.66341       	57.433437      	57.83553       	57.33848       	57.835575      	59.588547      	62.310867      	68.500854      	68.38587       	67.83953       	67.723564      	67.912445      	67.46345       	67.312294      	68.26115       	67.69764       	67.35861       	68.04132       	67.77673       	67.39574       	67.77251       	67.71454       	67.108505      	
58.212822      	58.22663       	58.31776       	58.513382      	58.72478       	58.28072       	58.480217      	58.631443      	58.45242       	58.579285      	58.68869       	58.25769       	58.184402      	58.305927      	57.51741       	57.39277       	57.736317      	57.92888       	59.226078      	62.07676       	68.43642       	68.517334      	68.09285       	67.94081       	67.88145       	68.08413       	67.51259       	67.69599       	67.884056      	67.677124      	67.82268       	67.47185       	67.233284      	67.61554       	67.610275      	67.64076       	67.52066       	67.44235       	67.438934      	67.47877       	67.33999       	67.274956      	66.65042       	62.360226      	62.331566      	60.989117      	59.5869        	58.420612      	58.19708       	58.351463      	58.307373      	58.736515      	58.752113      	58.607147      	58.737556      	58.6993        	58.303787      	58.586143      	58.238136      	58.52074       	58.604473      	58.268333      	58.432102      	58.496334      	58.410294      	58.40466       	58.57735       	58.42126       	58.278957      	58.565617      	58.316914      	58.437973      	58.484352      	58.223957      	58.400963      	58.449524      	57.980343      	58.254093      	58.251762      	57.237106      	57.617302      	58.45833       	58.776913      	61.00545       	63.29527       	69.42859       	68.15156       	68.389366      	67.640434      	67.465935      	67.991234      	67.49552       	67.37175       	67.62596       	67.57663       	67.567856      	67.40233       	67.25804       	67.482796      	67.37397       	
58.459866      	58.868835      	58.70817       	58.42645       	58.458176      	58.74246       	58.513226      	58.367687      	58.733242      	58.728424      	57.94112       	58.454803      	58.541634      	57.914726      	57.657455      	57.566185      	57.090755      	57.858643      	58.52012       	60.28649       	63.162163      	70.52878       	68.31731       	68.03001       	68.06476       	67.30704       	67.498856      	68.062294      	67.21655       	67.82348       	67.55433       	67.27777       	67.480125      	67.51905       	67.49148       	67.29846       	67.4324        	67.07989       	67.773125      	67.277084      	66.79921       	67.065094      	67.337585      	65.514565      	61.655533      	62.02288       	59.485626      	58.31629       	57.620533      	57.71769       	58.252266      	58.345943      	58.31668       	58.81004       	58.78463       	58.105427      	58.60289       	58.791355      	58.139053      	58.471634      	58.376564      	58.11161       	58.396183      	58.333855      	58.12258       	58.56586       	58.604847      	58.209194      	58.441223      	58.55318       	58.04652       	58.692917      	58.730053      	58.07103       	58.516056      	58.582653      	58.19414       	58.27792       	58.16508       	57.607433      	57.396492      	57.78533       	58.33623       	59.55783       	62.134342      	68.39662       	68.88616       	67.8464        	67.62336       	67.95649       	67.99364       	67.357376      	67.59922       	67.540115      	67.37966       	67.707245      	67.75742       	67.32597       	67.730576      	67.83703       	
57.87974       	58.373142      	58.736336      	58.369545      	58.17057       	58.083454      	58.64104       	58.026527      	58.037636      	58.7194        	57.965363      	57.973423      	58.395596      	57.898174      	57.746666      	57.728348      	57.29089       	56.98822       	57.954353      	58.409096      	60.54313       	67.10282       	67.670074      	67.43317       	67.47544       	67.160675      	67.54624       	67.57252       	67.16465       	67.01452       	67.50791       	67.19251       	67.25958       	67.62354       	67.07213       	66.85789       	67.40238       	67.24739       	66.89828       	67.1387        	66.95903       	67.20401       	67.41627       	66.97234       	64.37138       	61.496357      	60.407627      	58.904045      	58.065697      	57.457855      	57.481274      	58.16386       	58.477333      	58.135204      	58.57597       	58.692616      	58.188553      	58.14365       	58.525898      	58.44092       	58.155834      	58.70842       	58.223145      	58.113518      	58.556778      	57.89274       	58.087994      	58.648674      	58.179245      	58.131367      	58.868313      	58.372597      	57.959797      	58.35498       	58.55927       	58.013344      	58.401203      	58.309177      	57.63345       	57.837776      	57.684246      	57.031197      	57.910114      	58.637127      	59.685913      	63.56094       	70.19717       	67.85976       	68.066246      	68.42845       	67.64034       	67.67831       	68.18566       	67.51279       	67.7374        	67.84898       	67.43363       	67.397255      	67.80477       	67.71481       	
