# www.neaspec.com
# Scan:	 	AFM
# Project:	 	20251007_PS
# Description:	 	
# Date:	 	10/07/2025 10:43:47
# Scanner Center Position (X, Y):	[µm]	49.99	50.01	 
# Rotation:	[°]	0	 	 
# Scan Area (X, Y, Z):	[µm]	5.000	5.000	0.000
# Pixel Area (X, Y, Z):	[px]	100	50	1
# Averaging:	 	1	 	 
# Integration time:	[ms]	5	 	 
# Laser Source:	 	4.5-15 µm nano-FTIR laser
# Detector:	 	R
# Target Wavelength:	[µm]	7.502	 	 
# Demodulation Mode:	 	Fourier
# Tip Frequency:	[Hz]	241,340.500	 	 
# Tip Amplitude:	[mV]	45.700	 	 
# Tapping Amplitude:	[nm]	79.665	 	 
# Modulation Frequency:	[Hz]	0.000	 	 
# Modulation Amplitude:	[mV]	0.000	 	 
# Modulation Offset:	[mV]	0.000	 	 
# Setpoint:	[%]	79.75	 	 
# Regulator (P, I, D):	 	4.206850	8.625812	1.000000
# Tip Potential:	[mV]	0.000	 	 
# M1A Scaling:	[nm/V]	0.426	 	 
# M1A Cantilever Factor:	 	1,000	 	 
# Q-Factor:	 	487.4	 	 
# Version:	 	2.1.11536.0
79.62606       	79.65544       	79.47599       	79.71891       	79.68574       	79.52704       	79.62852       	79.71276       	79.47212       	79.48397       	79.723816      	79.680084      	79.55187       	79.48365       	79.8524        	79.55256       	79.44501       	79.70961       	79.5562        	79.74311       	79.70065       	79.83473       	79.58758       	79.57787       	79.72976       	79.66506       	79.30445       	79.60879       	79.588165      	79.58623       	79.55209       	79.62375       	79.566284      	79.58387       	79.52634       	79.7853        	79.39097       	79.6519        	79.63625       	79.62969       	79.54332       	79.767715      	79.52504       	79.665695      	79.86176       	79.61664       	79.579254      	79.56751       	79.526596      	79.60917       	79.667595      	79.70268       	79.49737       	79.3731        	79.44368       	79.76374       	79.63275       	79.43376       	79.86081       	79.62462       	79.33154       	79.70551       	79.9098        	79.93746       	79.16886       	79.43458       	79.76887       	79.4102        	79.512314      	79.75469       	79.64978       	79.46618       	79.59571       	79.663216      	79.58904       	79.35817       	79.73244       	79.7553        	79.50892       	79.52747       	79.76199       	79.50174       	79.45205       	79.29308       	79.59178       	81.49984       	79.357185      	79.63898       	79.859566      	79.264366      	79.75672       	79.6286        	79.79831       	80.169914      	81.505516      	80.634346      	80.48346       	79.864586      	79.75577       	79.15942       	
79.50168       	79.73156       	79.57312       	79.617096      	79.62166       	79.65028       	79.693184      	79.32173       	79.532776      	79.824326      	79.546265      	79.71893       	79.50938       	79.744804      	79.51788       	79.445755      	79.72067       	79.648506      	79.53661       	79.83976       	79.7635        	79.73143       	79.680244      	79.616325      	79.464325      	79.743355      	79.64156       	79.54339       	79.39572       	79.49511       	79.54528       	79.55961       	79.67197       	79.6084        	79.895676      	79.651344      	79.23162       	79.743195      	79.51372       	79.61333       	79.65875       	79.587746      	79.750496      	79.36358       	79.94182       	79.99721       	79.38623       	79.60553       	79.64399       	79.62079       	79.573944      	79.62592       	79.54116       	79.43651       	79.4462        	79.81033       	79.64583       	79.36793       	79.81935       	79.41112       	79.68104       	79.62312       	79.37953       	79.68888       	79.55812       	79.650475      	79.61387       	79.525505      	79.56669       	79.68163       	79.702835      	79.34493       	79.60878       	79.91129       	79.57067       	79.401146      	79.521416      	79.77072       	79.488144      	79.32905       	79.70718       	79.5506        	79.3152        	78.78103       	82.176056      	81.34263       	77.53449       	81.08227       	80.67804       	80.19791       	79.84511       	79.78405       	79.85514       	79.49995       	79.44695       	79.48269       	79.60433       	79.47466       	79.899475      	79.63119       	
79.66002       	79.50482       	79.75447       	79.62863       	79.42302       	79.62694       	79.71992       	79.71739       	79.59738       	79.47811       	79.60322       	79.77804       	79.45435       	79.723465      	79.69915       	79.36915       	79.92759       	79.55089       	79.45784       	79.89367       	79.70585       	79.76634       	79.74106       	79.14536       	79.69965       	79.65223       	79.56132       	79.7177        	79.62471       	79.66021       	79.570595      	79.68407       	79.32183       	79.61074       	79.76387       	79.51744       	79.81574       	79.37494       	79.46231       	79.64604       	79.61666       	79.58894       	79.735664      	79.445175      	79.48245       	79.917496      	79.490135      	79.53716       	79.74634       	79.72698       	79.53624       	79.428185      	79.74563       	79.41533       	79.4149        	79.66791       	79.77403       	79.37084       	79.73633       	79.67364       	79.60219       	79.71812       	79.532104      	79.67986       	79.395485      	79.69848       	79.696106      	79.46288       	79.430374      	79.75311       	79.75177       	79.64452       	79.29596       	79.78413       	79.679245      	79.27442       	79.61413       	79.641846      	79.469765      	79.36248       	79.17928       	81.13315       	82.06865       	81.8005        	80.87936       	80.337585      	79.7364        	79.53458       	79.65768       	79.67878       	79.41456       	79.63325       	79.6304        	79.55627       	79.55018       	79.71147       	79.77852       	79.72435       	79.847244      	79.76389       	
79.71208       	79.570595      	79.6223        	79.685         	79.78285       	79.53645       	79.541954      	79.71675       	79.67205       	79.33579       	79.76519       	79.68772       	79.48319       	79.613945      	79.64338       	79.52997       	79.62353       	79.66669       	79.86386       	79.45054       	79.62191       	80.023094      	79.53098       	79.268845      	79.43376       	79.67067       	79.54726       	79.61685       	79.66223       	79.82411       	79.54872       	79.49612       	79.84783       	79.43544       	79.65489       	79.70196       	79.554375      	79.34519       	79.37716       	79.901764      	79.44978       	79.4997        	79.80097       	79.54211       	79.53797       	79.63403       	79.67766       	79.72316       	79.37035       	79.60973       	79.74802       	79.441734      	79.674904      	79.574875      	79.53628       	79.676476      	79.36076       	79.67031       	79.671906      	79.53037       	79.5951        	79.55359       	79.626144      	79.69605       	79.56002       	79.50644       	79.632195      	79.5673        	79.58952       	79.67278       	79.83929       	79.45742       	79.37519       	79.88951       	79.421196      	79.36464       	79.86176       	79.376945      	79.3478        	79.40433       	79.065994      	81.5917        	82.25508       	80.839935      	81.16476       	80.63212       	79.625244      	79.39448       	79.78164       	79.65042       	79.43806       	79.7064        	79.53709       	79.66963       	79.71188       	79.52271       	79.5773        	79.91756       	79.45761       	79.968025      	
79.82719       	79.40466       	79.392         	79.885414      	79.43645       	79.662094      	79.52634       	79.468254      	79.870895      	79.50442       	79.66009       	79.84689       	79.42393       	79.63254       	79.76555       	79.566605      	79.63058       	79.52393       	79.6774        	79.678734      	79.72919       	79.7287        	79.50827       	79.58772       	79.65624       	79.342865      	79.64284       	79.50564       	79.94671       	79.33758       	79.590965      	79.82794       	79.69934       	79.738045      	79.40613       	79.56027       	79.56349       	79.382355      	79.75865       	79.59565       	79.63682       	79.33037       	79.65569       	79.67694       	79.42886       	79.41651       	79.895035      	79.555565      	79.41113       	79.51656       	79.52061       	79.32264       	79.89564       	79.542625      	79.730865      	77.417465      	79.46197       	79.54557       	79.738625      	79.52103       	79.44158       	79.79898       	79.642715      	79.63581       	79.5102        	79.773994      	79.72759       	79.66375       	79.49532       	79.58222       	79.6694        	79.464905      	79.459045      	79.68747       	79.64903       	79.62236       	79.58281       	79.228455      	79.6164        	79.47927       	78.97717       	80.86233       	79.540504      	80.70514       	80.65968       	80.83223       	80.43205       	79.555016      	79.557144      	79.787674      	79.679115      	79.63752       	79.3258        	79.720535      	79.949554      	79.57861       	79.70187       	79.813286      	79.79418       	79.950775      	
79.429535      	79.39293       	79.734116      	79.66508       	79.32248       	79.475945      	79.84886       	79.55984       	79.57801       	79.661026      	79.61775       	79.73884       	79.47587       	79.80728       	79.771965      	79.4563        	79.55549       	79.65551       	79.500626      	79.50135       	79.63813       	79.87809       	79.653725      	79.55187       	79.71152       	79.4018        	79.344185      	79.73482       	79.52372       	79.771034      	79.58325       	79.52525       	79.756004      	79.672615      	79.332466      	79.8624        	79.550255      	79.244576      	79.88445       	79.58197       	79.52657       	79.435265      	79.59489       	79.45752       	79.03569       	76.53138       	80.23454       	80.55886       	79.50161       	79.67381       	79.81616       	79.58698       	79.38756       	79.68928       	79.74641       	79.60935       	79.9635        	72.76912       	79.73217       	79.63152       	79.58227       	79.56399       	79.49768       	79.638336      	79.69492       	79.4838        	79.47208       	79.65988       	79.6605        	79.58592       	79.44108       	79.922325      	79.37747       	79.61053       	79.67008       	79.56811       	79.38224       	79.49448       	79.58253       	79.26134       	78.814606      	78.64223       	81.09244       	78.18223       	80.542534      	80.85947       	80.782295      	79.59655       	79.60257       	79.85538       	79.63271       	79.51988       	79.50038       	79.64738       	79.675674      	80.00179       	79.67273       	79.94057       	79.54248       	79.781166      	
79.732414      	79.43163       	79.748215      	79.584236      	79.36116       	79.87321       	79.36099       	79.35163       	79.85622       	79.668076      	79.533165      	79.708244      	79.63268       	79.49521       	79.667984      	79.66935       	79.537056      	79.561966      	79.81435       	79.37975       	79.75406       	79.63564       	79.71191       	79.798805      	79.27324       	79.44449       	79.720535      	79.45432       	79.48361       	79.77143       	79.57185       	79.64941       	79.38368       	79.656624      	79.49046       	79.37536       	79.1625        	79.40641       	80.54938       	79.650475      	80.0986        	80.27962       	79.771255      	79.36908       	79.515465      	79.836914      	79.2505        	80.179886      	79.266785      	81.145805      	80.66642       	80.43515       	80.16597       	79.61516       	79.87422       	79.37392       	78.89076       	78.305466      	76.17572       	70.81251       	79.62984       	79.36735       	79.68438       	79.79429       	79.33751       	79.66596       	79.57665       	79.70132       	79.44724       	79.51797       	79.74722       	79.68994       	79.467766      	79.67731       	79.66184       	79.4899        	79.43316       	79.776474      	79.59126       	79.42131       	79.39967       	78.71244       	80.85446       	81.03757       	80.76444       	81.32069       	80.551605      	80.341644      	79.37809       	79.801384      	79.66897       	79.40349       	79.614105      	79.735176      	79.49529       	79.53791       	79.68055       	79.63417       	79.94133       	79.843025      	
79.696495      	79.625465      	79.624565      	79.67393       	79.44504       	79.50089       	79.76903       	79.672714      	79.32421       	79.738205      	79.80789       	79.49863       	79.53583       	79.35375       	79.901146      	79.63836       	79.52656       	79.83636       	79.279655      	79.35959       	79.74366       	79.71851       	79.438446      	79.80551       	79.803085      	79.52136       	79.24282       	79.584625      	79.557686      	78.76758       	77.61491       	80.25762       	79.61835       	80.07219       	80.05195       	79.68665       	79.52507       	79.47315       	79.78651       	79.22359       	79.08524       	81.14318       	81.27189       	80.1762        	79.714905      	80.20471       	79.69343       	79.46793       	79.871895      	79.57696       	79.65358       	79.54292       	79.56889       	79.633804      	79.70303       	79.59154       	79.24313       	78.235596      	79.16517       	75.608         	73.75801       	79.53666       	79.496216      	79.658775      	79.59597       	79.6726        	79.490456      	79.43579       	79.65741       	79.68375       	79.54948       	79.49135       	79.666245      	79.708694      	79.4469        	79.74311       	79.52158       	79.30345       	79.64349       	79.7232        	79.173         	79.29052       	78.68444       	81.99435       	78.009705      	80.71395       	80.992325      	80.60454       	79.97896       	79.41253       	79.77056       	79.70618       	79.36573       	79.79324       	79.763664      	79.58129       	79.581505      	79.68915       	79.79835       	79.80428       	
79.55904       	79.84976       	79.37396       	79.46014       	79.728424      	79.39537       	79.54483       	79.57244       	79.78997       	79.55334       	79.7283        	79.309654      	79.96466       	79.6507        	79.33786       	79.78386       	79.376755      	79.581024      	79.664116      	79.42999       	79.59093       	79.58855       	79.507675      	79.20952       	79.30214       	80.814445      	79.79395       	79.921135      	79.5583        	79.408035      	79.66872       	79.1703        	79.56514       	79.102875      	81.71723       	81.21637       	80.007645      	79.78665       	79.99756       	79.51771       	79.82725       	79.612854      	79.64407       	79.69719       	79.64428       	79.514336      	79.686554      	79.555176      	79.67132       	79.57027       	79.54268       	79.6423        	79.80388       	79.74284       	79.27635       	79.92306       	79.31612       	78.44682       	78.67933       	78.69513       	76.80339       	71.35273       	79.64269       	79.58239       	79.57653       	79.539406      	79.52719       	79.560715      	79.65983       	79.63972       	79.567726      	79.555374      	79.574234      	79.49845       	79.67031       	79.64873       	79.46365       	79.76173       	79.313126      	79.45938       	79.68159       	79.389496      	78.84405       	81.667435      	80.211815      	80.99653       	80.611275      	80.61509       	80.47417       	79.75807       	79.373795      	79.476494      	79.97314       	79.57213       	79.75514       	79.46967       	79.49583       	79.66181       	79.92154       	79.85084       	
79.524864      	79.739296      	79.64924       	79.55042       	79.49619       	79.69747       	79.76505       	79.419014      	79.58447       	79.61875       	79.53582       	79.534584      	79.74924       	79.75657       	79.378494      	79.54223       	79.64155       	79.551476      	79.55616       	79.48458       	79.614044      	79.634186      	79.23957       	79.39057       	79.012115      	82.134636      	81.12164       	80.71533       	80.45258       	80.13471       	80.16964       	79.83351       	79.69848       	79.66069       	79.626396      	79.48174       	79.680336      	79.53291       	79.59061       	79.603004      	79.65803       	79.63743       	79.60234       	79.78936       	79.639496      	79.47951       	79.57252       	79.56296       	79.67547       	79.73482       	79.52962       	79.792244      	79.47725       	79.638794      	79.745674      	79.58579       	79.36223       	79.012955      	78.66772       	79.08615       	77.2952        	75.26109       	79.54772       	79.40411       	79.61095       	79.83115       	79.60472       	79.38236       	79.672874      	79.54098       	79.6971        	79.61349       	79.55296       	79.775         	79.45059       	79.585434      	79.79807       	79.33335       	79.51047       	79.616875      	79.560486      	79.45772       	79.13838       	78.64075       	81.843445      	77.64962       	81.19288       	80.96798       	80.37921       	79.89127       	79.79676       	79.41069       	79.8129        	79.507805      	79.62908       	79.7149        	79.607956      	79.84268       	79.930176      	79.55412       	
79.35532       	79.7496        	79.63706       	79.43672       	79.555145      	79.5669        	79.67643       	79.54868       	79.64406       	79.485886      	79.726944      	79.78056       	79.3591        	79.70721       	79.597664      	79.50972       	79.634056      	79.590355      	79.489784      	79.3584        	79.373276      	79.26585       	81.60994       	82.06569       	81.38161       	80.429886      	79.36134       	79.83673       	79.66444       	79.42671       	79.63352       	79.6084        	79.71119       	79.481766      	79.61036       	79.686066      	79.07735       	80.22601       	80.00025       	79.436066      	78.47699       	79.26006       	79.58548       	79.725266      	79.542076      	79.601845      	79.681816      	79.72605       	79.43938       	79.55333       	79.799194      	79.74598       	79.471886      	79.75847       	79.81915       	79.40226       	79.72271       	79.47641       	78.81867       	78.53391       	78.72915       	74.29176       	71.66553       	79.34423       	79.64735       	79.612434      	79.3115        	79.68942       	79.76154       	79.270325      	79.70659       	79.56351       	79.680084      	79.613205      	79.418274      	79.83317       	79.54936       	79.468         	79.57127       	79.53023       	79.52808       	79.45829       	79.163574      	79.00549       	78.170555      	81.13676       	80.61896       	80.58084       	80.77148       	80.479996      	79.8531        	79.69722       	79.44034       	79.613754      	79.795425      	79.614975      	79.63319       	79.79676       	79.88399       	79.87701       	
79.50176       	79.61303       	79.45961       	79.72714       	79.57798       	79.51951       	79.68514       	79.675575      	79.59815       	79.47182       	79.74342       	79.51524       	79.59387       	79.66547       	79.76688       	79.61644       	79.28386       	79.48157       	79.511925      	79.13725       	78.95509       	80.85768       	82.70916       	80.96151       	80.711815      	80.588165      	79.993416      	79.62204       	79.63142       	79.53969       	79.42707       	79.70634       	79.43837       	79.544395      	79.409035      	79.39842       	79.48407       	79.50024       	80.22333       	80.005455      	78.99539       	79.688934      	79.73174       	79.46841       	79.625465      	79.79606       	79.81336       	79.218155      	79.22876       	79.9091        	79.28826       	79.553505      	79.63143       	79.67063       	79.66272       	79.299706      	79.488754      	79.78494       	79.295006      	78.45935       	79.08494       	78.58829       	74.96441       	76.60473       	79.50723       	79.62084       	79.436745      	79.61406       	79.79242       	79.55372       	79.596214      	79.57853       	79.57232       	79.75271       	79.535645      	79.48466       	79.68588       	79.48511       	79.6254        	79.57891       	79.74018       	79.42146       	79.28088       	79.28308       	78.722084      	81.74819       	79.5818        	80.9952        	80.70751       	80.93799       	80.14064       	79.87892       	79.5966        	79.721405      	79.57555       	79.412315      	79.44631       	79.79913       	79.90514       	79.88745       	
80.015175      	79.64758       	79.24844       	79.79918       	79.76169       	79.543846      	79.70587       	79.72515       	79.515495      	79.73625       	79.43281       	79.79132       	79.54479       	79.456375      	79.56271       	79.65321       	79.53262       	79.43859       	79.7121        	79.148674      	79.0638        	78.55285       	81.611244      	80.48038       	80.79168       	80.66594       	80.30021       	79.52464       	79.70651       	79.60104       	79.405266      	79.731316      	79.772804      	79.38448       	79.49453       	79.92075       	79.63722       	79.78771       	79.31713       	79.65389       	79.67381       	79.64317       	79.46463       	79.786         	79.726906      	79.64635       	79.401985      	79.69525       	79.45907       	79.88988       	79.52501       	79.6022        	79.605865      	79.553345      	79.5049        	79.721375      	79.53759       	79.7607        	79.44553       	78.93135       	78.76317       	78.45644       	77.5658        	74.276726      	79.2412        	79.67205       	79.436775      	79.6654        	79.67693       	79.47313       	79.67979       	79.7114        	79.260086      	79.9521        	79.52979       	79.40441       	79.62791       	79.51069       	79.59154       	79.606735      	79.55135       	79.74301       	79.22796       	79.463905      	79.20522       	77.38573       	81.25902       	77.45673       	81.05607       	80.63687       	80.34732       	80.257774      	79.757744      	79.45219       	79.52326       	79.61333       	79.60445       	79.647804      	79.77273       	79.892365      	
79.37366       	79.77504       	79.6279        	79.67012       	79.573364      	79.238045      	79.83906       	79.66676       	79.63823       	79.26878       	79.632256      	79.75188       	79.34537       	79.76489       	79.841805      	79.346695      	79.51094       	79.3591        	79.72889       	79.405174      	79.3075        	79.029625      	82.329926      	79.3298        	80.51685       	80.779465      	80.67076       	80.04957       	79.828026      	79.69749       	79.43509       	79.72878       	79.60386       	79.644066      	79.57255       	79.45131       	79.91531       	79.51459       	79.732605      	79.62426       	79.62438       	79.54068       	79.55192       	79.45433       	79.74755       	79.4312        	79.74838       	79.65348       	79.65189       	79.74808       	79.31116       	79.69837       	79.95383       	79.3218        	79.55375       	79.754135      	79.64213       	79.60928       	79.54377       	79.17727       	78.62173       	78.84706       	78.31821       	75.55398       	73.61585       	79.194145      	79.99402       	79.55539       	79.546         	79.54117       	79.65273       	79.72059       	79.51914       	79.5626        	79.766624      	79.59231       	79.502945      	79.68911       	79.60383       	79.40711       	79.63855       	79.61946       	79.27191       	79.49718       	79.51395       	78.71179       	79.98103       	80.63164       	79.99568       	80.37936       	80.7949        	80.49268       	79.942345      	79.3528        	79.15399       	79.61146       	79.43147       	79.63631       	80.08576       	79.58147       	
79.392204      	79.68101       	79.663025      	79.292206      	79.6079        	79.67452       	79.63683       	79.61519       	79.41406       	79.85804       	79.55003       	79.269905      	79.69846       	79.6686        	79.45619       	79.7469        	79.268326      	79.873985      	79.2839        	79.204666      	79.626976      	78.73678       	79.874985      	80.58035       	79.73249       	80.7549        	80.794685      	80.46385       	79.68069       	79.66649       	79.867836      	79.55451       	79.56453       	79.59266       	79.79578       	79.8091        	79.47692       	79.599304      	79.68365       	79.662964      	79.39749       	79.68828       	79.52667       	79.66395       	79.69399       	79.367325      	79.81196       	79.60664       	79.44892       	79.83678       	79.66356       	79.62785       	79.55314       	79.71367       	79.621315      	79.452896      	79.361626      	79.92657       	79.65778       	79.58382       	79.02673       	78.36983       	79.208565      	76.59679       	70.972         	79.97828       	79.4157        	79.54626       	79.77493       	79.44098       	79.74558       	79.578476      	79.34222       	79.73904       	79.54315       	79.31947       	79.72465       	79.69081       	79.43827       	79.70064       	79.62013       	79.589775      	79.58829       	79.49725       	79.43732       	79.44313       	79.41206       	81.92528       	78.72533       	80.611984      	81.22691       	80.54047       	80.008484      	79.65446       	79.784966      	79.53269       	79.571106      	79.61068       	79.859764      	79.5643        	
78.9992        	74.79273       	79.31391       	79.83732       	79.53277       	79.562096      	79.730446      	79.60638       	79.497055      	79.45671       	79.91867       	79.81676       	79.01867       	79.72082       	79.661385      	79.81586       	79.21522       	79.13631       	79.99365       	79.38918       	79.134895      	79.31932       	79.36725       	81.69646       	79.22739       	80.94805       	80.8183        	80.43162       	80.24826       	79.571785      	79.30459       	79.63983       	79.81037       	79.50767       	79.546906      	79.58381       	79.87174       	79.45949       	79.5039        	79.655         	79.65112       	79.56083       	79.68197       	79.61009       	79.61434       	79.754456      	79.41797       	79.52909       	79.784386      	79.550766      	79.56985       	79.71091       	79.534584      	79.795265      	79.357635      	79.65623       	79.692         	79.59816       	79.789856      	79.38516       	79.405754      	78.65417       	78.62604       	78.91408       	75.7522        	70.80081       	79.6032        	79.55611       	79.674934      	79.613365      	79.43372       	79.71118       	79.608376      	79.40868       	79.782364      	79.52185       	79.682785      	79.57123       	79.78864       	79.5151        	79.417244      	79.70722       	79.58486       	79.38697       	79.691025      	79.44996       	79.31649       	79.25645       	81.86589       	81.19478       	80.60659       	80.59014       	80.441986      	79.94553       	79.800545      	79.816025      	79.79465       	79.59417       	79.71381       	79.80322       	
78.93901       	70.67822       	79.58682       	79.73802       	79.532196      	79.67109       	79.57591       	79.467865      	79.74347       	79.61089       	79.45981       	79.712135      	79.68716       	79.363         	79.67946       	79.65102       	79.3745        	79.677345      	79.53451       	79.44837       	79.252426      	79.495834      	78.83653       	80.76174       	80.96002       	80.685974      	80.49794       	80.752075      	80.630646      	79.73745       	79.69376       	79.531425      	79.45402       	79.79581       	79.291374      	79.6181        	79.68692       	79.336105      	79.690216      	79.64077       	79.60582       	79.690384      	79.65314       	79.32198       	79.725235      	79.595474      	79.52129       	79.69619       	79.50494       	79.67208       	79.66608       	79.58025       	79.67678       	79.59317       	79.81149       	79.54015       	79.480515      	79.77517       	79.48546       	79.66628       	79.70297       	79.25872       	78.33665       	79.15898       	77.42804       	74.74762       	78.27787       	79.522446      	79.667366      	79.45518       	79.78496       	79.630226      	79.272896      	79.815315      	79.56143       	79.50421       	79.75215       	79.443665      	79.82274       	79.384834      	79.35048       	79.531296      	79.76188       	79.56221       	79.4116        	79.56888       	79.50299       	78.19889       	81.45322       	80.06812       	80.9764        	80.71768       	80.68244       	80.340034      	79.737465      	79.68916       	79.62646       	79.683914      	79.695015      	79.37817       	
79.56346       	73.249         	75.227806      	79.68346       	79.65728       	79.31129       	79.66232       	79.72036       	79.63754       	79.43708       	79.67356       	79.682945      	79.335655      	79.77007       	79.688255      	79.45932       	79.63792       	79.431465      	79.523544      	79.58832       	79.52472       	79.50983       	79.18316       	79.62913       	81.973885      	79.73514       	80.66966       	80.45705       	80.95708       	79.97945       	79.92162       	79.66278       	79.31764       	79.80697       	79.71059       	79.46181       	79.700905      	79.65835       	79.80811       	79.63682       	79.36895       	79.6347        	79.698944      	79.664055      	79.46068       	79.801094      	79.52293       	79.51449       	79.60034       	79.586395      	79.66814       	79.44968       	79.74739       	79.56885       	79.4781        	79.75341       	79.62389       	79.83127       	79.36275       	79.85849       	79.65523       	79.406975      	79.245735      	78.54369       	78.95447       	74.20914       	70.90609       	79.621185      	79.45362       	79.63143       	79.652016      	79.49989       	79.52979       	79.53734       	79.50872       	79.63988       	79.53771       	79.8468        	79.402916      	79.70005       	79.91199       	79.36147       	79.71446       	79.42337       	79.42315       	79.65817       	79.27744       	79.23861       	77.81053       	81.83341       	78.15671       	80.65613       	80.381195      	80.563034      	79.94605       	79.16475       	79.374146      	79.07901       	78.817696      	78.77871       	
78.80155       	77.60026       	76.10175       	75.85397       	79.6517        	79.69515       	79.54462       	79.357376      	79.90618       	79.481735      	79.56841       	79.61973       	79.468994      	79.824936      	79.517166      	79.79725       	79.56297       	79.59428       	79.37929       	79.72041       	79.35541       	79.6112        	79.36177       	79.31305       	78.652374      	81.77769       	76.817635      	81.0184        	80.46564       	80.409225      	80.20964       	79.75232       	79.46466       	79.60839       	79.55061       	79.771416      	79.42723       	79.617645      	79.66008       	79.58396       	79.53477       	79.57965       	79.54982       	79.754074      	79.55186       	79.6176        	79.67049       	79.476524      	79.6781        	79.572464      	79.66276       	79.619064      	79.66759       	79.6154        	79.47936       	79.81525       	79.59704       	79.42386       	79.63633       	79.73257       	79.58898       	79.59469       	78.87293       	78.89199       	78.87177       	78.781075      	75.61292       	74.30041       	79.51646       	79.55423       	79.53142       	79.77331       	79.494446      	79.56521       	79.706535      	79.61201       	79.71423       	79.268074      	79.67987       	79.75047       	79.41589       	79.69874       	79.60954       	79.50071       	79.58606       	79.25276       	79.760635      	79.361664      	79.10077       	82.41203       	80.08436       	79.27843       	78.11001       	80.659004      	79.69773       	79.09351       	79.144615      	77.71431       	77.80687       	77.918175      	
79.05087       	78.69607       	74.75356       	71.90507       	79.62378       	79.28123       	79.878944      	79.69566       	79.311066      	79.47424       	79.77552       	79.74733       	79.22492       	79.35497       	79.89408       	79.58093       	79.35795       	79.49984       	79.84255       	79.47342       	79.40737       	79.46753       	79.54582       	79.50586       	78.66712       	77.60389       	81.006325      	79.44248       	80.498985      	80.89718       	80.46509       	79.67007       	79.59815       	79.69801       	79.7622        	79.44384       	79.573784      	79.63903       	79.59362       	79.77747       	79.54011       	79.80807       	79.4483        	79.450615      	79.70183       	79.504654      	79.54364       	79.62639       	79.75386       	79.55323       	79.71998       	79.52109       	79.78744       	79.68285       	79.54932       	79.737595      	79.59804       	79.58003       	79.80264       	79.64733       	79.55315       	79.58173       	79.948975      	78.93863       	78.14303       	79.34027       	76.25563       	73.68622       	79.571465      	79.67689       	79.435036      	79.565216      	79.69185       	79.56581       	79.69022       	79.47741       	79.62172       	79.75194       	79.70096       	79.47088       	79.595055      	79.50987       	79.47833       	79.70859       	79.57599       	79.461845      	79.51468       	79.46681       	79.554756      	79.73345       	78.787025      	77.938965      	79.01725       	79.60151       	79.35699       	77.84208       	79.187126      	78.735405      	78.483864      	79.097786      	
79.537796      	79.0762        	77.94564       	75.35926       	75.67026       	79.52472       	79.85703       	79.4016        	79.582535      	79.30534       	79.55401       	79.74338       	79.44672       	79.553345      	79.843445      	79.28492       	79.75415       	79.493576      	79.50919       	79.62521       	79.46421       	79.49981       	79.6523        	79.46841       	78.941345      	79.56116       	81.147865      	79.80257       	81.171074      	80.63903       	80.3869        	80.26565       	79.533936      	79.814354      	79.572754      	79.49004       	79.98173       	79.4437        	79.33947       	79.867584      	79.423485      	79.8102        	79.48589       	79.30913       	79.90959       	79.41004       	79.69478       	79.65855       	79.396286      	79.71543       	79.82947       	79.37749       	79.90806       	79.34487       	79.72955       	79.69926       	79.459854      	79.74629       	79.569534      	79.57578       	79.65441       	79.44714       	79.67157       	79.323296      	78.518364      	79.05358       	78.72749       	76.52645       	71.46557       	79.59636       	79.59436       	79.62384       	79.49331       	79.57964       	79.5774        	79.707184      	79.53699       	79.61315       	79.499275      	79.702774      	79.63379       	79.14465       	80.00736       	79.499214      	79.32616       	79.745         	79.52627       	79.92118       	79.574196      	79.49263       	79.80177       	79.485596      	79.52118       	79.56464       	79.70653       	79.525185      	79.67481       	79.32059       	79.71387       	79.58809       	
79.24814       	78.771614      	78.93806       	75.49121       	71.9287        	79.33044       	79.51831       	79.693115      	79.51367       	79.46691       	79.80006       	79.5746        	79.55804       	79.59255       	79.614365      	79.57552       	79.69579       	79.32062       	79.72322       	79.601974      	79.12848       	79.80873       	79.49942       	79.23906       	79.37207       	78.86934       	79.85028       	81.45888       	79.30356       	80.89917       	80.58875       	80.48115       	79.62236       	79.84285       	79.63767       	79.08901       	79.91817       	79.72224       	79.275246      	79.73338       	79.49044       	79.80891       	79.48298       	79.45115       	79.84021       	79.59292       	79.61182       	79.65464       	79.599655      	79.627235      	79.32424       	79.666756      	79.90218       	79.426926      	79.685265      	79.756134      	79.43097       	79.72208       	79.632774      	79.49747       	79.80505       	79.693695      	79.5055        	79.30576       	78.3321        	78.76138       	79.44271       	77.82281       	73.73754       	79.26715       	79.72494       	79.76915       	79.325874      	79.64386       	79.74359       	79.458046      	79.70524       	79.563         	79.57469       	79.76571       	79.30049       	79.77618       	79.53105       	79.43708       	79.74732       	79.68857       	79.42537       	79.68758       	79.6021        	79.759415      	79.521675      	79.59149       	79.65203       	79.56347       	79.59716       	79.887924      	79.571075      	79.52431       	79.49957       	79.77541       	
79.69436       	78.456795      	79.11156       	77.78175       	76.557526      	72.669235      	79.19736       	79.73491       	79.70991       	79.31369       	79.64374       	79.93232       	79.40614       	79.56327       	79.460846      	79.58619       	79.90571       	79.29077       	79.59174       	79.68439       	79.3586        	79.876755      	79.10854       	79.66867       	79.5741        	78.7106        	79.802284      	82.50572       	79.56411       	80.94723       	80.68914       	80.68822       	80.1651        	79.59765       	79.94698       	79.475395      	79.32013       	79.95304       	79.82106       	79.32523       	79.553444      	79.6869        	79.72673       	79.56481       	79.59959       	79.628204      	79.43701       	79.605606      	79.76774       	79.62255       	79.3329        	79.7054        	79.96265       	79.49577       	79.35931       	79.95214       	78.94368       	79.17496       	79.039734      	79.07128       	79.33063       	79.36429       	79.6403        	79.37483       	78.7078        	79.57818       	78.89594       	78.236786      	74.42063       	79.64          	79.73851       	79.24304       	79.63507       	79.78185       	79.45089       	79.63949       	79.711296      	79.60513       	79.456535      	79.65123       	79.826355      	79.44517       	79.78043       	79.681984      	79.48637       	79.62244       	79.397194      	79.89779       	79.62107       	79.388405      	79.71921       	79.59799       	79.42105       	79.71404       	79.60895       	79.52651       	79.68822       	79.56353       	79.67435       	79.60416       	
79.74983       	79.11169       	78.02837       	78.640976      	74.74697       	71.1986        	79.45429       	79.642975      	79.5518        	79.67792       	79.36907       	79.802765      	79.66211       	79.41444       	79.78559       	79.61576       	79.47157       	79.57108       	79.72991       	79.52069       	79.545525      	79.51027       	79.61554       	79.56393       	79.40641       	79.378654      	79.2785        	78.90472       	80.44159       	78.35863       	80.77135       	80.643936      	80.52487       	79.96397       	79.67895       	79.50097       	79.55531       	79.85984       	79.45647       	79.38467       	79.80763       	79.63078       	79.569244      	79.441635      	79.918015      	79.219795      	79.64963       	79.510574      	79.18001       	79.32118       	78.92736       	79.467545      	79.48121       	79.747826      	78.98611       	79.2551        	79.37316       	79.50088       	78.919495      	79.19979       	78.67509       	79.58055       	79.38813       	78.74089       	78.108154      	78.5666        	79.503296      	79.478714      	79.3351        	79.874054      	79.47323       	79.537575      	79.73987       	79.44247       	79.56927       	79.70507       	79.567795      	79.73416       	79.401344      	79.680176      	79.74812       	79.650055      	79.49971       	79.62112       	79.60534       	79.615395      	79.46482       	79.80635       	79.64982       	79.550934      	79.809326      	79.54661       	79.57147       	79.673515      	79.51434       	79.57123       	79.75362       	79.495186      	79.566864      	79.69006       	
79.34749       	79.4333        	78.80634       	78.98199       	77.77124       	75.04069       	74.91542       	79.341446      	79.53545       	79.628075      	79.76965       	79.36691       	79.403076      	79.80363       	79.39751       	78.97939       	79.83862       	80.19872       	79.50089       	79.33556       	79.66649       	79.4045        	79.816605      	79.20658       	79.673935      	79.30602       	79.339386      	78.96927       	79.98111       	80.79144       	80.970955      	80.73555       	80.74673       	80.42592       	79.63219       	79.57045       	79.77141       	79.28817       	79.85716       	79.26036       	79.78553       	79.52605       	79.26811       	79.45193       	79.28041       	79.16414       	79.43323       	79.32059       	78.99355       	79.4244        	79.11326       	79.30702       	78.88257       	79.242256      	79.27648       	78.91363       	78.92803       	78.42543       	78.88171       	79.51663       	79.335625      	79.83085       	79.43313       	79.42403       	79.651726      	79.41073       	79.29557       	79.637825      	79.70337       	79.545395      	79.64539       	79.633354      	79.57956       	79.52293       	79.62224       	79.81291       	79.7616        	79.193634      	79.46843       	79.92966       	79.375854      	79.50229       	79.956314      	79.49857       	79.46043       	79.693085      	79.53828       	79.78941       	79.16546       	79.72011       	79.95918       	79.50717       	79.538284      	79.710434      	79.637566      	79.67314       	80.10577       	80.139145      	79.70992       	79.49522       	
79.72649       	79.55897       	79.034874      	78.596176      	78.706         	76.770615      	73.68583       	79.62606       	79.6371        	79.49882       	79.62245       	79.44472       	79.752304      	79.57732       	79.568085      	79.90867       	79.30458       	79.3713        	79.67761       	79.49776       	79.75548       	79.45505       	79.74339       	79.87206       	79.081566      	79.207436      	79.67994       	78.903496      	79.237526      	82.08539       	78.87305       	80.473076      	80.091225      	80.79809       	79.838844      	79.19766       	78.58671       	79.47373       	79.293396      	79.02344       	79.82229       	79.41127       	79.093506      	79.300606      	79.14806       	78.78928       	79.19055       	79.31669       	78.63811       	78.98786       	78.802795      	79.88038       	79.47027       	79.42193       	79.86542       	79.60594       	79.473564      	79.59144       	79.62886       	79.58661       	79.4215        	79.74234       	79.41915       	79.646614      	79.813446      	79.58177       	79.58516       	79.306305      	79.758446      	79.75001       	79.51563       	79.43567       	79.52804       	79.68587       	79.73338       	79.63911       	79.361725      	79.8889        	79.54596       	79.28833       	79.79529       	79.58539       	79.56082       	79.721596      	79.36309       	79.86306       	79.326096      	79.8154        	79.71221       	79.32432       	79.84545       	79.55523       	79.62475       	79.70341       	79.21938       	79.42453       	79.34419       	79.77542       	80.31614       	79.8634        	
79.22663       	79.98779       	79.24011       	78.599         	78.75259       	78.747375      	74.6966        	71.89535       	79.935646      	79.64105       	79.57356       	79.6977        	79.383766      	79.77694       	79.71337       	79.28064       	79.7678        	79.56287       	79.30636       	79.6783        	79.41948       	79.75491       	79.76292       	79.36215       	79.47449       	79.71709       	79.2103        	79.32898       	79.04441       	80.576355      	80.22096       	79.45571       	77.16376       	80.540985      	80.24622       	79.04583       	78.180534      	79.02447       	79.12603       	79.143456      	78.93766       	79.07047       	78.944214      	78.97588       	79.59807       	79.49935       	79.744576      	79.42121       	79.63477       	79.67584       	79.628334      	79.54944       	79.48139       	79.64905       	79.50671       	79.66326       	79.66947       	79.57211       	79.52091       	79.76055       	79.728676      	79.19113       	79.47569       	79.85347       	79.6787        	79.569916      	79.46369       	79.639725      	79.68333       	79.353355      	79.676674      	79.574135      	79.61828       	79.707504      	79.35544       	79.79511       	79.713905      	79.61754       	79.49646       	79.514336      	79.68095       	79.40139       	79.89845       	79.64725       	79.65153       	79.59485       	79.44912       	79.89011       	79.67305       	79.206894      	79.773964      	79.57236       	79.69048       	79.743805      	79.37466       	79.2293        	79.47614       	80.19216       	80.233986      	79.92905       	
79.475525      	79.54863       	79.5739        	79.34135       	78.529396      	78.722664      	76.93854       	73.299095      	79.53561       	79.692         	79.417816      	79.7032        	79.75711       	79.450134      	79.7914        	79.59187       	79.639         	79.447296      	79.59834       	79.73259       	79.49512       	79.19123       	79.87173       	79.50973       	79.387375      	79.45145       	79.73528       	79.3856        	79.49522       	79.24178       	79.02688       	79.95662       	78.602875      	79.578224      	79.840225      	78.81916       	79.94663       	79.661896      	79.26136       	79.29897       	79.906876      	79.70048       	79.70336       	79.499626      	79.49754       	79.61126       	79.40631       	79.57886       	79.82438       	79.47439       	79.45555       	79.67388       	79.72633       	79.509514      	79.42349       	79.69873       	79.72283       	79.561295      	79.33159       	79.69796       	79.9029        	79.52322       	79.53443       	79.63761       	79.58246       	79.699104      	79.66579       	79.44181       	79.53705       	79.71882       	79.355736      	79.77004       	79.45328       	79.80676       	79.57682       	79.4579        	79.82513       	79.43776       	79.47666       	79.83438       	79.55644       	79.44431       	79.85175       	79.50595       	79.705986      	79.68806       	79.35794       	79.6967        	79.71425       	79.2144        	79.50514       	79.8353        	79.42425       	79.57901       	79.71778       	79.62311       	79.660934      	79.96559       	80.11083       	79.792595      	
79.23473       	79.65693       	79.81019       	79.20445       	78.9007        	78.71035       	78.54974       	76.52587       	71.54886       	79.42827       	79.745544      	79.24741       	79.924126      	79.49374       	79.45154       	79.7836        	79.57953       	79.41904       	79.72899       	79.57194       	79.645195      	79.60495       	79.38962       	79.823784      	79.4732        	79.58003       	79.88072       	79.462906      	79.65675       	79.4427        	79.625496      	79.87496       	79.5023        	79.70491       	79.76366       	79.62006       	79.640915      	79.44878       	79.650154      	79.703415      	79.38112       	79.62902       	80.034676      	79.542915      	79.58741       	79.5256        	79.241104      	79.63358       	79.67963       	79.22178       	79.77964       	79.84401       	79.53174       	79.534         	79.61883       	79.608246      	79.64119       	79.66243       	79.32386       	79.67893       	79.59581       	79.682304      	79.733         	79.52262       	79.718445      	79.4416        	79.88794       	79.66559       	79.177185      	79.88643       	79.42836       	79.54349       	79.679756      	79.48212       	79.74883       	79.58093       	79.48043       	79.88775       	79.36778       	79.62991       	79.86758       	79.58656       	79.57179       	79.69383       	79.54549       	79.68771       	79.458954      	79.89824       	79.66252       	79.173416      	79.89507       	79.829216      	79.4377        	79.6248        	79.4809        	79.55277       	79.34651       	79.37829       	80.36027       	79.40862       	
79.81463       	79.5013        	79.25992       	79.53081       	77.917145      	78.14826       	79.48457       	78.00857       	73.97429       	79.53237       	79.50719       	79.86859       	79.44522       	79.56132       	79.7093        	79.60553       	79.60456       	79.629425      	79.31406       	79.845276      	79.48347       	79.48267       	79.70252       	79.63839       	79.53355       	79.50653       	79.60423       	79.62747       	79.3908        	79.71935       	79.64242       	79.4661        	79.86503       	79.36857       	79.60442       	79.9106        	79.41947       	79.496475      	79.71219       	79.231         	79.647316      	79.74948       	79.352806      	80.08363       	79.51174       	79.51401       	79.602486      	79.37095       	79.785194      	79.485435      	79.64657       	79.5151        	79.59697       	79.961914      	79.422935      	79.4277        	79.651634      	79.68133       	79.82837       	79.29759       	79.55478       	79.7335        	79.49248       	79.35271       	79.94606       	79.64296       	79.391014      	79.44506       	79.867966      	79.61023       	79.22465       	79.56914       	79.78643       	79.5414        	79.484344      	79.77646       	79.630394      	79.6378        	79.49948       	79.7003        	79.7487        	79.59292       	79.537735      	79.71739       	79.553406      	79.306175      	79.71781       	79.827614      	79.3975        	79.28241       	79.6313        	79.81034       	79.61325       	79.292114      	79.423         	79.53858       	79.23219       	78.886         	80.45953       	79.31592       	
79.76941       	79.073296      	79.45566       	79.50537       	79.441696      	79.13425       	78.18918       	78.95463       	77.49944       	72.16527       	79.60799       	79.57586       	79.733604      	79.45118       	79.7423        	79.743324      	79.42127       	79.50006       	79.79504       	79.72743       	79.374886      	79.478676      	79.78756       	79.708664      	79.544426      	79.64237       	79.63543       	79.64818       	79.55762       	79.61636       	79.80636       	79.39255       	79.59576       	79.629684      	79.457054      	79.81669       	79.57973       	79.50675       	79.67744       	79.740295      	79.75186       	79.3535        	79.67573       	79.70368       	79.58173       	79.53832       	79.679405      	79.68832       	79.49841       	79.542465      	79.79819       	79.84775       	79.36362       	79.47916       	79.78206       	79.35324       	79.3174        	79.65095       	79.89413       	79.241905      	79.799126      	79.455414      	79.639885      	79.77259       	79.527695      	79.56323       	79.648254      	79.31722       	80.06588       	79.66943       	79.22859       	79.764824      	79.63622       	79.506874      	79.44557       	79.76523       	79.740036      	79.56132       	79.48223       	79.84943       	79.640305      	79.20271       	79.75097       	79.68107       	79.5402        	79.6804        	79.587395      	79.59917       	79.52808       	79.57563       	79.74977       	79.75425       	79.49727       	79.474976      	79.631676      	79.65987       	79.27327       	80.62003       	83.57382       	85.89698       	
78.92564       	79.029495      	78.74968       	79.04663       	79.12458       	78.62864       	79.57444       	79.24731       	79.5276        	79.80962       	79.39058       	79.73773       	79.44987       	79.70083       	79.73918       	79.45768       	79.44579       	79.60315       	79.65297       	79.65767       	79.558205      	79.58662       	79.61033       	79.77973       	79.41179       	79.702835      	79.52333       	79.54661       	79.82476       	79.49879       	79.70917       	79.68191       	79.747116      	79.51822       	79.41017       	79.67136       	79.703476      	79.677605      	79.533295      	79.47915       	79.83254       	79.37236       	79.54642       	79.72089       	79.63686       	79.631195      	79.54021       	79.59785       	79.77181       	79.33494       	79.57858       	79.93982       	79.66642       	79.68711       	79.48673       	79.36973       	79.600204      	79.49503       	79.663536      	79.82141       	79.53066       	79.43102       	79.83092       	79.62074       	79.788605      	79.65232       	79.55661       	79.771255      	79.482086      	79.3278        	79.56227       	79.54605       	79.583694      	79.50987       	79.64365       	79.72001       	79.36227       	79.666626      	79.774124      	79.41595       	79.563         	79.53543       	79.785126      	79.450226      	79.59688       	79.85112       	79.605865      	79.617805      	79.5914        	79.5363        	79.76797       	79.64468       	79.48798       	79.489876      	79.51573       	79.06044       	80.586334      	85.766235      	84.78222       	82.75837       	
79.59622       	79.44624       	79.78084       	79.779         	79.39794       	79.5497        	79.65588       	79.41597       	79.43801       	79.53773       	79.68133       	79.78713       	79.391716      	79.398056      	79.74553       	79.599495      	79.72631       	79.33435       	79.68885       	79.58483       	79.745964      	79.59254       	79.62897       	79.743225      	79.42114       	79.54006       	79.67713       	79.59602       	79.56115       	79.4632        	79.860275      	79.43618       	79.44426       	79.80153       	79.578575      	79.651855      	79.531975      	79.83144       	79.85691       	79.700005      	79.52699       	79.832924      	79.388916      	79.38892       	79.5285        	79.63937       	79.57134       	79.518074      	79.641754      	79.66843       	79.55067       	79.51468       	79.623116      	79.505684      	79.68133       	79.482475      	79.695564      	79.4908        	79.800095      	79.68345       	79.61907       	79.489456      	79.5509        	79.796394      	79.57501       	79.71144       	79.79784       	79.47784       	79.4096        	79.70947       	79.50809       	79.50608       	79.57733       	79.24132       	79.87878       	79.704094      	79.39158       	79.80099       	79.57396       	79.363205      	79.81238       	79.51471       	79.70624       	79.72086       	79.27723       	79.80933       	79.87505       	79.53733       	79.67994       	79.518265      	79.80552       	79.61233       	79.175224      	79.834435      	79.5335        	79.308914      	80.340904      	85.05504       	85.33535       	83.4313        	
79.32623       	79.768814      	79.57426       	79.74492       	79.41056       	79.26182       	79.894295      	79.42468       	79.26876       	79.87554       	79.65307       	79.41481       	79.569435      	79.58204       	79.721825      	79.61324       	79.41719       	79.73176       	79.7089        	79.490456      	79.673744      	79.58476       	79.72854       	79.52209       	79.34439       	79.76894       	79.45998       	79.48983       	79.69567       	79.70645       	79.628204      	79.54625       	79.59148       	79.7672        	79.56688       	79.39965       	79.63678       	79.74302       	79.4036        	79.897545      	79.684105      	79.58269       	79.67055       	79.3683        	79.592896      	79.620445      	79.38042       	79.7076        	79.62129       	79.38768       	79.68248       	79.530754      	79.59788       	79.73722       	79.24326       	79.171646      	79.61852       	79.23968       	81.001465      	79.32032       	79.02834       	78.69535       	76.245926      	79.634766      	79.76587       	79.587715      	79.534294      	76.27207       	79.122894      	79.97482       	80.51976       	77.82577       	74.511444      	79.71515       	79.45808       	79.76464       	79.601425      	79.45888       	79.7424        	79.78406       	79.49573       	79.6746        	79.52511       	79.64767       	79.79175       	79.49691       	79.66845       	79.705765      	79.497185      	79.423584      	79.64579       	79.70091       	79.657074      	79.52304       	79.463776      	78.864494      	80.09606       	82.77798       	81.31307       	80.6033        	
79.557915      	79.625854      	79.45844       	79.73599       	79.47762       	79.57742       	79.792366      	79.31134       	79.48064       	79.748405      	79.77524       	79.44981       	79.46799       	79.577034      	79.73671       	79.608284      	79.42982       	79.793846      	79.49798       	79.422806      	79.85275       	79.57889       	79.78289       	79.413925      	79.734344      	79.670006      	79.361176      	79.63981       	79.50066       	79.609985      	79.79637       	79.33264       	79.60634       	79.7942        	79.28884       	79.65734       	79.7066        	79.56199       	79.850815      	79.43632       	79.78361       	79.694374      	79.56565       	79.56124       	79.43403       	79.52831       	79.44244       	79.76544       	79.615036      	79.30827       	79.751724      	79.53785       	79.365776      	79.36715       	79.23508       	80.253685      	80.50524       	80.24572       	80.51805       	79.55489       	78.01098       	77.88252       	80.288994      	80.374695      	79.40497       	79.40726       	79.89962       	79.113335      	79.46246       	78.205315      	81.05621       	79.711945      	79.23431       	79.207085      	79.05813       	70.39754       	79.64266       	79.59536       	79.54901       	79.40239       	79.81971       	79.62834       	79.64792       	79.61595       	79.5534        	79.59677       	79.72591       	79.39813       	79.8436        	79.62486       	79.54177       	79.591545      	79.40432       	79.65606       	79.7264        	79.35994       	80.08742       	82.12299       	82.91847       	80.84863       	
79.47124       	79.80646       	79.63353       	79.46361       	79.89827       	79.665016      	79.489876      	79.56595       	79.70894       	79.46961       	79.49036       	79.622925      	79.6229        	79.68226       	79.38416       	79.60798       	80.00397       	79.341896      	79.40486       	79.76318       	79.642944      	79.6462        	79.43569       	79.85396       	79.63297       	79.30998       	79.75084       	79.74137       	79.56018       	79.20911       	79.840294      	79.61952       	79.64576       	79.62127       	79.51633       	79.78729       	79.655396      	79.506195      	79.809906      	79.78953       	79.59323       	79.57439       	79.40488       	79.565735      	79.67409       	79.26305       	79.55523       	79.54662       	79.48229       	79.54562       	79.197136      	78.70005       	80.37268       	80.0682        	79.86275       	79.963326      	79.70092       	79.29086       	79.38257       	79.58745       	79.44336       	79.39866       	80.318726      	80.73412       	80.82072       	80.50789       	80.23789       	79.539764      	79.90404       	79.87767       	79.498436      	79.658615      	79.07076       	78.667786      	78.37627       	76.23463       	72.20395       	79.76113       	79.25724       	79.774055      	79.46053       	79.68912       	79.550415      	79.44047       	79.95132       	79.45943       	79.595024      	79.78873       	79.467125      	79.64823       	79.62509       	79.67104       	79.476974      	79.369255      	79.598755      	79.84253       	79.38406       	80.90048       	83.46472       	82.54776       	
79.79401       	79.606346      	79.512825      	79.78184       	79.39967       	79.626724      	79.96825       	79.42529       	79.567345      	79.454414      	79.64112       	79.761536      	79.259865      	79.6244        	79.69062       	79.70353       	79.43657       	79.566154      	79.752846      	79.55435       	79.49657       	79.83176       	79.39653       	79.71359       	79.637054      	79.36491       	79.74478       	79.48143       	79.56322       	79.679794      	79.4757        	79.58008       	79.714386      	79.52522       	79.502686      	79.70769       	79.52058       	79.63934       	79.4696        	79.80581       	79.84843       	79.298706      	79.15261       	78.75996       	80.24622       	79.81873       	79.36302       	80.710976      	79.77703       	79.50764       	79.64867       	79.564674      	79.424355      	79.7004        	79.375435      	80.84571       	80.29138       	80.373245      	80.32856       	79.6174        	79.74902       	79.740486      	79.68351       	79.63426       	79.39701       	79.82962       	79.63789       	79.46976       	79.556206      	79.76474       	79.6107        	79.67863       	79.48711       	78.933914      	78.58392       	78.8357        	74.02006       	74.747314      	79.58129       	79.858         	79.39764       	79.45603       	79.727974      	79.57504       	79.38207       	79.63482       	79.78872       	79.58198       	79.352554      	79.850876      	79.77185       	79.54765       	79.296425      	79.74358       	79.57414       	79.814156      	79.23087       	80.942024      	82.44119       	82.28807       	
79.37187       	79.53574       	79.55714       	79.67679       	79.89018       	79.419495      	79.70221       	79.643005      	79.59338       	79.49317       	79.418175      	79.66136       	79.54304       	79.70834       	79.62577       	79.43359       	79.75153       	79.57596       	79.50474       	79.73563       	79.34969       	79.745415      	79.542946      	79.53823       	79.7508        	79.44552       	79.52877       	79.739204      	79.50328       	79.572815      	79.598045      	79.64372       	79.44366       	79.69499       	79.56791       	79.46948       	79.67498       	79.61037       	79.2996        	79.451965      	79.08515       	80.152214      	79.45072       	79.64612       	79.51232       	79.66397       	79.341354      	81.36941       	80.36706       	81.21345       	80.50888       	79.897606      	79.74315       	79.61241       	79.572945      	79.75077       	79.59174       	79.793526      	79.6491        	79.56495       	79.63582       	79.6341        	79.63437       	79.522354      	79.69784       	79.466934      	79.69203       	79.7026        	79.55226       	79.6787        	79.53768       	79.79167       	79.827675      	79.086334      	78.44842       	78.95225       	77.92245       	74.906105      	78.39957       	79.60113       	79.77589       	79.468636      	79.562614      	79.64221       	79.62825       	79.64231       	79.57128       	79.65203       	79.536835      	79.61332       	79.58185       	79.46083       	79.71104       	79.58346       	79.54326       	79.765465      	79.5097        	79.62228       	81.00003       	82.43564       	
79.73415       	79.23074       	79.56193       	79.8947        	79.69389       	79.43579       	79.72729       	79.67954       	79.29574       	79.45743       	79.56039       	79.676254      	79.68185       	79.52846       	79.51066       	79.61878       	79.59938       	79.581245      	79.7324        	79.32729       	79.63153       	79.689545      	79.45698       	79.44369       	79.943115      	79.47597       	79.57248       	79.531235      	79.71057       	79.4956        	79.34969       	79.653305      	79.65142       	79.66079       	79.50516       	79.3717        	79.574356      	79.19608       	78.7892        	81.90623       	80.99732       	81.032005      	80.03291       	80.35352       	79.86578       	79.519554      	79.93164       	79.52343       	79.68787       	79.560814      	79.304596      	80.021675      	79.45647       	79.48907       	79.67732       	79.654816      	79.571045      	79.56564       	79.622025      	79.735596      	79.639725      	79.45035       	79.91379       	79.50194       	79.47099       	79.659294      	79.670265      	79.58564       	79.62485       	79.55508       	79.825005      	79.57517       	79.4365        	79.492485      	78.90263       	78.82431       	78.88825       	75.85095       	70.84773       	79.67281       	79.64199       	79.58596       	79.57766       	79.745155      	79.901146      	79.21502       	79.541695      	79.749825      	79.59314       	79.459984      	79.71946       	79.61035       	79.7171        	79.553795      	79.54113       	79.651665      	79.63641       	79.111244      	80.91512       	82.27742       	
79.3737        	79.58689       	79.56507       	79.632965      	79.57365       	79.81503       	79.63633       	79.62086       	79.53639       	79.25878       	79.65944       	79.55761       	79.52381       	79.634155      	79.64204       	79.577385      	79.70486       	79.510124      	79.62261       	79.656746      	79.52684       	79.52256       	79.68115       	79.52186       	79.53674       	79.578064      	79.627686      	79.63127       	79.51131       	79.59314       	79.73206       	79.51004       	79.600555      	79.42548       	79.70139       	79.41169       	78.877         	76.62227       	82.240974      	86.49495       	83.935616      	79.27098       	75.21238       	75.05537       	79.63639       	79.70146       	79.489914      	79.57844       	79.73985       	79.568115      	79.727486      	79.60431       	79.49674       	79.7964        	79.53324       	79.57654       	79.57679       	79.590294      	79.652306      	79.58891       	79.81279       	79.47269       	79.63179       	79.747215      	79.534935      	79.415474      	79.874084      	79.63626       	79.63813       	79.609634      	79.49894       	79.70956       	79.69649       	79.4908        	79.60664       	78.79107       	78.62637       	78.43631       	75.0778        	74.97435       	79.55323       	79.57587       	79.65718       	79.737305      	79.59528       	79.676476      	79.59404       	79.5824        	79.561714      	79.67875       	79.479774      	79.7828        	79.48591       	79.47907       	79.56123       	79.68659       	79.651596      	78.97344       	80.18445       	80.93122       	
79.65329       	79.55506       	79.517624      	79.595184      	79.85021       	79.27162       	79.650764      	79.66759       	79.60876       	79.72103       	79.51614       	79.679535      	79.538666      	79.51589       	79.61535       	79.62418       	79.508545      	79.50506       	79.64292       	79.647964      	79.55175       	79.58224       	79.442154      	79.679794      	79.77531       	79.435005      	79.83293       	79.733734      	79.33861       	79.57946       	79.5912        	79.44691       	79.66636       	79.40914       	79.391716      	78.674904      	83.316055      	81.879974      	83.67755       	82.3766        	81.91084       	80.64465       	79.23844       	79.05          	78.03702       	74.92856       	73.33312       	79.470604      	79.71426       	79.69081       	79.43403       	79.61098       	79.89067       	79.555504      	79.39343       	79.644325      	79.7086        	79.67804       	79.525444      	79.697975      	79.6585        	79.56813       	79.59834       	79.56984       	79.64599       	79.52297       	79.752594      	79.54364       	79.40765       	79.79146       	79.71097       	79.6013        	79.60526       	79.525536      	79.5547        	78.89074       	78.534485      	79.21341       	76.80928       	75.16021       	79.30384       	79.5132        	79.60704       	79.58682       	79.84868       	79.62456       	79.615746      	79.74877       	79.50783       	79.64154       	79.72549       	79.57616       	79.445114      	79.68484       	79.39461       	79.54599       	79.54615       	79.534775      	79.50359       	79.68423       	
79.40113       	79.534096      	79.62357       	79.51359       	79.45184       	79.24268       	76.9355        	80.235664      	79.86238       	79.93748       	79.971825      	79.84807       	73.4403        	79.5886        	79.62808       	79.36489       	79.76132       	79.766335      	79.318344      	79.72011       	79.675545      	79.587006      	79.70216       	79.28902       	79.79321       	79.44634       	79.436264      	79.704865      	79.27144       	79.57877       	79.46072       	79.43688       	79.71605       	78.89721       	78.36718       	84.63516       	85.825485      	82.4824        	82.06167       	81.85685       	81.01789       	80.18704       	79.447         	79.38118       	78.77846       	77.55685       	74.56797       	72.85758       	79.648964      	79.55483       	79.67881       	79.54068       	79.57199       	79.65929       	79.55329       	79.576225      	79.64675       	79.62517       	79.69493       	79.63973       	79.6042        	79.717384      	79.45497       	79.583626      	79.85523       	79.62581       	79.35701       	79.66345       	79.78669       	79.49986       	79.490074      	79.84289       	79.714226      	79.52909       	79.58965       	79.431145      	78.99583       	78.45319       	78.50119       	74.2452        	75.221085      	79.60792       	79.67911       	79.681305      	79.30816       	79.66897       	79.87533       	79.47173       	79.495735      	79.58195       	79.74399       	79.54992       	79.229965      	79.73541       	79.57832       	79.430565      	79.594345      	79.65449       	79.62607       	79.85155       	
79.67039       	79.9637        	80.653534      	79.73264       	79.27885       	79.80174       	79.45238       	79.348404      	79.805435      	79.87723       	81.390945      	80.40356       	79.062675      	78.97468       	78.86566       	76.07033       	74.644516      	79.726395      	79.36578       	79.86727       	79.51694       	79.3022        	79.71819       	79.45185       	79.48479       	79.76943       	79.50656       	79.61022       	79.54          	79.39822       	79.46207       	79.49655       	79.384415      	79.16137       	79.38267       	87.81999       	85.34173       	83.14514       	81.74867       	80.34978       	80.393745      	80.6373        	79.74204       	78.549866      	77.69225       	80.65296       	78.31274       	76.27771       	72.70995       	79.22225       	79.612595      	79.63533       	79.589615      	79.57267       	79.650444      	79.58477       	79.71072       	79.40123       	79.70298       	79.592964      	79.49496       	79.768936      	79.462585      	79.89052       	79.548386      	79.51479       	79.653206      	79.64393       	79.72225       	79.5496        	79.609505      	79.77442       	79.661285      	79.49487       	79.643555      	79.612495      	79.30516       	78.57585       	78.967155      	76.999466      	71.88754       	79.36164       	79.87316       	79.77524       	79.552444      	79.687744      	79.53532       	79.484276      	79.703125      	79.718796      	79.71423       	79.44683       	79.503265      	79.772446      	79.73261       	79.80733       	79.711395      	79.660645      	79.54666       	79.17188       	
79.58175       	79.39752       	81.694         	80.81146       	80.092674      	79.86375       	80.168594      	79.53697       	79.81234       	79.60471       	79.44832       	79.8245        	79.34024       	78.80207       	78.41867       	77.2979        	74.08435       	79.607994      	79.59772       	79.53814       	79.72176       	79.496574      	79.5982        	79.56352       	79.52229       	79.48919       	79.64222       	79.63295       	79.34655       	79.68963       	79.430405      	79.40053       	79.06784       	79.001495      	86.485756      	82.108505      	83.92814       	81.727455      	79.21059       	76.74362       	81.10221       	80.75119       	79.7527        	78.29319       	77.12831       	81.64796       	79.41496       	76.10448       	72.19889       	79.29544       	79.67844       	79.42918       	79.85418       	79.61496       	79.40078       	79.724785      	79.465706      	79.53495       	79.71492       	79.51908       	79.74779       	79.70003       	79.44125       	79.70669       	79.7004        	79.29443       	79.877655      	79.71464       	79.54625       	79.65365       	79.53949       	79.68695       	79.7108        	79.42227       	79.60367       	79.65893       	79.19991       	78.71929       	79.10892       	78.88333       	77.566444      	72.30693       	79.54546       	79.72242       	79.484344      	79.775566      	79.5053        	79.4764        	79.715706      	79.809875      	79.51121       	79.41455       	79.75916       	79.61256       	79.66094       	79.5008        	79.424675      	79.71767       	79.67966       	79.84835       	
79.74881       	79.5533        	79.680176      	79.70152       	79.49298       	79.895195      	79.51309       	79.5084        	79.863785      	79.5635        	79.475494      	79.57778       	79.61038       	78.98156       	78.600716      	79.17589       	76.77458       	72.08232       	79.420006      	79.59422       	79.57579       	79.66982       	79.53176       	79.57505       	79.616615      	79.63211       	79.47164       	79.412575      	79.66142       	79.483955      	79.349655      	79.57349       	79.130974      	79.42367       	86.53397       	82.98265       	80.75878       	83.04461       	81.034676      	76.01273       	79.82981       	80.21753       	79.255005      	78.52211       	77.10089       	77.05753       	79.219894      	75.97003       	73.81871       	79.781815      	79.76327       	79.433685      	79.69278       	79.70126       	79.34848       	79.5253        	79.80798       	79.48148       	79.677155      	79.66193       	79.5685        	79.7142        	79.40891       	79.786316      	79.66157       	79.62539       	79.593506      	79.53391       	79.82346       	79.64958       	79.54223       	79.70527       	79.77686       	79.47151       	79.73777       	79.61885       	79.38007       	79.19578       	78.63283       	78.86094       	76.15401       	72.372665      	79.91945       	79.75784       	78.98277       	79.51262       	79.9873        	79.57722       	79.31909       	79.77554       	79.8775        	79.170845      	79.512215      	79.78748       	79.66844       	79.36325       	79.7526        	79.554214      	79.82042       	79.4005        	
79.51477       	79.86846       	79.54894       	79.57144       	79.5078        	79.80345       	79.54275       	79.374725      	79.760635      	79.53521       	79.123856      	79.55503       	79.893745      	79.2338        	78.67313       	78.869576      	78.75213       	76.87018       	70.73558       	79.77391       	79.576965      	79.27337       	79.83942       	79.72549       	79.418144      	79.44016       	79.72787       	79.683815      	79.45001       	79.42158       	79.76698       	79.531105      	79.36586       	79.25812       	79.15258       	80.24126       	81.84759       	80.88758       	80.51018       	82.78224       	79.90191       	79.70188       	79.209236      	80.101006      	77.46626       	76.42209       	79.28799       	79.60114       	79.678925      	79.55724       	79.52336       	79.88176       	79.40258       	79.68237       	79.44854       	79.68976       	79.74239       	79.46113       	79.76027       	79.577446      	79.59325       	79.68565       	79.68987       	79.64467       	79.4459        	79.400856      	79.69081       	79.77755       	79.40726       	79.594666      	80.07303       	79.629944      	79.10134       	79.68186       	79.994644      	79.36269       	79.40763       	79.700676      	79.03595       	78.40728       	78.99885       	74.625946      	71.30715       	79.5139        	79.47225       	79.80677       	79.67536       	79.57378       	79.451485      	79.53396       	79.86499       	79.167984      	79.75589       	79.656654      	79.70742       	79.42237       	79.55364       	79.58292       	79.71631       	79.55035       	
79.60344       	79.89994       	79.75978       	79.29291       	79.443504      	79.61259       	79.75784       	79.18993       	79.500465      	79.75736       	79.734985      	79.54024       	79.50741       	79.7198        	79.150734      	78.224594      	78.96292       	76.82023       	73.57018       	79.56669       	79.685         	79.58874       	79.64208       	79.426384      	79.60341       	79.812126      	79.54861       	79.542465      	79.551254      	79.50999       	79.62096       	79.762924      	79.41954       	79.49348       	79.64659       	79.60269       	79.34245       	79.4092        	79.249756      	79.32597       	81.57969       	80.16824       	79.03046       	80.93537       	80.566055      	80.62584       	80.21468       	79.54544       	79.53135       	79.580345      	79.616135      	79.63602       	79.49815       	79.567924      	79.70106       	79.557594      	79.49139       	79.62152       	79.67551       	79.646645      	79.626396      	79.4754        	79.78498       	79.61238       	79.264885      	79.727516      	79.77957       	79.70886       	79.19933       	79.76368       	79.746506      	79.37266       	79.67613       	79.792465      	79.48446       	79.558136      	79.62068       	79.8137        	79.44908       	78.36763       	79.10325       	78.540215      	75.25967       	73.60986       	79.91133       	79.434395      	79.51869       	79.870605      	79.415146      	79.50749       	79.62354       	79.750885      	79.48179       	79.29052       	79.56028       	79.52826       	79.83232       	79.65225       	79.895294      	79.83495       	
79.58765       	79.5425        	79.70789       	79.41866       	79.63069       	79.68998       	79.666664      	79.48009       	79.47236       	79.828354      	79.60714       	79.40604       	79.60939       	79.76342       	79.567345      	78.561584      	78.79518       	78.79406       	75.250885      	71.67801       	79.807556      	79.59975       	79.61096       	79.37108       	79.96755       	79.39421       	79.09154       	79.799355      	79.55497       	79.72531       	79.42042       	79.498215      	79.765366      	79.38892       	79.78374       	79.628685      	79.259         	79.63649       	79.4689        	79.23224       	79.159096      	81.13301       	80.41759       	79.80551       	80.747795      	80.84224       	80.361         	79.711975      	79.81166       	79.58228       	79.47766       	79.70317       	79.59878       	79.50473       	79.57295       	79.79596       	79.62348       	79.30724       	79.59946       	79.75023       	79.424095      	79.52855       	79.71807       	79.55036       	79.59414       	79.55554       	79.68987       	79.60534       	79.4883        	79.70844       	79.67652       	79.48331       	79.66194       	79.72981       	79.67899       	79.61531       	79.79657       	79.7582        	79.18483       	79.08648       	78.567085      	78.96325       	76.39188       	75.55706       	79.589195      	79.51833       	79.282936      	79.85019       	79.44605       	79.52088       	79.89548       	79.50133       	79.683624      	79.356476      	79.3008        	79.490005      	79.58902       	79.43005       	79.89883       	79.44913       	
79.57494       	79.578926      	79.61893       	79.780945      	79.58926       	79.50762       	79.83147       	79.58741       	79.5844        	79.51245       	79.77903       	79.53638       	79.64285       	79.713425      	79.58792       	79.26292       	78.327286      	79.0695        	76.430275      	74.64028       	79.61481       	79.69848       	79.53537       	79.63107       	79.86159       	79.3633        	79.54736       	79.59232       	79.70369       	79.52877       	79.54049       	79.69598       	79.66367       	79.38398       	79.71467       	79.44755       	79.43543       	79.64386       	79.39817       	79.4984        	79.18192       	78.58408       	82.84627       	77.30309       	80.80184       	81.11468       	80.476906      	79.84484       	79.543274      	79.74522       	79.69779       	79.4486        	79.632576      	79.68508       	79.52729       	79.44002       	79.833084      	79.63565       	79.405594      	79.86674       	79.56953       	79.52805       	79.6985        	79.54654       	79.72579       	79.39026       	79.409996      	79.958916      	79.41655       	79.60305       	79.680244      	79.619286      	79.82806       	79.5974        	79.56826       	79.651695      	79.51488       	79.753044      	79.7965        	79.32846       	78.767395      	78.52849       	78.64198       	75.39947       	72.29069       	79.783455      	79.492455      	79.575264      	79.705734      	79.57565       	79.58102       	79.629295      	79.41437       	79.837776      	79.72878       	79.434784      	79.47505       	79.78468       	79.424995      	79.98516       	
79.526405      	79.79013       	79.3249        	79.85065       	79.56249       	79.53235       	79.9033        	79.312416      	79.872314      	79.51779       	79.26406       	80.047325      	79.46889       	79.65705       	79.618805      	79.4797        	78.99147       	78.593155      	78.80162       	75.16179       	71.40067       	79.39708       	79.687         	79.69317       	79.35786       	79.599945      	79.73122       	79.63528       	79.42005       	79.64179       	79.50301       	79.5495        	79.67925       	79.60297       	79.51739       	79.5384        	79.61394       	79.40724       	79.547935      	79.621574      	79.32032       	79.01601       	78.044205      	81.62779       	80.155945      	80.49684       	80.91552       	80.435326      	79.794914      	79.461075      	79.810135      	79.870964      	79.19787       	79.693375      	79.76348       	79.63493       	79.454185      	79.39713       	79.85636       	79.70751       	79.491646      	79.88861       	79.562035      	79.62183       	79.4955        	79.53989       	79.81619       	79.47418       	79.537704      	79.867226      	79.5073        	79.614105      	79.60805       	79.58927       	79.61831       	79.694374      	79.641014      	79.643425      	79.42278       	79.743004      	79.24801       	78.223785      	79.33987       	76.85579       	75.304665      	79.35833       	79.670944      	79.660706      	79.27965       	79.80755       	79.7951        	79.648056      	79.256195      	79.613464      	79.76544       	79.75591       	79.5971        	79.5942        	79.90106       	79.71248       	
