# www.neaspec.com
# Scan:	 	AFM
# Project:	 	20251007_PS
# Description:	 	
# Date:	 	10/07/2025 10:43:47
# Scanner Center Position (X, Y):	[µm]	49.99	50.01	 
# Rotation:	[°]	0	 	 
# Scan Area (X, Y, Z):	[µm]	5.000	5.000	0.000
# Pixel Area (X, Y, Z):	[px]	100	50	1
# Averaging:	 	1	 	 
# Integration time:	[ms]	5	 	 
# Laser Source:	 	4.5-15 µm nano-FTIR laser
# Detector:	 	R
# Target Wavelength:	[µm]	7.502	 	 
# Demodulation Mode:	 	Fourier
# Tip Frequency:	[Hz]	241,340.500	 	 
# Tip Amplitude:	[mV]	45.700	 	 
# Tapping Amplitude:	[nm]	79.665	 	 
# Modulation Frequency:	[Hz]	0.000	 	 
# Modulation Amplitude:	[mV]	0.000	 	 
# Modulation Offset:	[mV]	0.000	 	 
# Setpoint:	[%]	79.75	 	 
# Regulator (P, I, D):	 	4.206850	8.625812	1.000000
# Tip Potential:	[mV]	0.000	 	 
# M1A Scaling:	[nm/V]	0.426	 	 
# M1A Cantilever Factor:	 	1,000	 	 
# Q-Factor:	 	487.4	 	 
# Version:	 	2.1.11536.0
66.62405       	66.21748       	66.519325      	66.47744       	66.133995      	66.17365       	66.35554       	66.10504       	66.136604      	66.56812       	66.25961       	66.230736      	66.40083       	66.24345       	66.34241       	66.17803       	66.10257       	66.37321       	66.263725      	66.34531       	66.25164       	66.09577       	65.78632       	66.01823       	66.08378       	65.72628       	65.55453       	66.12985       	66.32564       	65.949974      	65.88867       	66.16793       	66.04007       	65.94169       	66.17637       	66.32957       	65.89256       	66.255356      	66.45691       	66.04137       	65.973206      	66.480896      	66.055626      	65.958046      	66.331406      	65.90397       	65.63904       	66.19793       	66.22201       	66.18711       	66.59237       	66.24712       	65.69053       	66.42461       	66.7718        	66.21975       	66.45525       	66.53093       	66.16285       	66.02598       	66.49          	66.25842       	66.32449       	66.18504       	65.37418       	66.01762       	66.589035      	66.15743       	66.20146       	66.843636      	66.36545       	66.12578       	66.59836       	66.48928       	66.03621       	66.554085      	66.84829       	66.390465      	66.361694      	66.81891       	66.445755      	66.57123       	67.08696       	66.80737       	67.63843       	65.69766       	63.09945       	63.141678      	63.245293      	62.88108       	62.92627       	63.14759       	63.484688      	62.18209       	59.837296      	58.16261       	56.898117      	56.151737      	56.324112      	56.44016       	
66.06224       	66.50297       	66.39092       	66.13635       	66.37871       	66.42236       	65.94489       	66.000336      	66.25627       	65.761826      	66.115364      	66.34066       	65.67208       	66.0725        	66.10118       	65.696434      	66.25351       	66.34845       	66.18287       	66.4754        	66.03324       	65.93324       	65.64494       	66.05796       	65.951485      	65.91504       	65.9626        	65.75472       	65.50884       	66.015945      	66.25231       	65.90369       	66.41176       	66.40383       	66.07755       	65.68257       	65.781685      	65.77102       	66.01755       	66.14852       	66.22714       	65.93894       	66.46919       	66.09999       	66.270584      	66.21367       	65.882095      	65.7796        	66.01916       	66.2042        	65.70064       	65.962494      	66.46546       	65.89684       	66.11341       	66.778534      	65.902115      	66.017426      	66.88774       	66.24289       	66.070526      	66.50146       	66.4666        	66.05496       	66.44938       	66.63833       	65.96206       	66.77468       	66.78281       	66.270096      	66.68558       	66.440834      	66.101105      	66.642136      	66.6354        	66.16679       	66.64227       	67.01439       	66.37574       	66.43613       	66.872086      	66.26754       	66.81304       	67.45977       	67.53299       	61.844013      	60.47668       	59.466633      	57.899677      	57.112347      	56.020287      	55.83462       	56.529755      	55.973377      	55.954197      	56.591618      	56.742622      	56.427357      	56.599827      	56.610256      	
66.13389       	66.6885        	66.34419       	65.884964      	66.46393       	66.47979       	65.8045        	66.288414      	66.22916       	65.687454      	66.38848       	66.52281       	65.67628       	66.32209       	66.56117       	65.94814       	66.536446      	66.51962       	65.81155       	66.68816       	66.58352       	65.7365        	65.82231       	66.20286       	66.246506      	66.175705      	66.627556      	66.34492       	66.04106       	66.37474       	65.96997       	65.708725      	66.4812        	66.353485      	65.8599        	66.16862       	66.164276      	65.381454      	66.43644       	66.32821       	65.89439       	66.342766      	66.81365       	65.77212       	66.34044       	66.894264      	65.87366       	66.09124       	66.864746      	66.23515       	66.09739       	66.43439       	66.105995      	66.00818       	66.79584       	66.50118       	66.56551       	66.69612       	66.43813       	66.0736        	66.85386       	66.43061       	66.15459       	66.56393       	66.469986      	66.53674       	66.8001        	66.43672       	66.230606      	66.73536       	66.64424       	66.237404      	66.73049       	66.893074      	66.317986      	66.77848       	66.74215       	66.52211       	67.04801       	66.95372       	66.81749       	68.377235      	63.76817       	59.95568       	57.7254        	56.25688       	55.50162       	55.941395      	55.99775       	56.11557       	56.43757       	56.625534      	56.49993       	56.92059       	57.00081       	56.87966       	57.32857       	57.45674       	57.386784      	57.257835      	
66.19965       	66.08629       	65.970924      	66.6358        	66.36985       	65.63345       	66.6251        	66.26519       	65.88572       	66.32108       	66.660904      	65.96112       	66.41476       	66.464096      	65.89903       	66.28193       	66.699844      	66.14881       	66.38773       	66.50731       	66.185486      	66.123535      	65.948326      	65.66748       	66.51139       	66.74586       	66.009125      	66.39446       	66.867905      	66.08956       	65.81976       	66.36665       	66.10648       	65.50203       	66.46424       	66.046715      	65.74359       	66.20259       	66.31772       	66.36809       	66.51719       	66.36316       	66.28117       	66.563866      	66.35505       	66.31228       	66.79025       	66.40767       	66.20853       	66.86398       	66.56467       	66.18033       	66.60895       	66.69018       	66.381165      	66.46915       	66.47461       	66.69964       	66.60085       	66.46508       	66.50526       	66.591934      	66.77882       	66.71886       	66.554924      	66.608055      	66.84665       	66.73787       	66.66918       	66.81909       	66.56267       	66.1809        	66.63672       	66.74713       	66.44861       	66.63626       	66.77405       	66.693         	66.73449       	67.03151       	67.402626      	68.41866       	63.48866       	60.04509       	58.427586      	57.096733      	56.165916      	56.046856      	56.59344       	57.15293       	56.841465      	57.205692      	57.474483      	57.61298       	57.448944      	57.68994       	57.768528      	57.664173      	57.47323       	57.768154      	
66.07542       	66.53532       	66.19968       	66.6232        	66.68936       	66.521515      	66.47801       	66.93594       	66.56453       	66.09314       	67.03933       	66.59283       	66.24905       	67.10107       	66.86388       	66.19508       	66.7744        	66.71864       	66.50472       	66.75942       	66.917725      	66.226616      	66.367836      	66.477974      	66.017715      	66.66456       	67.16888       	66.3434        	66.95445       	66.99209       	66.50378       	66.66725       	66.95136       	66.08466       	66.31504       	66.88764       	66.23943       	66.4968        	67.25541       	66.552734      	66.57138       	67.07707       	66.77592       	66.46668       	67.1314        	66.85917       	66.91688       	67.24171       	67.179146      	67.15858       	67.82917       	68.048256      	67.49078       	67.01844       	65.39707       	65.445526      	66.46111       	66.49107       	66.20149       	66.77287       	66.708534      	66.51669       	66.44225       	66.94595       	66.4241        	66.39365       	66.54736       	66.17505       	66.04437       	66.57226       	66.39171       	66.04333       	66.6846        	66.72769       	66.39914       	66.7664        	66.554         	66.238396      	67.15428       	67.15668       	67.014435      	67.62754       	63.254925      	60.708614      	59.722702      	58.547493      	57.22904       	56.681194      	57.26265       	57.50526       	57.461582      	57.857414      	57.776276      	57.875393      	58.154293      	58.277767      	57.949654      	57.75126       	57.785927      	58.073895      	
66.481125      	65.86683       	66.69771       	66.60092       	65.94166       	66.52311       	66.712975      	65.96325       	66.45744       	66.70534       	66.15112       	66.364334      	66.576324      	66.16738       	66.05643       	66.50364       	66.15391       	66.00856       	66.82557       	66.32731       	66.0049        	66.86492       	66.06495       	65.654274      	66.33873       	66.08644       	65.85094       	66.759224      	66.77468       	66.50662       	66.69113       	66.989265      	66.27255       	66.450066      	66.85012       	66.36509       	66.720695      	66.81583       	66.58318       	66.52637       	67.06519       	66.55452       	66.78582       	67.26438       	67.383286      	68.09268       	66.97636       	65.530334      	63.57189       	63.785362      	63.338974      	62.62667       	63.252625      	63.508095      	63.10368       	62.856804      	62.511112      	62.028473      	66.26872       	66.53249       	65.7851        	66.187584      	66.68531       	66.24671       	66.473694      	66.867645      	66.20794       	66.410835      	67.06049       	66.401855      	66.48846       	67.12728       	66.42809       	66.6527        	66.95192       	66.58332       	66.35815       	67.25689       	67.1738        	66.90546       	67.55813       	69.0458        	64.22351       	62.05912       	60.500576      	59.031353      	58.22569       	57.171925      	57.042667      	57.607162      	57.886543      	57.570683      	57.868835      	58.172195      	57.951702      	58.091896      	58.23478       	58.59783       	58.172016      	58.085175      	
66.23997       	65.85371       	66.41196       	66.68231       	66.01886       	66.306656      	66.562225      	66.12199       	66.2241        	66.70584       	66.34055       	66.162575      	66.57614       	66.1404        	66.16593       	66.79753       	66.31784       	66.11626       	66.6717        	66.35164       	66.37917       	66.824585      	66.60377       	65.84078       	66.64681       	66.55656       	66.43035       	66.69013       	66.86036       	66.534325      	66.77072       	66.9572        	66.22758       	67.032715      	67.21817       	66.60535       	67.0761        	68.55259       	67.231186      	65.711464      	65.63693       	64.24723       	63.120567      	62.85243       	62.864582      	62.786644      	63.185665      	63.542553      	61.600857      	60.61722       	58.764164      	57.123096      	56.76107       	56.243282      	55.6609        	55.86969       	56.26355       	56.68068       	58.49611       	63.679756      	66.04186       	66.20137       	66.91075       	66.19882       	66.01188       	66.959366      	66.28921       	66.18921       	66.75766       	66.48613       	66.56445       	67.06001       	66.40782       	66.415         	67.075066      	66.68275       	66.697174      	67.30985       	67.00598       	66.73588       	67.357         	67.36462       	67.62471       	63.65921       	61.566032      	59.72142       	58.130062      	57.516907      	56.725723      	57.410213      	57.789852      	57.418148      	58.08287       	58.222504      	57.8025        	57.919235      	58.24277       	58.120205      	58.055542      	57.86909       	
66.081726      	66.87073       	66.218376      	66.42592       	66.608345      	66.24577       	66.36174       	66.509346      	66.22941       	66.35515       	66.975586      	66.40801       	66.04978       	66.9253        	66.93372       	66.174576      	66.870094      	67.004196      	66.031586      	66.83083       	67.119125      	66.628624      	66.97198       	67.29583       	66.41681       	66.48855       	66.762146      	66.59512       	67.01669       	67.527016      	68.32033       	66.00232       	65.15022       	64.38714       	63.619335      	63.209698      	62.66883       	62.8675        	63.22736       	62.89554       	63.348515      	62.288628      	59.15477       	56.707363      	56.842426      	56.55291       	55.96293       	56.135494      	56.296234      	56.03361       	56.80373       	56.573086      	56.30956       	56.79693       	56.695442      	56.337536      	56.474434      	56.775066      	58.25308       	58.915596      	61.140892      	66.14455       	66.61093       	66.69079       	66.35237       	66.75859       	66.52934       	66.48035       	66.94356       	66.58622       	66.56102       	66.86319       	66.91429       	66.7238        	66.80489       	66.78406       	66.58812       	66.71367       	66.99895       	67.1772        	67.25748       	67.361084      	68.563484      	66.16486       	62.089207      	60.37116       	59.87463       	57.92502       	57.086403      	57.464596      	57.54736       	57.476974      	58.232914      	57.968777      	57.60769       	58.044933      	58.169895      	57.81415       	57.640556      	57.623314      	
66.51503       	66.29317       	66.12293       	66.72354       	66.47218       	66.176384      	66.815506      	66.49861       	66.21022       	66.72585       	66.544365      	65.95706       	66.834175      	66.60716       	65.8105        	66.66024       	66.64479       	66.50878       	66.80482       	66.957344      	66.58355       	66.71548       	67.599625      	66.963875      	67.53599       	67.65261       	63.45301       	63.127705      	63.062153      	62.841545      	62.822575      	63.360504      	63.02171       	63.204994      	61.72731       	58.730083      	56.670547      	57.007427      	56.389927      	55.76069       	56.553783      	56.35417       	55.951797      	56.646496      	56.5101        	56.36163       	57.064713      	56.82844       	56.4676        	57.199684      	57.36592       	57.1555        	57.55437       	57.43137       	56.67687       	57.485493      	56.919064      	56.71861       	58.38361       	59.303993      	59.48844       	63.851345      	66.77944       	66.115074      	66.081276      	66.54125       	66.28844       	66.345985      	66.91454       	66.41387       	66.44519       	66.67156       	66.460846      	66.23994       	66.81374       	66.788376      	66.43791       	67.00063       	66.806015      	66.29167       	66.89739       	67.08978       	67.0134        	67.75982       	62.65945       	61.247147      	59.797253      	58.866608      	57.59398       	57.08574       	57.441494      	57.630558      	57.86841       	58.085594      	57.939648      	57.478012      	57.784138      	58.072273      	58.10991       	57.980644      	
66.49501       	66.17802       	66.40491       	66.27732       	66.00566       	66.565674      	66.5139        	66.016945      	66.23114       	66.29187       	66.22774       	66.46162       	66.189766      	66.246414      	66.205284      	66.46759       	66.44107       	66.6756        	66.434616      	66.44311       	66.6045        	66.470474      	66.530304      	66.81655       	67.663925      	66.20567       	61.625404      	59.382347      	58.561554      	57.540653      	56.420227      	56.46641       	56.180763      	55.72748       	56.402798      	56.603065      	56.21061       	56.854153      	56.681587      	56.380787      	57.04868       	57.30714       	56.539013      	57.246876      	57.19667       	56.72465       	57.32842       	57.732746      	57.3746        	57.760616      	57.973354      	57.523056      	57.55778       	57.89596       	57.40266       	57.325848      	57.46548       	57.077663      	57.610905      	59.19349       	59.027184      	60.23507       	66.70676       	66.35811       	66.38895       	66.92577       	66.40207       	66.09465       	66.93863       	66.38525       	66.34023       	66.80096       	66.66391       	66.35085       	66.5688        	66.65547       	66.242615      	66.89942       	66.71047       	66.548294      	66.894875      	67.23426       	66.90364       	68.82578       	66.02411       	61.876587      	60.9185        	59.367172      	57.679775      	57.227634      	57.37414       	57.22915       	57.677376      	57.876705      	57.85859       	57.819035      	57.984913      	58.161896      	57.894295      	57.62375       	
66.048         	66.78128       	65.950165      	66.35665       	66.824875      	66.264885      	66.62578       	67.0235        	66.41928       	66.50813       	67.22372       	66.50329       	66.43842       	67.03111       	66.61346       	66.209305      	67.061295      	66.57944       	66.25542       	67.00585       	67.16938       	67.472115      	66.16938       	62.010845      	57.988464      	56.772873      	55.953365      	55.976986      	56.477535      	56.92643       	56.461254      	56.86583       	57.359436      	56.61405       	56.940296      	57.674522      	57.475605      	57.897133      	57.22788       	56.2052        	56.32218       	57.39467       	57.393024      	57.448395      	57.955143      	57.660442      	57.354694      	58.234337      	57.71067       	57.62175       	58.643124      	58.051987      	57.197857      	58.17899       	57.931007      	57.04262       	57.668858      	57.385735      	56.518448      	57.960423      	58.700554      	59.29395       	64.09657       	66.837105      	66.332085      	66.642235      	66.9183        	66.42195       	66.69747       	67.048615      	66.49462       	66.69181       	67.095314      	66.545334      	66.56004       	67.173744      	66.36836       	66.63135       	67.12976       	66.621414      	66.77447       	67.46183       	67.118744      	67.47474       	68.72598       	63.84104       	61.40897       	60.36168       	58.995445      	57.46714       	57.51564       	57.238945      	57.21316       	57.966286      	57.957363      	57.53046       	57.765846      	58.21667       	58.30586       	58.061077      	
66.11424       	66.52393       	66.71461       	66.19472       	66.51099       	66.733215      	66.567696      	66.63748       	66.40107       	66.05707       	66.447685      	66.83124       	66.290794      	66.32438       	66.870056      	66.07045       	66.34603       	66.961845      	66.67084       	66.71711       	67.33935       	68.855515      	64.80707       	60.74782       	59.045055      	57.822517      	57.049866      	56.71471       	57.06551       	57.648457      	57.37883       	57.660385      	57.87569       	57.864048      	58.0756        	58.669357      	58.440125      	58.82532       	59.003796      	57.791737      	57.074463      	57.8154        	57.88279       	57.59447       	57.7623        	57.735573      	57.89381       	57.595184      	57.749287      	57.91274       	57.65403       	58.040695      	57.799805      	57.74879       	57.835865      	57.299385      	57.30294       	57.668995      	57.25542       	57.13193       	58.82175       	58.79626       	59.54529       	65.86341       	65.97024       	66.10449       	66.57305       	66.47904       	66.24918       	66.43683       	66.273026      	66.2549        	66.47756       	66.48475       	66.11079       	66.643036      	66.45679       	66.145645      	66.63282       	66.44294       	66.33587       	66.67081       	66.76963       	66.63894       	68.38228       	65.56823       	61.62025       	61.66385       	59.953236      	58.669548      	57.602425      	57.178844      	57.045006      	57.641014      	57.6688        	57.46904       	57.82982       	58.151955      	58.172855      	57.860207      	
66.61071       	65.87842       	66.14081       	66.96347       	66.16054       	66.10532       	66.65748       	65.930885      	66.10549       	66.66862       	66.129715      	66.26531       	66.56794       	66.176285      	66.39053       	66.98759       	66.45952       	66.682625      	67.08708       	66.768486      	67.09505       	68.657555      	64.470566      	61.09934       	59.69631       	57.896282      	57.04888       	56.767365      	56.938877      	57.077393      	57.69745       	57.658817      	57.44257       	57.88171       	57.719044      	57.620647      	57.83522       	57.554855      	57.218082      	57.92715       	57.897984      	57.432236      	57.57243       	58.015625      	57.521584      	57.726055      	57.52329       	57.78832       	58.07243       	57.673347      	57.755         	57.962112      	57.739204      	57.715027      	57.87176       	57.41279       	57.464485      	57.585087      	56.7141        	56.77917       	57.798325      	58.004265      	59.556065      	61.36144       	65.86844       	66.23556       	66.3709        	66.217354      	66.377174      	66.22778       	66.29465       	66.45402       	66.33407       	66.5288        	66.233116      	66.33793       	66.01877       	66.53823       	66.66856       	66.39032       	66.659325      	66.886475      	66.25752       	67.02223       	67.25693       	68.0444        	64.224365      	61.978157      	60.218533      	59.229286      	57.953846      	57.180595      	57.07497       	57.153366      	57.2325        	57.75178       	57.72532       	57.737297      	57.867645      	57.812603      	
66.18151       	65.80999       	66.16749       	65.80699       	65.80603       	66.15863       	66.192474      	66.020645      	66.52274       	65.99          	66.37837       	66.670876      	65.96627       	66.25313       	66.56449       	66.242546      	66.43405       	66.89384       	66.64332       	66.556816      	67.142586      	67.52343       	67.032875      	62.766712      	60.29077       	59.11162       	58.359962      	57.23434       	57.023643      	57.373013      	57.390694      	57.448696      	57.901665      	57.712433      	57.51369       	57.94379       	57.76629       	57.473686      	57.818707      	57.58478       	57.53858       	57.6134        	57.78823       	57.614624      	57.72988       	57.756275      	57.80416       	57.782906      	57.74543       	57.630863      	57.740997      	57.551193      	57.887886      	57.661465      	57.507244      	57.73932       	57.472622      	57.214855      	57.31583       	56.934967      	57.397964      	58.33145       	58.538963      	59.575256      	64.83593       	65.84123       	66.37768       	66.19821       	65.904236      	65.96254       	66.543434      	65.95142       	65.93908       	66.431816      	65.974686      	66.134254      	66.5774        	66.065155      	66.228935      	66.44862       	66.45622       	66.36163       	66.691925      	66.3974        	66.36103       	67.054436      	67.71003       	63.59009       	61.95595       	59.52156       	58.630455      	58.127094      	56.95355       	56.819637      	57.42059       	57.77923       	57.486473      	57.615963      	57.9989        	57.692024      	
66.07617       	66.14257       	66.05878       	66.078766      	66.458336      	66.37183       	66.53971       	66.30755       	66.352554      	66.82008       	66.372284      	66.53366       	66.790825      	66.65242       	66.54428       	67.06215       	66.39926       	67.04148       	66.98285       	67.05926       	67.35116       	67.462845      	67.97578       	63.108963      	62.18615       	60.166576      	59.073925      	57.838997      	56.791336      	57.45519       	57.76453       	57.518333      	58.120922      	57.919746      	57.92533       	58.000725      	57.63864       	57.80051       	57.884563      	57.66646       	57.502247      	58.00747       	57.384544      	57.595333      	57.81804       	57.368065      	57.858894      	57.73664       	57.317055      	57.940544      	57.870846      	57.4373        	57.83915       	57.83721       	57.473602      	57.757977      	57.645008      	57.41547       	57.32126       	57.073936      	56.593063      	57.208954      	58.49762       	58.738434      	61.738667      	66.80172       	65.789825      	66.19717       	66.34561       	65.937454      	66.45336       	66.06194       	65.9324        	66.74231       	66.39374       	66.3492        	66.82873       	66.57328       	66.33701       	66.6114        	66.62455       	66.513         	66.74707       	66.49442       	66.61489       	66.94522       	67.52079       	66.4778        	62.47454       	60.460766      	59.864723      	58.082546      	57.082355      	56.82576       	57.51074       	57.24074       	57.36277       	57.596535      	58.000053      	57.823532      	
60.18304       	64.96033       	66.28625       	66.82082       	66.087204      	66.53246       	66.70782       	65.99659       	66.68652       	66.78812       	66.49254       	66.57396       	66.42543       	66.59982       	66.60504       	66.736046      	66.25755       	66.53536       	66.86727       	66.419914      	66.913704      	66.89825       	67.73704       	67.56286       	62.85126       	60.395203      	59.421223      	58.18312       	57.243988      	57.103905      	57.02138       	57.410564      	57.872192      	57.49689       	57.62244       	57.8681        	57.887924      	57.466927      	57.654163      	57.3775        	57.512184      	57.67779       	57.384144      	57.570908      	57.579823      	57.427284      	57.59722       	57.56932       	57.566956      	57.754295      	57.699394      	57.507256      	57.799614      	57.573143      	57.301796      	57.78328       	57.520145      	57.2808        	57.54674       	57.073032      	56.621056      	56.884186      	57.836407      	58.22623       	59.457138      	63.3946        	66.16798       	66.4853        	66.54393       	66.15071       	66.59211       	66.34074       	66.118706      	66.54131       	66.49244       	66.232506      	66.72096       	66.27172       	66.04344       	66.702866      	66.40943       	66.27735       	66.97863       	66.555695      	66.4079        	67.12399       	66.965065      	67.88984       	65.52965       	61.569336      	59.45288       	59.087273      	57.86541       	56.709476      	57.25947       	57.726227      	57.592445      	57.64421       	57.947052      	58.16135       	
59.09223       	62.868988      	66.71172       	66.47218       	66.808754      	66.81638       	66.29736       	66.919685      	66.98476       	66.48892       	66.84294       	66.84514       	66.80033       	66.84128       	66.967896      	66.51714       	66.99622       	67.00971       	66.64336       	67.170166      	66.88176       	67.18378       	68.0016        	68.81746       	63.55792       	61.641857      	59.880554      	58.72504       	58.371716      	57.10501       	56.900837      	57.522064      	57.633484      	57.562347      	57.94384       	58.051956      	57.23513       	57.668438      	57.9309        	57.31405       	57.878475      	57.568844      	57.0998        	57.738216      	57.68149       	57.245995      	57.760555      	57.740784      	57.34377       	57.93654       	57.80594       	57.29862       	58.006718      	57.63375       	57.330917      	57.685417      	57.541267      	57.37793       	57.40395       	57.6644        	56.941525      	56.804348      	57.383995      	58.243477      	58.953487      	59.831875      	66.06719       	66.25865       	66.72459       	66.283264      	66.630905      	66.51167       	66.454765      	66.852295      	66.46257       	66.67026       	66.65243       	66.56738       	66.75892       	66.50886       	66.33267       	66.53449       	66.78779       	66.71405       	66.83618       	67.06247       	67.110466      	67.96102       	67.15252       	62.724472      	61.165127      	59.55577       	58.091354      	57.632065      	57.24671       	57.08345       	57.418674      	57.95648       	58.01234       	57.587784      	
58.757034      	59.153843      	65.80799       	66.6353        	66.32416       	66.67941       	67.055275      	66.682236      	66.99808       	66.81147       	66.53769       	66.84701       	66.84724       	66.72174       	66.91382       	66.82858       	66.58718       	66.967636      	67.379105      	66.71174       	67.3488        	67.52274       	67.33432       	68.6495        	66.94284       	62.679947      	61.24081       	59.795116      	58.490383      	57.625217      	57.378685      	56.9201        	57.49049       	57.79239       	57.433155      	57.944817      	57.800125      	57.57647       	57.858395      	57.719036      	57.364788      	57.91132       	57.620247      	57.396202      	57.76635       	57.342964      	57.43402       	57.6602        	57.65881       	57.652393      	57.742073      	57.501106      	57.774494      	57.632187      	57.40959       	57.9006        	57.856728      	57.518402      	57.391006      	57.364433      	57.043335      	56.90178       	56.70347       	57.177853      	58.282543      	58.86056       	63.703568      	66.24844       	66.30192       	66.58937       	66.50689       	66.29971       	66.71776       	66.324974      	66.477905      	66.88821       	66.67455       	66.78251       	66.77506       	66.77339       	66.70765       	66.94852       	66.816574      	66.548294      	67.12614       	67.03358       	67.060005      	67.62468       	68.56736       	65.38301       	61.67555       	60.21153       	59.153454      	58.27704       	57.246464      	57.2754        	57.786076      	58.080353      	58.19439       	58.539394      	
58.10718       	58.878395      	59.622875      	65.883995      	66.249825      	66.44404       	66.40075       	66.360855      	66.57688       	66.25508       	66.20834       	66.55682       	66.6586        	66.60911       	66.59652       	66.77027       	66.24979       	66.856606      	66.58772       	66.512405      	66.893616      	66.78568       	66.730446      	67.41343       	68.338554      	65.32027       	62.107227      	60.445923      	58.812283      	58.487484      	57.136868      	57.116108      	57.320026      	57.260044      	57.49001       	57.773342      	57.33784       	57.49935       	57.805634      	57.551773      	57.43099       	57.80439       	57.538326      	57.653393      	57.786823      	57.316463      	57.579         	57.778893      	57.37308       	57.50635       	57.857346      	57.234306      	57.734596      	57.99212       	57.41273       	57.683044      	57.839226      	57.205902      	57.71632       	57.53508       	57.03924       	57.198284      	57.18388       	57.32851       	58.427338      	58.951027      	59.050316      	64.406586      	66.29073       	66.184525      	66.37502       	66.63832       	66.10068       	66.66037       	66.742355      	66.367065      	66.39948       	66.71607       	66.73766       	66.61136       	66.69484       	66.37762       	66.46368       	66.76227       	66.69381       	66.75353       	67.1889        	67.021286      	67.818794      	67.491455      	61.90227       	61.340847      	61.741528      	60.572254      	59.28356       	59.304367      	60.0135        	60.371204      	61.55371       	62.518654      	
57.52674       	58.225662      	59.443607      	64.37442       	66.30443       	66.12942       	66.69878       	66.05484       	66.088455      	66.499054      	66.6565        	66.51191       	66.36439       	66.61358       	66.59086       	66.57189       	66.55922       	66.36469       	66.67681       	66.72215       	66.58345       	66.97448       	67.2673        	66.66815       	67.48378       	68.324715      	63.41241       	62.01938       	60.360962      	58.710697      	58.069836      	57.212547      	57.0627        	57.612873      	57.683308      	57.378204      	57.93398       	57.801476      	57.633114      	58.070736      	57.90239       	57.42261       	57.51188       	57.819805      	57.309135      	57.70762       	57.76651       	57.641186      	57.8749        	57.666798      	57.649273      	57.78181       	57.961235      	57.623627      	57.95972       	57.880596      	57.449966      	58.180546      	58.055187      	57.43069       	57.69214       	57.39585       	57.136715      	57.031445      	57.098225      	58.394203      	58.883133      	62.05564       	66.2928        	66.63824       	66.235825      	66.26529       	66.75275       	66.25455       	66.40688       	66.584305      	66.4602        	66.56667       	66.635         	66.39313       	66.391624      	66.788025      	66.70151       	66.63138       	66.887314      	66.97647       	66.92532       	67.187675      	67.398415      	67.49077       	67.735306      	68.62729       	66.33579       	65.87867       	65.655495      	65.8672        	67.585526      	67.31576       	67.03876       	67.18152       	
56.982246      	59.13255       	58.678246      	60.035618      	66.092255      	66.56741       	66.66713       	66.74576       	66.408035      	66.51356       	66.762955      	66.553314      	66.73205       	67.05655       	66.60982       	66.78572       	67.0031        	66.51772       	67.09765       	66.74089       	66.87252       	66.93223       	67.00156       	67.159904      	66.99732       	68.450485      	66.91513       	62.91608       	61.028034      	59.485165      	58.03695       	57.641235      	57.41049       	57.51819       	57.727104      	58.054073      	57.81334       	57.96763       	57.9275        	57.96145       	58.015293      	58.29119       	57.6999        	58.020355      	57.967297      	57.627724      	58.35847       	57.804707      	57.611187      	58.339695      	57.96051       	57.889538      	58.436142      	57.711422      	58.049446      	58.130188      	57.79054       	58.14838       	58.192356      	57.706066      	57.881714      	57.78468       	57.522408      	57.389282      	57.618603      	58.38462       	59.13894       	59.666092      	63.929115      	66.42258       	66.53799       	66.05013       	66.5165        	66.68421       	66.495964      	66.88146       	66.860146      	66.29403       	66.83456       	67.08347       	66.5784        	66.88461       	66.82681       	66.437805      	66.766815      	66.96127       	66.432175      	66.9012        	66.64593       	66.49303       	67.049065      	66.518524      	66.44138       	67.10584       	66.9486        	66.47671       	66.720276      	66.58288       	66.985466      	66.65898       	
57.4904        	58.23673       	59.14049       	59.462936      	63.335236      	66.832016      	66.68713       	66.64571       	66.930565      	66.7322        	66.81334       	67.186745      	66.743996      	66.67071       	67.31306       	66.84039       	66.950424      	66.8615        	67.034775      	66.97445       	67.00911       	67.094284      	67.016075      	67.431656      	67.673584      	67.69182       	69.45088       	64.921646      	62.13919       	60.304665      	58.88606       	58.098972      	57.426357      	57.546803      	57.807682      	57.74922       	58.269337      	58.057137      	58.039555      	58.00896       	58.11339       	57.950535      	57.71808       	58.299484      	58.157875      	57.99997       	58.21618       	57.816666      	57.87463       	58.202793      	57.508343      	58.03971       	58.556614      	57.656513      	57.95756       	58.33441       	57.68079       	57.88636       	58.249973      	57.588257      	57.665634      	58.109245      	57.185993      	56.756176      	57.963715      	58.556606      	59.05344       	59.832287      	61.30553       	66.41112       	67.3062        	66.863945      	66.28439       	67.39354       	66.925674      	66.57985       	67.39075       	66.59538       	66.73429       	67.05744       	66.53686       	66.851364      	67.14566       	67.09572       	66.86456       	67.1622        	66.86749       	66.54072       	67.1152        	66.923965      	66.43629       	66.89356       	66.744545      	66.70397       	67.00721       	66.99324       	66.400024      	66.48643       	66.67116       	67.04041       	
57.40272       	57.795666      	58.701218      	59.49333       	60.468754      	64.45995       	66.73337       	66.83296       	66.4087        	66.841354      	66.90916       	66.85968       	66.69369       	66.87105       	66.72855       	67.31813       	67.33569       	67.00394       	67.30723       	66.92659       	66.92311       	67.330055      	66.94385       	67.516464      	67.5263        	67.17637       	68.859535      	67.377426      	62.55778       	61.32138       	60.106808      	58.387005      	57.763573      	57.250473      	57.357418      	57.66479       	57.889572      	57.994495      	58.297604      	58.09599       	57.895416      	58.28928       	58.12447       	57.698494      	58.2508        	57.97064       	57.719196      	58.134182      	57.960453      	57.80926       	58.023674      	58.039337      	57.842747      	57.620415      	57.67935       	57.896698      	57.52391       	57.998753      	58.590015      	59.08893       	59.592407      	59.837135      	60.053993      	59.516113      	59.6103        	60.583023      	60.180534      	61.67763       	62.71183       	66.83494       	67.08499       	66.46191       	67.02917       	67.06173       	66.75616       	66.66135       	67.10856       	66.53053       	66.614784      	67.05483       	66.976         	66.662346      	66.98894       	66.69927       	66.72339       	67.23511       	66.786         	66.97592       	66.930534      	66.50253       	66.72082       	67.11366       	66.912315      	66.934166      	67.19757       	66.917404      	66.666794      	66.55702       	67.04727       	67.15305       	
57.33491       	57.422962      	57.52703       	58.724815      	59.841442      	63.596012      	66.28119       	66.85743       	66.825714      	66.54229       	66.66284       	66.946815      	66.51991       	67.01366       	66.907646      	66.55446       	67.07583       	66.83229       	66.62891       	67.03705       	66.98549       	66.59313       	67.48981       	66.99701       	66.9723        	67.269684      	67.59879       	68.82467       	65.4785        	62.457535      	60.238678      	59.43743       	58.032104      	57.39695       	57.59477       	57.370544      	57.737377      	58.500195      	57.910183      	57.953217      	58.482742      	57.99177       	57.95642       	58.186447      	57.828205      	57.495556      	58.271076      	57.622837      	57.74698       	58.219772      	58.272728      	59.25486       	59.668667      	59.159195      	58.82591       	59.96837       	59.89393       	60.309963      	60.63012       	60.97399       	61.53754       	63.299786      	63.0695        	63.25559       	64.596985      	66.72374       	67.04796       	67.019485      	66.62252       	67.02995       	66.96469       	66.768295      	66.99308       	66.93825       	66.89446       	66.88847       	66.97885       	66.89663       	66.60216       	67.16923       	67.075165      	66.726364      	66.79671       	67.102005      	66.86195       	67.00392       	67.03272       	66.961174      	66.887085      	67.41508       	66.848755      	66.73333       	67.31139       	66.88906       	66.59798       	67.396774      	67.19718       	66.39289       	66.406204      	66.49844       	
57.704304      	57.896362      	57.40445       	58.51032       	59.07186       	59.96154       	65.651985      	67.21481       	66.7274        	67.1523        	67.48538       	66.767876      	67.17276       	67.97207       	67.30073       	67.38313       	69.28121       	67.375916      	66.4218        	66.94405       	66.70636       	66.75591       	67.25402       	66.67761       	67.28649       	67.6043        	67.57201       	67.85311       	69.44613       	64.29048       	61.62296       	60.15085       	58.92735       	57.8734        	57.43957       	57.37455       	57.62493       	57.72821       	57.977467      	57.65359       	58.423557      	57.92649       	57.881752      	58.13115       	58.459595      	58.675827      	59.356297      	59.235058      	59.65397       	60.50058       	60.514355      	61.310062      	61.46541       	62.57603       	62.878445      	63.121426      	63.79715       	65.499214      	66.451866      	66.60002       	66.82          	66.74853       	66.80537       	66.70882       	66.54409       	66.49304       	66.83098       	66.90029       	66.92559       	66.83672       	66.58109       	66.75874       	67.07962       	66.7253        	66.80838       	66.905464      	66.93038       	66.845665      	66.86227       	66.84684       	66.84702       	66.8588        	67.02922       	66.8568        	66.633644      	66.67074       	67.109795      	66.543495      	66.596794      	67.457695      	66.782616      	66.66703       	67.132286      	66.54588       	66.86412       	67.57001       	67.473816      	66.59739       	65.95401       	66.17157       	
58.05581       	57.61716       	57.349094      	58.045895      	58.989956      	59.79587       	61.787254      	66.82396       	66.69579       	66.66153       	66.67967       	66.74916       	66.89891       	66.7589        	66.76571       	66.89989       	66.53809       	66.85641       	67.05321       	67.227974      	67.38388       	67.08462       	67.312256      	67.27244       	67.05846       	67.16656       	67.49298       	67.549324      	68.85143       	66.5763        	62.76151       	60.487446      	59.46561       	58.978046      	57.493046      	57.395226      	58.126198      	59.549595      	59.802658      	60.15161       	60.59702       	60.211884      	60.388863      	60.9856        	61.600235      	61.966873      	63.011112      	63.717503      	64.01322       	65.18606       	66.86503       	67.089005      	66.50942       	67.101364      	66.80311       	66.79134       	66.773964      	66.58842       	66.71545       	66.99102       	66.915726      	66.95999       	67.05745       	66.97986       	67.06298       	66.94923       	66.736046      	66.73534       	67.07475       	66.75036       	66.63582       	66.8736        	66.669         	67.222565      	67.08748       	66.42866       	67.02987       	66.99148       	66.61437       	66.86924       	67.19899       	66.729065      	67.084206      	66.80355       	66.798584      	67.42974       	66.64765       	67.06714       	66.94057       	66.59695       	66.88767       	66.95826       	66.673256      	66.96676       	66.8849        	66.90633       	66.688385      	66.87347       	67.36945       	66.91388       	
57.86037       	57.93727       	57.614124      	57.68546       	58.59613       	59.04365       	60.129097      	64.812164      	67.21198       	66.55072       	66.62089       	67.08145       	66.61427       	67.02821       	67.18022       	66.88263       	66.7669        	67.07756       	66.884026      	66.93988       	67.46537       	67.19112       	66.91846       	67.4081        	67.17405       	67.19887       	67.42982       	67.70459       	68.001854      	69.4811        	63.455677      	62.00517       	62.451         	61.256084      	59.903458      	59.50068       	60.327034      	61.881596      	62.994938      	63.595863      	64.02962       	64.762566      	65.54048       	66.61413       	67.43238       	66.873795      	67.05249       	66.92501       	67.16008       	67.08532       	67.03153       	66.83324       	66.856384      	67.12952       	67.052055      	66.96921       	66.73924       	67.24789       	66.96805       	67.027435      	67.07465       	66.436935      	66.92755       	67.37466       	66.871574      	66.681625      	66.921196      	66.99011       	66.74677       	67.029686      	66.931595      	66.924576      	67.228294      	66.83845       	66.86484       	67.07118       	67.09509       	66.83235       	66.80204       	66.96555       	66.94563       	66.78931       	67.23045       	66.93941       	66.735535      	66.83871       	67.18952       	67.15682       	66.88685       	67.0913        	67.035355      	66.77773       	67.3601        	66.88853       	66.64515       	67.2174        	67.272064      	67.19609       	67.011986      	66.52985       	
58.11024       	58.073395      	57.936436      	57.33255       	57.90425       	58.697475      	59.418465      	61.13317       	66.85151       	66.78027       	66.97112       	67.02403       	66.871796      	67.0618        	67.06927       	66.71081       	67.128746      	66.97439       	67.001854      	67.30151       	66.94239       	67.081894      	67.510605      	67.32546       	67.49784       	67.4145        	67.63599       	67.892944      	67.7722        	68.08467       	69.03457       	69.47332       	66.49813       	66.274895      	65.910515      	65.870094      	67.454094      	66.67335       	66.67372       	67.33633       	67.33379       	66.95474       	66.535904      	66.51662       	66.61425       	67.09849       	66.79829       	66.91815       	66.71419       	66.680084      	66.43498       	66.8625        	66.91353       	66.64396       	66.56518       	66.9631        	66.57603       	66.759155      	66.677025      	66.858536      	67.064064      	66.79549       	66.571304      	66.83222       	66.99803       	66.760056      	66.89945       	66.42832       	67.00104       	66.9215        	66.99167       	67.157555      	66.83308       	67.222595      	66.55723       	66.590965      	67.386444      	66.592155      	66.72233       	67.157486      	66.58695       	66.59953       	67.37159       	66.8829        	66.96796       	67.3241        	66.69246       	66.94885       	67.20276       	66.52498       	66.8676        	67.28871       	66.584946      	67.0396        	67.19638       	67.03326       	66.94229       	67.11814       	67.21154       	66.99112       	
57.929474      	58.278282      	57.975872      	57.455647      	57.83951       	58.394897      	59.029404      	60.263992      	62.179695      	66.61782       	66.88847       	66.57098       	67.208824      	67.10686       	66.67662       	67.153656      	67.15877       	66.643456      	67.057175      	67.42868       	66.69656       	66.998085      	67.0545        	66.75198       	66.776054      	67.261345      	66.76644       	66.65203       	67.12269       	66.523544      	66.96361       	67.03344       	66.38824       	66.84022       	67.04572       	66.48912       	66.79124       	66.67649       	66.76791       	66.754005      	66.6675        	66.64051       	66.760345      	66.36215       	66.06778       	66.46513       	66.32107       	66.74892       	67.00715       	66.86295       	66.66585       	67.07589       	66.55144       	66.47454       	66.93507       	66.850395      	66.4581        	66.95056       	66.75864       	66.61354       	67.01439       	67.056656      	66.65848       	67.09502       	66.85997       	66.096146      	67.3088        	66.70174       	66.184364      	67.30271       	66.92836       	66.438934      	67.27021       	66.90193       	66.62021       	67.116875      	66.94769       	66.780205      	66.91706       	67.00845       	66.84031       	67.06573       	67.06023       	66.75792       	67.01644       	67.34071       	66.444984      	67.08111       	67.06335       	66.65751       	67.08231       	67.12641       	66.82067       	66.850945      	67.23953       	67.12988       	66.6125        	66.578766      	67.23283       	66.99334       	
57.7762        	58.00623       	57.47676       	57.82603       	57.662704      	58.45805       	59.752556      	59.61968       	60.567505      	66.9712        	66.980225      	66.901825      	66.75111       	67.041504      	66.89064       	66.78915       	66.97555       	66.941696      	66.93129       	67.23326       	67.057205      	67.335915      	66.94904       	67.056046      	67.35392       	66.92294       	67.27021       	67.1988        	66.60125       	67.05807       	67.123886      	66.711105      	67.25422       	66.97907       	66.817505      	67.04961       	66.75115       	66.22271       	66.86797       	66.952385      	66.605286      	67.01897       	67.162964      	66.77142       	66.55189       	66.90743       	66.18403       	66.78776       	67.030495      	66.20835       	66.94448       	66.82161       	66.67286       	67.00634       	66.59882       	66.41042       	66.806274      	66.9649        	66.62656       	66.69035       	66.99446       	66.46361       	66.62819       	66.62146       	66.58334       	66.781204      	66.59438       	66.51079       	66.882286      	66.750565      	66.63799       	66.99887       	67.04705       	66.81229       	66.63777       	66.84703       	66.8834        	66.8117        	66.865326      	66.98334       	66.96679       	66.61533       	66.90173       	67.103455      	67.045166      	67.039375      	66.90476       	66.781555      	67.074425      	66.84203       	67.099075      	67.51382       	67.13297       	67.05156       	67.1169        	67.30189       	67.39475       	67.346725      	69.02242       	68.30569       	
60.367134      	59.506012      	60.28104       	60.271294      	59.9567        	60.29269       	61.156094      	62.1946        	63.239136      	65.5239        	67.05364       	67.36122       	67.255424      	67.00332       	67.45262       	67.25256       	67.02932       	67.37854       	67.29333       	67.194016      	67.261505      	67.12314       	67.136314      	67.32652       	66.98802       	67.096         	67.46241       	67.12956       	66.91604       	67.46309       	66.807236      	66.8798        	67.395744      	66.73079       	66.972084      	67.51384       	66.88035       	66.825386      	67.42947       	67.11392       	66.99763       	66.939835      	66.92992       	67.154106      	67.28151       	66.87795       	67.204994      	67.51287       	66.807556      	66.990074      	67.38423       	66.72739       	66.535385      	66.814865      	66.575294      	66.4636        	67.28587       	67.04403       	67.14149       	66.899506      	67.03597       	66.77627       	67.177345      	67.1507        	66.93925       	66.93114       	66.969826      	66.99095       	67.0699        	66.638695      	67.09782       	67.01574       	67.2003        	67.10505       	66.92243       	67.47865       	67.03335       	66.739876      	67.19922       	67.15206       	66.986275      	67.273315      	67.22985       	67.04413       	67.41485       	67.26384       	67.098564      	67.628426      	66.88942       	67.02857       	67.4758        	67.30521       	66.98576       	67.1947        	67.4376        	67.4748        	67.78417       	69.25327       	69.3034        	66.836754      	
62.49753       	62.636124      	63.39441       	65.071976      	65.31384       	65.68742       	66.96584       	66.87506       	66.772156      	67.14337       	66.9677        	66.57318       	66.97758       	67.20891       	66.65346       	67.08045       	66.98106       	66.82018       	67.461754      	67.30594       	66.75589       	67.12958       	67.3789        	66.82992       	67.110245      	67.281845      	66.8273        	67.051186      	67.27751       	66.47276       	66.96774       	66.98458       	66.354744      	66.84242       	66.89081       	66.53882       	66.983025      	67.16168       	66.52267       	66.80334       	67.20161       	66.55924       	66.94973       	67.24594       	66.701836      	67.0233        	67.1627        	66.74154       	67.11843       	67.02423       	66.816864      	67.25576       	66.85623       	66.3355        	66.57084       	66.7763        	66.88908       	67.14682       	67.420204      	66.954994      	67.153854      	67.2255        	66.92388       	67.309204      	67.22894       	66.49911       	66.68299       	66.99509       	66.4567        	66.93801       	67.17468       	66.87635       	67.57493       	67.61381       	67.12477       	67.51408       	67.479645      	67.01592       	67.61595       	67.64998       	66.82876       	67.263725      	67.51559       	66.88991       	67.742935      	67.71874       	67.0719        	67.36859       	67.66284       	67.196335      	67.29037       	67.52116       	66.929184      	67.12177       	67.566864      	67.24617       	68.54536       	68.2384        	63.270206      	60.269558      	
66.678246      	67.055084      	66.981575      	67.15041       	66.53282       	66.71486       	67.134056      	66.87387       	66.87239       	67.30702       	67.10728       	66.81417       	67.09137       	66.9541        	67.09112       	67.54025       	67.0599        	66.8719        	67.54647       	66.96477       	67.00898       	67.5537        	66.95668       	66.52051       	67.2859        	66.859276      	66.66451       	67.30864       	66.964836      	66.77193       	67.53694       	67.18913       	66.75543       	67.42209       	67.13222       	66.82879       	67.41948       	67.26476       	66.56606       	66.82961       	66.85728       	66.39085       	66.60363       	67.157936      	66.82218       	67.340614      	67.39442       	66.67076       	67.105545      	67.33081       	66.77823       	67.04633       	67.47802       	66.81143       	67.210754      	67.50936       	67.20727       	67.11836       	67.588936      	67.00768       	66.9732        	67.29167       	66.95366       	67.2258        	67.40046       	66.80443       	66.86619       	66.87408       	66.75077       	67.07137       	66.78318       	67.03619       	67.05861       	67.19635       	67.37536       	67.34651       	67.12034       	66.99067       	66.97737       	67.14154       	66.94071       	66.996155      	67.25397       	66.87386       	67.08876       	67.38292       	67.02718       	66.89947       	67.12051       	66.86349       	67.25691       	67.21419       	66.88841       	67.4588        	67.45521       	67.25287       	68.79132       	68.88136       	64.66471       	61.323284      	
67.052086      	67.22503       	67.18102       	67.0043        	66.78344       	67.18808       	67.048996      	66.95087       	67.38028       	67.24085       	67.12986       	67.33404       	66.99903       	67.26196       	67.48588       	67.00071       	67.424         	67.72326       	67.10526       	67.273384      	67.37123       	67.08822       	67.201706      	67.30485       	66.89291       	67.377975      	67.487885      	67.31206       	67.53803       	67.39884       	67.254074      	67.21953       	67.42471       	67.310196      	67.28626       	67.39244       	67.09533       	67.41654       	67.6318        	67.40194       	67.49274       	67.30378       	67.158455      	67.44521       	67.46854       	67.59983       	67.742195      	67.7085        	67.45636       	67.81563       	67.5358        	67.53659       	67.91922       	67.59213       	67.712814      	68.39822       	68.49536       	69.014984      	66.174095      	63.716797      	64.29433       	65.5248        	66.49264       	67.789055      	68.20136       	67.70295       	67.8284        	67.958534      	68.71863       	65.82627       	65.65055       	62.486256      	66.73704       	67.73064       	67.25458       	67.63407       	67.67921       	67.14137       	67.458916      	67.64378       	66.99995       	67.314964      	67.508         	67.13377       	67.313446      	67.5608        	66.79382       	67.424515      	67.43488       	66.87066       	67.5966        	68.047264      	67.404396      	67.47867       	67.83855       	67.41853       	69.11312       	68.14824       	64.34331       	62.479618      	
66.90526       	67.26335       	67.33884       	67.09166       	67.477455      	67.41584       	66.96553       	67.13879       	67.42897       	67.32521       	67.38838       	67.43577       	67.03753       	67.526276      	67.28687       	67.24386       	67.52072       	67.43089       	67.398865      	67.48348       	67.520256      	67.18846       	67.31564       	67.11998       	67.22593       	67.357155      	67.42863       	67.44252       	67.36211       	67.26952       	67.55612       	67.2881        	67.3396        	67.72395       	67.62121       	67.485725      	67.68274       	67.67296       	67.4737        	67.84527       	67.87311       	66.94283       	67.7714        	67.63436       	67.09167       	68.00889       	68.12959       	67.79086       	67.98685       	67.96619       	67.695045      	67.95057       	68.24868       	67.81618       	68.77665       	69.73335       	66.017395      	64.38285       	63.545326      	61.658577      	61.699524      	64.86774       	66.15825       	64.48761       	64.00511       	63.54862       	63.61928       	63.784824      	63.600376      	64.231476      	62.208984      	59.02673       	59.095203      	60.18818       	60.42689       	61.949036      	67.36157       	67.13928       	66.985344      	67.23265       	67.37002       	67.06892       	67.66688       	67.351814      	67.29249       	67.56101       	67.51626       	67.50025       	67.35064       	67.54735       	67.66568       	67.474594      	67.744484      	67.84635       	67.67043       	67.91457       	68.751656      	68.99208       	65.846214      	63.13117       	
66.576454      	66.98345       	67.01372       	66.99586       	67.05812       	66.605774      	67.09015       	66.81368       	66.890495      	67.0639        	66.91353       	67.1642        	67.23725       	66.95531       	66.86326       	67.285         	67.02299       	66.83574       	67.22229       	67.084465      	67.172615      	67.36926       	67.13221       	67.7086        	67.166336      	66.746414      	67.55298       	67.40067       	66.804054      	66.93247       	67.76509       	66.87818       	67.620514      	67.44234       	67.24522       	67.66834       	67.59248       	67.11014       	67.49983       	67.21303       	66.7112        	67.25143       	67.251114      	67.2071        	67.43577       	67.29513       	67.65271       	67.94819       	67.66545       	67.953384      	68.273384      	68.71524       	66.84666       	65.844315      	64.96859       	63.98465       	63.753548      	63.471         	63.70589       	63.897537      	63.42765       	63.882015      	64.292595      	61.748825      	60.327297      	58.476723      	57.22995       	56.96374       	57.367382      	56.695217      	56.94737       	57.03236       	56.354485      	57.584736      	58.948574      	59.299026      	65.290405      	67.45524       	66.72104       	67.298706      	67.227325      	67.10867       	67.239784      	67.46123       	67.27466       	67.16095       	67.51117       	67.22932       	67.46705       	67.38609       	67.29923       	67.50626       	67.502846      	67.35721       	67.8883        	68.072784      	67.60929       	68.96314       	67.86357       	65.40723       	
67.01638       	66.45056       	66.38624       	67.267296      	66.68028       	66.61163       	67.173645      	66.39159       	66.261925      	67.16585       	67.145454      	66.5729        	66.96217       	67.38468       	66.63774       	67.06235       	67.01209       	66.636444      	67.192406      	67.15884       	66.486         	67.14356       	66.96556       	66.59724       	66.90254       	67.24215       	67.19928       	67.014275      	67.70106       	66.987434      	67.04234       	67.50555       	67.035675      	66.915276      	67.544914      	67.07351       	67.238945      	67.79001       	67.0952        	67.78208       	67.67043       	67.29045       	67.58456       	69.375565      	68.11247       	66.01438       	65.818115      	65.8691        	63.512714      	63.650467      	63.29344       	62.919537      	63.772003      	63.66595       	63.428406      	61.221706      	59.584866      	58.2761        	57.656643      	56.847347      	56.53426       	56.84467       	56.81496       	56.726192      	57.121998      	57.438118      	56.81762       	57.263176      	57.270473      	57.349514      	57.36748       	57.32709       	57.148296      	57.501656      	57.959312      	58.725636      	59.926964      	65.82091       	67.07275       	67.4185        	66.89587       	67.01584       	67.5792        	66.9722        	66.84058       	67.38327       	66.98482       	66.654434      	67.38603       	67.499         	66.90461       	67.50019       	67.46251       	67.53431       	67.549095      	67.89339       	67.40307       	68.91632       	68.13359       	65.94321       	
66.46216       	67.4563        	66.98893       	67.06173       	67.34897       	66.693405      	66.459465      	66.89949       	66.74901       	66.43776       	67.457         	67.3569        	66.73173       	67.60867       	67.10147       	66.440575      	67.36249       	67.18055       	66.68938       	67.30106       	67.32773       	66.87898       	67.35023       	67.422485      	67.07568       	67.14338       	67.6428        	67.030426      	67.312996      	67.56041       	66.986275      	67.282745      	67.63747       	67.32648       	67.40506       	67.61299       	67.49691       	67.57779       	67.6423        	67.86722       	67.95536       	68.70638       	63.241344      	63.549625      	63.682796      	63.790565      	63.427765      	64.27841       	60.94112       	59.88798       	57.93048       	56.821465      	56.55002       	56.542465      	56.643543      	56.768997      	57.00394       	57.055542      	56.969406      	57.20046       	57.350296      	57.258026      	57.404552      	57.43397       	57.801907      	57.565857      	57.89084       	58.047535      	57.632122      	58.0041        	57.72826       	57.584206      	57.70907       	57.583508      	57.383442      	58.99727       	59.609814      	60.301052      	66.60365       	67.38031       	66.79865       	67.0415        	67.40489       	66.83344       	67.252914      	67.45612       	66.77031       	67.12979       	67.39794       	67.00826       	67.17217       	67.78436       	67.23407       	67.12473       	67.71575       	67.612915      	66.978806      	67.67377       	69.36846       	68.39664       	
66.761116      	67.26212       	67.08522       	66.814804      	67.182175      	66.85726       	66.538925      	67.079475      	66.77345       	66.51443       	67.7438        	67.5771        	66.723854      	67.11531       	67.22669       	66.721886      	67.20932       	67.29942       	66.8741        	66.97518       	67.40534       	66.745094      	67.1658        	67.41076       	66.88821       	67.04461       	67.447586      	66.628914      	67.243965      	67.197365      	66.774796      	67.10645       	67.37351       	67.023125      	66.98711       	67.60677       	67.185684      	67.17027       	68.23493       	68.29585       	62.663815      	59.727608      	57.86892       	57.173374      	56.907764      	56.75503       	56.62999       	56.774082      	56.908928      	56.535374      	56.973946      	57.389103      	56.85963       	57.251842      	57.61943       	57.444748      	57.472515      	57.909073      	57.711994      	57.68672       	58.148594      	57.90454       	58.094044      	58.236782      	58.33331       	57.903397      	58.418137      	58.352947      	58.263813      	58.567318      	58.381355      	57.85174       	58.135334      	57.779243      	57.323444      	58.716637      	59.210453      	59.72717       	64.03049       	67.49297       	67.07736       	67.29364       	67.33195       	67.00247       	67.28783       	66.99373       	66.939415      	67.674225      	67.479195      	66.98774       	67.64193       	67.67837       	67.1059        	67.34946       	67.9039        	67.45302       	67.36114       	67.622475      	69.26174       	69.292534      	
66.82368       	66.76473       	67.23774       	67.17185       	66.88431       	67.47217       	66.950966      	66.46226       	66.898506      	67.06841       	67.16871       	67.582825      	67.27986       	66.89933       	67.500275      	67.26063       	67.07048       	67.30378       	67.261765      	66.87461       	67.35218       	67.02303       	66.94296       	67.328476      	67.214836      	67.06159       	67.49945       	67.51793       	66.95111       	67.648285      	67.69617       	66.93652       	67.50193       	67.20369       	67.4047        	67.39737       	67.67459       	68.855896      	66.160736      	61.62178       	54.061012      	49.53696       	49.578613      	54.986515      	57.331738      	57.747993      	57.318226      	57.33545       	58.066643      	57.526752      	57.560986      	58.15353       	57.7511        	57.74056       	58.020233      	58.21041       	57.985264      	58.332397      	58.676563      	58.00813       	58.291836      	58.468605      	58.273327      	58.57298       	58.79793       	58.162918      	58.53933       	58.873554      	58.40313       	58.41221       	58.721672      	58.336         	58.11535       	58.24042       	57.92438       	57.39613       	58.98022       	59.361645      	60.18671       	66.715195      	67.49955       	66.87649       	67.50259       	67.96348       	66.94887       	67.15804       	67.606026      	67.22782       	67.428024      	67.905235      	67.215256      	67.47358       	67.66232       	67.26005       	67.59634       	68.17749       	68.1587        	67.7998        	69.22667       	69.30434       	
66.66728       	66.3984        	66.92315       	67.18907       	66.8107        	66.89352       	67.36449       	67.00812       	67.25029       	67.32394       	66.65887       	66.995995      	67.22315       	66.98663       	67.053795      	67.27064       	66.90298       	67.03052       	67.677284      	67.368706      	67.13097       	67.697495      	67.22936       	67.2167        	67.587524      	67.367744      	66.994194      	67.22139       	67.16216       	67.08782       	67.437965      	67.756294      	67.21567       	67.58969       	68.13381       	67.39546       	68.84836       	60.730064      	57.540417      	53.39335       	51.593063      	49.132076      	48.17542       	49.711388      	49.568985      	50.818386      	56.38596       	58.493702      	58.16618       	58.598156      	58.43162       	58.119396      	58.677082      	58.381107      	57.994854      	58.374947      	58.747944      	58.203247      	58.296425      	58.789165      	58.321087      	58.451466      	58.72612       	58.113876      	58.51144       	58.769104      	58.73341       	58.429653      	58.780632      	58.604584      	58.23029       	58.59949       	58.2938        	57.97391       	57.975952      	57.687164      	58.458675      	59.601032      	60.196125      	60.776054      	67.40276       	67.53436       	67.24913       	67.46892       	67.7585        	67.17936       	67.4759        	67.62172       	67.08399       	67.49142       	67.61731       	67.553375      	67.36094       	67.86503       	67.347946      	67.55572       	67.97245       	67.99089       	67.91191       	68.55485       	
67.082596      	67.63688       	67.667206      	68.42562       	68.02555       	67.787506      	68.743065      	66.703964      	65.60361       	65.55221       	64.53134       	63.597874      	64.05022       	67.54056       	67.03349       	67.39858       	67.70189       	66.96719       	67.03388       	67.53968       	67.006744      	66.900116      	67.469696      	66.46783       	67.2759        	67.55966       	67.11055       	66.99492       	67.47463       	67.233665      	67.27509       	67.9258        	67.67666       	67.12915       	67.784546      	69.41543       	57.931187      	51.93041       	49.751823      	47.433464      	46.39855       	45.787846      	45.142273      	46.106606      	46.49385       	46.748398      	47.61954       	54.32822       	58.875538      	58.80837       	58.994774      	58.34913       	58.46818       	58.826885      	58.293316      	58.35433       	58.807026      	58.323116      	58.434574      	58.77306       	58.505104      	58.29092       	58.92416       	58.533432      	58.42502       	58.73567       	58.344097      	58.34136       	58.881287      	58.73618       	58.11793       	58.773067      	58.42249       	57.68652       	58.05552       	57.660587      	57.25804       	58.536076      	59.503128      	59.95553       	66.51466       	67.6899        	67.11979       	67.02131       	67.3442        	67.501144      	67.19771       	67.43692       	67.13962       	67.2468        	67.78308       	67.431595      	67.14072       	67.820946      	67.809555      	67.41339       	67.37141       	67.63054       	67.846504      	67.71206       	
66.38649       	65.63943       	64.94951       	63.85804       	63.30308       	63.441074      	63.619545      	63.50618       	63.675934      	63.948994      	62.52703       	59.49332       	58.820213      	59.31735       	59.770042      	59.72857       	66.4138        	67.23354       	67.019966      	67.68494       	66.94914       	67.00792       	67.60307       	67.35495       	67.369095      	67.60615       	67.48364       	67.22266       	67.52554       	67.53412       	67.28648       	67.53222       	68.10102       	67.67382       	68.5514        	68.3465        	55.906094      	50.31539       	48.39389       	47.023598      	46.627396      	46.546978      	46.288036      	46.120358      	47.7153        	49.373585      	47.875935      	48.744907      	52.087017      	58.42193       	58.756805      	58.803875      	58.42945       	58.374687      	58.840378      	58.354244      	58.462223      	58.553986      	58.52343       	58.167305      	58.780083      	58.539543      	58.2021        	58.80023       	58.52221       	58.158684      	58.83863       	58.613354      	58.332157      	58.679493      	58.4021        	58.301544      	58.443867      	57.935314      	57.962967      	58.04056       	57.512207      	57.500427      	59.252323      	59.303505      	61.835426      	67.571175      	67.40211       	67.050064      	67.37912       	67.29549       	66.82005       	67.61655       	67.48683       	67.032875      	67.54457       	67.16925       	67.07632       	67.70202       	67.41351       	67.024956      	67.27843       	67.63853       	67.36926       	67.24772       	
63.652122      	63.70757       	61.962902      	59.736645      	57.649715      	57.625244      	57.44221       	56.31293       	56.826088      	56.899853      	56.520966      	56.879852      	56.733654      	56.621643      	57.616726      	59.634663      	61.370365      	67.26461       	67.45861       	67.15011       	67.35947       	67.70852       	67.32771       	67.25951       	67.76041       	67.44728       	67.402374      	68.10323       	67.48228       	67.793724      	68.196495      	67.93029       	67.85219       	68.96514       	66.8031        	57.7031        	54.886337      	50.261562      	48.56902       	49.60812       	49.119816      	47.750935      	47.498398      	47.65332       	48.60547       	51.91426       	49.940033      	49.394535      	51.761166      	59.19841       	58.6581        	58.922897      	59.02311       	58.376217      	58.485516      	58.70889       	58.563015      	58.792072      	58.81504       	58.543972      	58.840942      	58.788757      	58.295006      	58.612823      	58.838573      	58.38205       	58.85564       	58.869724      	58.451466      	58.750004      	58.893852      	58.422245      	58.64167       	58.58085       	58.18206       	58.14399       	58.11458       	57.60738       	59.1186        	59.882084      	59.928047      	62.941788      	67.87187       	67.0663        	67.37238       	67.96621       	67.22141       	67.3025        	68.19988       	67.5036        	67.22817       	67.84863       	67.67887       	67.154495      	67.89417       	67.468         	66.979164      	67.28898       	67.655815      	68.134605      	
57.095478      	56.60258       	57.04579       	56.915672      	57.100513      	57.737587      	57.116394      	57.25247       	57.82451       	57.068665      	57.10892       	57.61034       	57.315365      	57.16738       	58.20451       	59.14712       	59.52395       	62.082573      	67.23561       	67.243576      	67.478065      	67.3675        	67.23986       	67.544266      	67.37736       	67.27128       	67.48774       	67.43804       	67.69963       	67.70441       	67.53911       	67.888374      	68.115234      	68.82871       	66.88868       	57.43358       	54.42126       	53.15625       	49.861683      	48.75283       	50.41291       	50.244682      	49.78982       	50.81343       	52.393932      	53.121407      	53.72081       	53.173115      	57.370686      	59.14033       	58.702946      	58.579937      	58.539257      	58.480305      	58.38841       	58.55461       	58.68643       	58.664352      	58.50816       	58.13706       	58.566357      	58.3659        	58.245155      	58.66312       	58.318943      	58.42546       	58.61534       	58.241512      	58.625057      	58.823784      	58.150326      	58.11534       	58.705894      	58.048786      	57.847305      	58.128716      	57.398518      	56.980877      	57.895355      	58.933014      	59.310776      	62.14714       	67.09918       	66.53447       	67.05788       	67.541145      	67.14197       	67.32062       	67.31138       	67.13485       	67.65286       	67.34631       	66.92745       	67.5581        	67.66239       	67.29596       	67.48769       	67.65882       	67.72976       	67.6122        	
57.02868       	57.676826      	57.247578      	57.61002       	57.960995      	57.750175      	57.94879       	58.097523      	58.10876       	58.081467      	57.74954       	57.78173       	57.963516      	57.840626      	57.598053      	58.904545      	59.437737      	59.886982      	64.54328       	67.879974      	67.20316       	67.50754       	67.84679       	66.93644       	67.42763       	67.41935       	67.0813        	67.748314      	67.553505      	67.29337       	67.6899        	67.78487       	67.81715       	68.188255      	68.70509       	69.900894      	66.22602       	62.72762       	61.453617      	60.11421       	56.224953      	55.316605      	56.148296      	55.470448      	55.57405       	57.535557      	58.369686      	58.729073      	58.845707      	58.439415      	58.5598        	58.89084       	58.238678      	58.437294      	58.556873      	58.357964      	58.417557      	58.44374       	58.21429       	58.321976      	58.65858       	58.14037       	58.17934       	58.395775      	58.1779        	58.239456      	58.72924       	58.400772      	58.50148       	58.615574      	58.541027      	58.199787      	58.32602       	58.30336       	58.342957      	57.976597      	57.642532      	57.67792       	57.88966       	57.814247      	59.076836      	59.939224      	63.812054      	66.94078       	67.30261       	66.75804       	67.06138       	67.423676      	66.56214       	67.20003       	67.6534        	66.852585      	67.50995       	67.8752        	67.23663       	67.081474      	67.52071       	67.792206      	67.5728        	67.37014       	
58.224663      	58.150684      	58.252293      	58.021217      	58.023434      	58.601463      	58.428085      	58.07565       	58.44105       	58.499027      	58.30986       	58.448486      	58.020535      	57.6666        	57.73209       	58.023205      	59.13203       	59.98002       	61.182655      	67.10178       	67.57533       	67.3447        	67.02842       	67.552315      	67.45272       	67.22573       	67.54393       	67.57091       	67.62191       	67.45153       	67.3222        	67.571014      	67.45258       	67.5468        	67.79007       	67.98276       	68.04385       	68.30328       	68.48625       	69.528244      	69.83106       	64.391716      	63.478622      	62.20083       	60.345093      	59.31933       	58.48344       	57.771503      	58.120804      	58.39879       	58.185837      	58.515335      	58.702816      	58.10627       	58.431263      	58.496197      	58.121075      	58.423523      	58.74794       	57.83319       	58.274426      	58.608482      	58.18321       	58.200764      	58.48324       	58.192898      	58.60757       	58.745354      	58.186817      	58.654064      	58.925777      	58.13011       	58.586075      	58.72515       	58.165394      	58.22501       	58.324703      	57.782726      	57.501926      	57.873722      	58.69046       	59.04701       	60.673615      	65.676094      	67.13766       	67.388664      	67.14614       	67.10765       	67.47034       	67.31415       	67.216385      	67.89554       	67.276146      	66.97312       	67.79278       	67.64344       	67.36285       	67.288155      	67.52007       	67.650345      	
58.113335      	58.492188      	58.300896      	58.35364       	58.74428       	58.507393      	58.647755      	58.508743      	58.67043       	58.616936      	58.314037      	58.260986      	58.200783      	58.04267       	58.0265        	57.607307      	58.498547      	59.27427       	60.025684      	64.977875      	67.277954      	67.34086       	66.63443       	67.18003       	67.55016       	66.34286       	67.036316      	67.622604      	67.05625       	67.498024      	67.183754      	66.85768       	67.3995        	67.67382       	67.10109       	67.387764      	67.8801        	67.560425      	67.73241       	68.46218       	68.09515       	68.34222       	63.74761       	62.123085      	60.634373      	59.899166      	57.973515      	57.390636      	58.196003      	57.807655      	58.06264       	58.783554      	58.123302      	58.09437       	58.615852      	58.10881       	58.107975      	58.401134      	58.470734      	58.03653       	58.576134      	58.297108      	57.95635       	58.59167       	58.15886       	58.145573      	58.69648       	58.231644      	58.12613       	58.60001       	58.33955       	57.992283      	58.51333       	58.567085      	58.08501       	58.348244      	58.21616       	57.60616       	57.79806       	57.835915      	57.9379        	59.491352      	60.290493      	60.59306       	67.10113       	67.11106       	66.77204       	67.37715       	67.230484      	67.15812       	67.17535       	67.252655      	67.166275      	67.31075       	67.595695      	67.38891       	67.37965       	67.27661       	67.50646       	67.12051       	
57.903233      	58.35082       	58.272945      	58.502354      	58.22484       	58.282177      	58.49834       	58.431286      	58.384796      	58.498478      	58.396606      	57.923397      	58.23811       	57.84231       	57.24035       	57.203896      	57.349316      	58.735405      	59.59196       	60.682163      	67.06078       	67.35623       	67.11681       	67.09044       	67.52611       	66.98058       	67.06214       	67.260544      	67.235565      	67.131615      	67.330315      	67.20699       	67.032936      	67.25754       	67.068184      	67.19542       	67.41777       	67.318         	67.21573       	68.07139       	67.674126      	68.71382       	67.753174      	62.285934      	61.106506      	60.069675      	58.185078      	57.338818      	57.959297      	57.75096       	57.76938       	58.615143      	58.059162      	58.172623      	58.404984      	58.07927       	58.162         	58.606567      	58.035072      	58.26445       	58.500973      	57.962418      	58.106934      	58.543808      	58.258793      	58.13177       	58.80609       	58.50757       	58.07443       	58.781643      	58.521225      	58.28748       	58.77295       	58.2882        	58.207275      	58.623596      	58.359344      	57.90384       	58.185574      	57.61709       	57.471832      	58.642067      	59.654453      	60.24847       	65.53652       	67.28818       	67.01847       	67.58267       	67.19652       	67.16173       	67.64599       	67.44104       	67.11551       	67.647446      	67.57475       	67.168945      	67.30787       	67.74938       	67.7571        	67.70772       	
58.463223      	58.356808      	58.086163      	58.684715      	58.197067      	58.521545      	58.56588       	58.32604       	58.430958      	58.130543      	58.36273       	58.274174      	57.965046      	58.166325      	57.403603      	57.50991       	57.585583      	57.717854      	58.762955      	59.986183      	63.906513      	66.82905       	67.42986       	66.58447       	66.84666       	67.680405      	66.79167       	66.97941       	67.252174      	66.84978       	67.046715      	67.40086       	67.00277       	67.09426       	67.460815      	67.08014       	67.11869       	67.32209       	67.22653       	67.33289       	67.70248       	67.50384       	68.71512       	65.59104       	61.88601       	60.239273      	59.33703       	58.145348      	57.382397      	57.58375       	57.986645      	58.117508      	57.96611       	58.30131       	58.288277      	58.30339       	58.29678       	58.127098      	58.299583      	58.25072       	58.450108      	58.16801       	58.23126       	58.394108      	57.85954       	58.20963       	58.479675      	57.962914      	58.39311       	58.821095      	58.053032      	58.40005       	58.600094      	58.11543       	58.563713      	58.60022       	58.026344      	57.936226      	58.198227      	57.280807      	57.27304       	57.83873       	58.789486      	59.365467      	61.37949       	66.87031       	67.26443       	67.7223        	66.902756      	67.296394      	68.02476       	67.1516        	66.92942       	67.9748        	67.49529       	67.03207       	67.57417       	68.074455      	67.7603        	67.35043       	
