# www.neaspec.com
# Scan:	 	AFM
# Project:	 	20251007_PS
# Description:	 	
# Date:	 	10/07/2025 10:43:47
# Scanner Center Position (X, Y):	[µm]	49.99	50.01	 
# Rotation:	[°]	0	 	 
# Scan Area (X, Y, Z):	[µm]	5.000	5.000	0.000
# Pixel Area (X, Y, Z):	[px]	100	50	1
# Averaging:	 	1	 	 
# Integration time:	[ms]	5	 	 
# Laser Source:	 	4.5-15 µm nano-FTIR laser
# Detector:	 	R
# Target Wavelength:	[µm]	7.502	 	 
# Demodulation Mode:	 	Fourier
# Tip Frequency:	[Hz]	241,340.500	 	 
# Tip Amplitude:	[mV]	45.700	 	 
# Tapping Amplitude:	[nm]	79.665	 	 
# Modulation Frequency:	[Hz]	0.000	 	 
# Modulation Amplitude:	[mV]	0.000	 	 
# Modulation Offset:	[mV]	0.000	 	 
# Setpoint:	[%]	79.75	 	 
# Regulator (P, I, D):	 	4.206850	8.625812	1.000000
# Tip Potential:	[mV]	0.000	 	 
# M1A Scaling:	[nm/V]	0.426	 	 
# M1A Cantilever Factor:	 	1,000	 	 
# Q-Factor:	 	487.4	 	 
# Version:	 	2.1.11536.0
79.69877       	79.83653       	79.78932       	79.73999       	79.4022        	79.64444       	79.673386      	79.4242        	79.4129        	79.76371       	79.515205      	79.75139       	79.63239       	79.45123       	79.74818       	79.61373       	79.54515       	79.43444       	79.66758       	79.59244       	79.361565      	79.535995      	79.49686       	79.545456      	79.64258       	79.47222       	79.7799        	79.53747       	79.63695       	79.60533       	79.97407       	79.56879       	79.4425        	79.67612       	79.76282       	79.80273       	79.44234       	79.56786       	79.72247       	79.72905       	79.52287       	79.7359        	79.36582       	79.46046       	79.575035      	79.71918       	79.318535      	79.36648       	79.93217       	79.596115      	79.789024      	79.52293       	79.51954       	79.67249       	79.702286      	79.71801       	79.80222       	79.61606       	79.50329       	79.45098       	79.73982       	79.59611       	79.62461       	79.69467       	79.364         	79.370255      	79.68531       	79.959435      	79.531456      	79.56973       	79.82326       	79.51608       	79.631836      	79.629295      	79.56248       	79.405624      	79.68316       	79.75618       	79.52138       	79.65853       	79.54492       	79.69863       	79.38123       	79.63205       	79.52153       	79.72251       	74.61453       	79.266014      	79.539345      	79.397606      	79.6171        	79.64208       	79.65398       	79.56937       	75.8426        	76.53767       	78.7156        	78.96904       	78.94028       	79.31658       	
79.5215        	79.62373       	79.811165      	79.68098       	79.56167       	79.54999       	79.64473       	79.60405       	79.39126       	79.57219       	79.8013        	79.50003       	79.47691       	79.62373       	79.54884       	79.376076      	79.63248       	79.88607       	79.63983       	79.521614      	79.647         	79.5366        	79.60366       	79.210526      	79.70241       	79.97086       	79.43321       	79.31389       	79.992516      	79.39229       	79.664536      	79.91159       	79.533195      	79.64185       	79.51169       	79.59208       	79.573524      	79.364525      	79.754616      	79.942665      	79.478455      	79.76871       	79.53999       	79.74787       	79.45503       	79.600426      	79.57527       	79.40542       	79.64788       	79.59204       	79.80551       	79.556984      	79.52725       	79.73559       	79.81105       	79.80396       	79.410736      	79.62956       	79.73629       	79.67896       	79.41336       	79.636856      	79.78386       	79.41743       	79.82862       	79.72417       	79.55196       	79.317665      	79.82099       	79.73112       	79.55844       	79.67481       	79.545074      	79.58532       	79.770164      	79.27749       	79.82233       	79.660645      	79.490036      	79.68671       	79.40383       	79.65597       	79.62243       	79.58043       	79.483025      	78.38833       	76.43555       	79.35752       	78.75494       	78.15072       	78.916565      	78.77866       	79.4323        	79.66696       	79.5694        	79.35928       	79.88441       	79.504486      	79.56038       	79.445694      	
79.705414      	79.89594       	79.66797       	79.24385       	79.17503       	79.71926       	79.77021       	79.56627       	79.437256      	79.806526      	79.38689       	79.801605      	79.53649       	79.47717       	79.79636       	79.54588       	79.45133       	79.9671        	79.298584      	79.61523       	79.732735      	79.38105       	79.27791       	79.63737       	79.47559       	80.02192       	79.64739       	79.36682       	79.94774       	79.3531        	79.50367       	79.58318       	79.725525      	79.61094       	79.61771       	79.72097       	79.44641       	79.65707       	79.49125       	79.80169       	79.91569       	79.48913       	79.410835      	79.81887       	79.554276      	79.48453       	79.79203       	79.606766      	79.339745      	79.55256       	79.831024      	79.58518       	79.47468       	79.635376      	79.61616       	79.85326       	79.75452       	79.5598        	79.49834       	79.76441       	79.448074      	79.76108       	79.8974        	79.10341       	79.50112       	79.78615       	79.73882       	79.60472       	79.55097       	79.473114      	79.76976       	79.39284       	79.64344       	79.60775       	79.76981       	79.50036       	79.49452       	79.82749       	79.53652       	79.42574       	79.81559       	79.55447       	79.5224        	75.67635       	76.6404        	77.63631       	78.60712       	79.37163       	79.619385      	79.7406        	79.599304      	79.7313        	79.63928       	79.5498        	79.57239       	79.72594       	79.643326      	79.56007       	79.47447       	79.641335      	
79.500015      	79.76826       	79.536194      	79.640465      	79.50888       	79.61132       	79.28994       	79.89358       	79.35898       	79.74427       	79.52385       	79.51637       	79.75191       	79.75667       	79.4138        	79.584496      	79.64361       	79.789635      	79.42774       	79.45188       	79.767624      	79.702225      	79.314545      	79.10664       	79.71322       	79.75278       	79.67962       	79.602036      	79.89445       	79.33416       	79.36442       	79.66956       	79.64657       	79.76912       	79.39423       	79.68685       	79.68344       	79.63475       	79.70712       	79.65395       	79.962395      	79.48687       	79.39292       	79.652435      	79.76545       	79.67929       	79.8351        	79.463905      	79.32941       	79.84882       	79.63537       	79.54897       	79.52999       	79.66989       	79.56846       	79.71122       	79.62529       	79.42134       	79.693275      	79.78355       	79.56592       	79.67659       	79.53561       	79.59331       	79.554184      	79.53069       	79.74677       	79.730095      	79.52549       	79.40418       	79.73661       	79.606674      	79.23105       	79.76261       	79.892426      	79.35519       	79.487206      	79.667534      	79.69842       	79.316284      	79.78578       	79.70209       	79.17919       	75.63543       	77.20923       	78.25923       	78.43281       	78.942825      	80.067726      	79.713295      	79.58875       	79.573555      	79.73366       	79.559845      	79.59615       	79.88638       	79.5502        	79.35395       	79.83813       	79.68694       	
79.67097       	79.63836       	79.636635      	79.6821        	79.36265       	79.56823       	79.945435      	79.26068       	79.85921       	79.587296      	79.402275      	79.72759       	79.508896      	79.754074      	79.4881        	79.61394       	79.51805       	79.70997       	79.7239        	79.5019        	79.53827       	79.66163       	79.56678       	79.20518       	79.72072       	79.62265       	79.71958       	79.803894      	79.459984      	79.65674       	79.61551       	79.599884      	79.49151       	79.65461       	79.44096       	79.64417       	79.726715      	79.351715      	79.80481       	79.9513        	79.68996       	79.54377       	79.621574      	79.62974       	79.57407       	79.62418       	79.62663       	79.78341       	79.45924       	79.637665      	79.50985       	79.719185      	79.6705        	79.45124       	79.54903       	75.42035       	79.82059       	78.79557       	79.3668        	79.53471       	79.6461        	79.694916      	79.28254       	79.77375       	79.679855      	79.48883       	79.524376      	79.57964       	79.469         	79.86483       	79.589806      	79.577705      	79.644585      	79.54225       	79.68453       	79.63525       	79.37729       	79.58061       	79.71754       	79.741776      	79.5629        	79.59205       	76.147156      	77.04838       	76.986374      	78.31855       	78.42831       	78.74666       	79.32891       	79.6724        	79.45789       	79.812126      	79.56823       	79.635864      	79.77752       	79.65605       	79.43356       	79.82569       	79.5446        	79.59223       	
79.7045        	79.685524      	79.57935       	79.605675      	79.61421       	79.50316       	79.7207        	79.43009       	79.619835      	79.62524       	79.751205      	79.51999       	79.39436       	79.68403       	79.727615      	79.64578       	79.55422       	79.36863       	79.669174      	79.8194        	79.57508       	79.53118       	79.60078       	79.60256       	79.36751       	79.44574       	80.13463       	79.51134       	79.66422       	79.58011       	79.50068       	79.65462       	79.52263       	79.85414       	79.29709       	79.62121       	79.855705      	79.39408       	79.57976       	79.66439       	79.57836       	79.57133       	79.54384       	79.69509       	79.56666       	79.61863       	79.51084       	79.54894       	78.14182       	79.02662       	79.09605       	79.26135       	79.445885      	79.64984       	79.70924       	79.54009       	79.72594       	79.677734      	79.87076       	80.19647       	78.88016       	79.44839       	79.78874       	79.36547       	79.56652       	79.624886      	79.5313        	79.59698       	79.57216       	79.701195      	79.36552       	79.51419       	79.86395       	79.37692       	79.57554       	79.50004       	79.715576      	79.73178       	79.50564       	79.57987       	79.64621       	79.656845      	79.44628       	75.17404       	78.54083       	76.94075       	78.460304      	78.333725      	79.196724      	79.51219       	79.41437       	79.672424      	79.51234       	79.646675      	79.7551        	79.80555       	79.51046       	79.54531       	79.60163       	79.624374      	
79.60068       	79.65932       	79.63146       	79.760506      	79.59055       	79.554565      	79.57378       	79.61732       	79.756386      	79.683426      	79.3932        	79.65079       	79.63829       	79.477036      	79.5583        	79.872604      	79.4883        	79.42579       	79.77178       	79.80889       	79.44846       	79.48551       	79.70896       	79.3999        	79.62574       	79.358864      	79.656334      	79.8535        	79.62409       	79.73526       	79.48105       	79.58236       	79.60457       	79.480385      	79.659065      	79.841644      	79.58589       	79.438255      	79.77716       	79.42863       	78.84618       	77.264015      	78.83258       	79.04583       	79.04219       	79.83075       	79.612465      	79.72416       	79.37436       	78.94127       	78.37948       	77.90994       	78.52235       	78.98756       	79.19363       	79.454384      	79.44666       	80.09577       	80.557274      	80.72575       	84.8968        	80.264694      	79.31595       	79.21227       	79.5677        	79.46162       	79.785835      	79.399345      	79.57767       	79.60779       	79.58919       	79.66365       	79.683815      	79.36525       	79.63533       	79.46764       	79.862915      	79.57255       	79.49379       	79.57785       	79.63977       	79.51409       	79.558075      	76.500595      	77.006325      	77.947365      	77.824814      	78.40811       	78.7906        	79.50719       	79.93946       	79.25076       	79.81039       	79.690994      	79.41011       	79.57799       	79.58869       	79.65049       	79.48771       	79.753075      	
79.62404       	79.79821       	79.68831       	79.40567       	79.2971        	79.686424      	79.69117       	79.5083        	79.54          	79.76241       	79.399284      	79.826775      	79.34237       	79.39408       	79.88436       	79.477936      	79.50767       	79.63988       	79.5603        	79.587906      	79.98386       	79.35271       	79.763466      	79.596886      	79.332756      	79.383385      	79.4513        	79.76474       	79.625854      	79.388306      	79.93561       	79.72306       	79.49684       	78.687675      	79.11544       	79.297775      	78.594124      	79.663895      	79.75633       	79.53706       	79.67088       	79.564804      	77.16895       	77.3612        	78.46953       	78.80672       	79.30056       	79.09069       	79.382805      	79.589035      	79.60923       	79.67327       	79.57946       	79.74862       	79.55458       	79.624725      	79.28928       	79.880585      	80.178894      	80.230515      	81.76849       	80.39653       	79.8177        	78.94507       	79.50741       	79.52537       	79.392685      	79.57067       	79.68458       	79.49472       	79.678085      	79.577385      	79.559166      	79.73495       	79.43973       	79.62184       	79.614105      	79.35829       	79.799736      	79.5889        	79.498726      	79.8025        	79.56975       	79.512405      	75.59257       	77.83985       	78.13899       	78.45286       	78.1017        	79.138016      	79.754486      	79.67801       	79.61996       	79.630424      	79.57439       	79.78435       	79.41975       	79.68139       	79.71503       	79.42437       	
79.368935      	79.59379       	79.68979       	79.616135      	79.70182       	79.54874       	79.5294        	79.7372        	79.63376       	79.3525        	79.905785      	79.543564      	79.24487       	80.06104       	79.276276      	79.371         	79.646675      	79.740524      	79.54291       	79.56696       	79.780624      	79.60114       	79.4114        	79.58421       	79.64458       	79.629456      	76.66823       	78.484245      	79.4514        	78.81125       	80.07838       	79.532814      	79.61198       	79.666336      	79.50618       	77.37626       	77.10924       	78.495926      	79.30173       	79.53988       	79.01578       	79.50683       	79.60179       	79.62518       	79.1672        	79.72613       	79.73995       	79.5587        	79.71819       	79.47946       	79.74016       	79.60969       	79.45879       	79.80638       	79.50583       	79.53801       	79.791756      	79.54436       	79.842766      	80.43215       	80.71352       	81.087875      	83.00051       	79.663         	79.16353       	79.53957       	79.52897       	79.41614       	79.615585      	79.47043       	79.48541       	79.78419       	79.28272       	79.72728       	79.71076       	79.44645       	79.67604       	79.64145       	79.52351       	79.72293       	79.45169       	79.76013       	79.44274       	79.47144       	76.13259       	77.118004      	78.8425        	78.17076       	78.337234      	78.737656      	79.18744       	79.53481       	79.66793       	79.448654      	79.79654       	79.55716       	79.45651       	79.65816       	79.56914       	79.93462       	
79.63311       	79.47562       	79.71742       	79.897285      	79.74305       	79.75212       	79.51454       	79.63849       	79.664185      	79.46234       	79.81689       	79.46984       	79.667015      	79.50831       	79.46503       	79.66758       	79.56319       	79.6758        	79.620094      	79.54369       	79.66125       	79.36026       	79.497         	79.62061       	79.47808       	79.693344      	78.948746      	77.061         	78.30048       	78.2277        	78.90996       	78.71664       	78.8432        	79.55352       	79.80342       	79.63053       	79.55842       	79.72534       	79.7281        	79.538864      	79.6002        	79.63843       	79.74836       	79.61724       	79.36019       	79.74752       	79.82598       	79.217155      	79.78546       	79.856224      	79.33712       	79.84173       	79.52688       	79.56945       	79.708595      	79.576805      	79.60504       	79.61592       	79.64172       	80.31989       	80.403984      	81.37305       	80.1811        	80.38243       	78.94065       	79.46279       	79.47213       	79.36986       	79.60689       	79.5703        	79.63893       	79.39829       	79.57408       	79.79164       	79.409775      	79.53005       	79.672134      	79.4972        	79.53994       	79.77162       	79.59899       	79.56349       	79.345985      	79.8203        	79.66815       	75.69025       	78.57036       	75.98612       	78.15529       	78.26792       	79.064095      	79.51689       	79.66795       	79.72933       	79.52452       	79.71574       	79.40708       	79.71403       	79.79316       	79.39209       	
79.54902       	79.65519       	79.75702       	79.77829       	79.59747       	79.66501       	79.697044      	79.58883       	79.541595      	79.57972       	79.63402       	79.47715       	79.68355       	79.57973       	79.45369       	79.50347       	79.66669       	79.62648       	79.43733       	79.628845      	79.53886       	79.612816      	79.43244       	79.04274       	76.908356      	77.00986       	77.98496       	79.1147        	79.865524      	79.71329       	79.493324      	79.93195       	79.39022       	79.77258       	79.77713       	79.4302        	79.67617       	79.67626       	79.52595       	77.53175       	79.139404      	79.77841       	80.11337       	80.41316       	79.98319       	78.42607       	79.45664       	79.73565       	79.56743       	79.71101       	79.31041       	79.62698       	79.86131       	79.27198       	79.50314       	79.92181       	79.61541       	79.43985       	79.56469       	79.974525      	80.48823       	80.35057       	81.87373       	83.22987       	79.55171       	79.16627       	79.45668       	79.56378       	79.53733       	79.44736       	79.62055       	79.70397       	79.42402       	79.632805      	79.60519       	79.59243       	79.61741       	79.49417       	79.65509       	79.450066      	79.66625       	79.6137        	79.558495      	79.60696       	79.87655       	75.675606      	77.16007       	78.52046       	78.01704       	78.56273       	78.48429       	79.24596       	79.72406       	79.443245      	79.773254      	79.51921       	79.4291        	79.80724       	79.69046       	79.47109       	
79.48616       	79.739914      	79.59027       	79.66122       	79.5182        	79.50512       	79.33776       	79.7779        	79.547424      	79.3887        	79.72185       	79.59424       	79.46602       	79.702065      	79.396454      	79.676445      	79.76364       	79.34494       	79.810555      	79.61835       	79.45881       	79.54807       	79.618065      	75.802086      	76.94896       	78.19924       	78.333725      	78.8452        	79.580185      	79.53351       	79.71001       	79.6874        	79.71412       	79.2989        	79.532364      	79.92706       	79.51151       	79.49683       	79.53878       	79.61597       	78.85547       	79.24822       	80.0582        	79.23959       	79.69361       	79.695145      	79.53753       	79.35071       	79.657364      	79.77739       	79.54095       	79.50874       	79.78624       	79.569664      	79.58289       	79.777565      	79.310616      	79.561615      	79.84484       	79.58102       	79.87913       	80.513824      	80.49992       	80.77381       	80.350075      	78.7422        	79.6008        	79.63699       	79.30572       	79.38709       	79.44235       	79.66704       	79.532005      	79.60467       	79.17552       	79.67558       	79.92035       	79.22063       	79.50401       	79.922516      	79.53998       	79.55611       	79.70464       	79.65771       	79.42425       	79.56475       	75.6032        	78.42072       	77.32408       	78.15333       	78.54297       	78.55039       	79.14996       	79.932755      	79.66812       	79.34089       	79.60034       	79.66878       	79.460976      	79.621376      	
79.67805       	79.75513       	79.46045       	79.344765      	79.53685       	79.5668        	79.5336        	79.52861       	79.561035      	79.54291       	79.51143       	79.52216       	79.80078       	79.46505       	79.54313       	79.54021       	79.82084       	79.65202       	79.17253       	79.58765       	79.90235       	79.56707       	79.38387       	75.931145      	77.94487       	78.17437       	78.024895      	78.76475       	79.45011       	79.733475      	79.580376      	79.600006      	79.718315      	79.56282       	79.65658       	79.676254      	79.7623        	79.39233       	79.63035       	79.47096       	79.692184      	79.995674      	79.271774      	79.32659       	80.149994      	79.56774       	79.09612       	79.82257       	80.26369       	79.258354      	79.50798       	79.47838       	79.93875       	79.68356       	79.548096      	79.538414      	79.68223       	79.533875      	79.741394      	79.26252       	79.85267       	80.4316        	80.57015       	81.63462       	80.81199       	81.42068       	78.84889       	79.03876       	79.818794      	79.21393       	79.70796       	79.374985      	79.5962        	79.6136        	79.529755      	79.57758       	79.65875       	79.55756       	79.68727       	79.56736       	79.66368       	79.64607       	79.57076       	79.73063       	79.4001        	79.882065      	78.59493       	76.92008       	79.34891       	76.93977       	78.57325       	78.24559       	79.156265      	79.433266      	79.379524      	79.80772       	79.86907       	79.39362       	79.459816      	79.9969        	
79.66486       	79.43369       	79.63311       	79.71075       	79.68944       	79.639854      	79.68765       	79.60881       	79.34704       	79.65598       	79.744194      	79.62617       	79.47491       	79.5978        	79.80513       	79.45382       	79.63188       	79.622955      	79.46359       	79.65209       	79.61157       	79.62252       	79.421974      	78.286766      	76.93312       	76.52434       	78.678085      	78.56235       	78.52184       	79.451324      	79.787766      	79.7179        	79.42049       	79.68386       	79.63541       	79.57063       	79.681564      	79.483185      	79.852844      	79.62038       	79.28725       	80.0092        	79.6406        	79.15738       	79.464386      	79.78056       	79.76083       	79.62812       	79.56627       	79.697395      	79.552475      	79.43615       	79.44346       	79.82314       	79.34425       	79.8035        	79.79545       	79.761505      	79.409515      	79.69746       	79.59636       	79.759315      	80.666435      	81.05277       	80.27243       	83.40862       	79.09824       	79.40367       	79.49374       	79.11254       	79.682175      	79.60535       	79.327354      	79.68602       	79.64748       	79.64921       	79.51525       	79.31895       	79.81364       	79.7918        	79.17801       	80.00103       	79.37275       	79.67593       	79.55913       	79.4112        	79.694374      	77.74349       	76.92674       	78.664955      	78.12775       	78.40369       	78.51447       	79.13689       	79.60601       	79.64351       	79.80116       	79.40879       	79.72256       	79.43593       	
79.01481       	77.58716       	79.783676      	78.94892       	79.226555      	79.61529       	79.51361       	79.61826       	79.50493       	79.38398       	79.75972       	79.61344       	79.4947        	79.61213       	79.50599       	79.8746        	79.55878       	79.524086      	79.58569       	79.474045      	80.02268       	79.269394      	79.51396       	78.418144      	76.79856       	79.514275      	77.069534      	78.624916      	78.37608       	78.92999       	79.85873       	79.60208       	79.67842       	79.34011       	79.774055      	79.794464      	79.13831       	79.65048       	79.882225      	79.42192       	79.579475      	79.52181       	79.79071       	79.40488       	79.61161       	79.87532       	79.310326      	79.65669       	79.6801        	79.72373       	79.443695      	79.62537       	79.62671       	79.5662        	79.43736       	79.55363       	79.75517       	79.695244      	79.56702       	79.276146      	79.894684      	79.4746        	80.43019       	80.689026      	81.226616      	81.299934      	80.309395      	78.83346       	79.53722       	79.480446      	79.43884       	79.40247       	79.36782       	79.92096       	79.72685       	79.63678       	79.37126       	79.54246       	79.610054      	79.49416       	79.668365      	79.57495       	79.2311        	79.81284       	79.575356      	79.51537       	79.731445      	79.552795      	75.0848        	77.48689       	77.40209       	78.61462       	77.9021        	79.138016      	79.365746      	79.551506      	79.72522       	79.406395      	79.76442       	79.372         	
79.56184       	80.89886       	84.86863       	81.91703       	78.78394       	79.24531       	79.57375       	79.46154       	79.164795      	79.799805      	79.75529       	79.595         	79.24933       	79.63807       	79.66539       	79.59944       	79.51336       	79.63244       	79.80718       	79.44268       	79.59909       	79.56293       	79.56006       	79.69236       	75.44209       	76.97692       	77.41618       	78.30456       	78.234344      	78.9177        	79.39592       	79.938576      	79.287155      	79.6844        	79.65128       	79.31858       	79.82307       	79.71859       	79.55537       	79.95348       	79.60898       	79.421295      	79.48871       	79.91229       	79.24836       	79.74836       	79.79413       	79.491325      	79.64443       	79.56576       	79.66389       	79.63449       	79.44732       	79.704735      	79.520325      	79.69537       	79.458755      	79.53269       	79.913864      	79.37622       	79.73943       	79.64583       	80.046555      	80.46103       	80.11368       	81.78575       	83.14408       	79.96451       	79.24972       	79.01369       	79.736855      	79.328064      	79.39481       	79.4987        	79.57511       	79.765396      	79.178406      	79.72821       	79.72302       	79.259094      	79.75185       	79.71457       	79.4746        	79.70698       	79.69108       	79.42292       	79.817055      	79.63384       	79.32889       	75.225266      	77.36703       	78.47601       	78.31489       	78.52648       	79.39595       	79.719406      	79.54171       	79.48911       	79.80949       	79.86932       	
79.50838       	80.17436       	83.484764      	83.511215      	79.26786       	78.99823       	79.48438       	79.331604      	79.55916       	79.709625      	79.36707       	79.67311       	79.40654       	79.77381       	79.425354      	79.38324       	79.87185       	79.34739       	79.2206        	79.909035      	79.58827       	79.31284       	79.44213       	79.84323       	79.25643       	75.72476       	78.82456       	77.85848       	78.57184       	78.09029       	79.06561       	79.66887       	79.53333       	79.60529       	79.70069       	79.693756      	79.45871       	79.541016      	79.68979       	79.52119       	79.5593        	79.82827       	79.55505       	79.566956      	79.44518       	80.046364      	79.370865      	79.36053       	79.79283       	79.55506       	79.82015       	79.50544       	79.57999       	79.65705       	79.39516       	79.730644      	79.67804       	79.500786      	79.73386       	79.58479       	79.66458       	79.49481       	79.68326       	80.40915       	80.42086       	81.24431       	80.42719       	79.9912        	78.69272       	79.287056      	79.6589        	79.377815      	79.49849       	79.68998       	79.62752       	79.35575       	79.960396      	79.26705       	79.65033       	79.54587       	79.66835       	79.86806       	79.07079       	79.545006      	79.74512       	79.42276       	79.54601       	79.66043       	79.65205       	76.0275        	76.740005      	77.14082       	78.292534      	77.91575       	79.03339       	79.615776      	79.62969       	79.51816       	79.7506        	79.58096       	
79.713264      	80.464165      	83.14944       	85.18231       	79.97715       	79.10579       	79.74554       	79.438416      	79.41094       	79.56328       	79.66923       	79.47555       	79.38313       	79.60455       	79.71678       	79.29938       	79.75237       	79.32736       	79.81966       	79.6752        	79.35718       	79.80308       	79.25387       	79.617485      	79.64753       	77.13489       	77.14214       	78.144196      	78.10367       	78.412605      	78.595825      	79.118614      	79.5505        	79.673485      	79.739876      	79.504         	79.52886       	79.84821       	79.664         	79.4085        	79.72654       	79.701324      	79.55613       	79.53779       	79.68362       	79.77595       	79.40829       	79.466324      	79.68696       	79.88349       	79.360855      	79.65028       	79.635796      	79.44235       	79.881966      	79.68471       	79.42433       	79.71793       	79.45112       	79.67252       	79.66651       	79.56016       	79.521         	79.770744      	80.19427       	80.360634      	81.53275       	82.468605      	79.733894      	79.02762       	79.34372       	79.75382       	79.312195      	79.81048       	79.56459       	79.28292       	79.86615       	79.31917       	79.325714      	79.65131       	79.70055       	79.27433       	79.73322       	79.68848       	79.39853       	79.54929       	79.773636      	79.35727       	79.702126      	78.92461       	77.40382       	78.297905      	77.83229       	79.17145       	78.47579       	79.00519       	79.612465      	80.08773       	79.79281       	79.68347       	
79.609055      	80.286156      	81.48533       	81.37432       	81.82823       	78.92441       	79.276375      	79.32901       	79.6283        	79.493         	79.45832       	79.46398       	79.57732       	79.648224      	79.50202       	79.56188       	79.214775      	79.98883       	79.70627       	79.186195      	79.36656       	79.84987       	79.2512        	79.33415       	79.7414        	79.5408        	75.54437       	77.918655      	77.23042       	78.39544       	77.992775      	79.003204      	79.686516      	79.30711       	79.45774       	79.69347       	79.57229       	79.56683       	79.657326      	79.91407       	79.24712       	79.691414      	79.79172       	79.68206       	79.49078       	79.4401        	79.81604       	79.33137       	79.310005      	80.34677       	79.241806      	79.64844       	79.51687       	79.84926       	79.82535       	78.996414      	79.85872       	79.78652       	79.37492       	79.76274       	79.65458       	79.75679       	79.334915      	79.55301       	80.24355       	80.430855      	80.86812       	80.89104       	83.80359       	79.38627       	79.212685      	79.667534      	79.43355       	79.657326      	79.217316      	79.63855       	79.59699       	79.58455       	79.358116      	79.6405        	80.03503       	79.30609       	78.98284       	79.854294      	79.760185      	79.306946      	79.47326       	79.78053       	79.73505       	79.29624       	75.93699       	77.58898       	79.68379       	79.31826       	77.41996       	78.68957       	79.74787       	80.050995      	79.70363       	80.43258       	
79.64562       	80.4393        	81.15605       	82.07745       	83.45303       	79.955956      	79.191154      	79.24695       	79.40003       	79.6024        	79.33172       	79.578766      	79.73252       	79.76906       	79.24679       	79.58252       	79.745705      	79.370285      	79.353905      	79.737335      	79.756485      	79.52644       	79.401375      	79.655914      	79.5937        	79.54253       	77.65693       	77.12016       	78.91079       	77.40147       	78.50902       	78.4175        	79.07906       	79.514435      	79.75348       	79.93911       	79.214645      	79.89139       	79.57975       	79.58655       	79.726974      	79.48869       	79.79089       	79.57503       	79.399254      	79.92416       	79.415634      	79.68823       	79.798615      	79.355225      	79.75535       	79.593056      	79.47651       	79.94229       	79.583435      	79.41974       	79.6352        	79.55812       	79.641075      	79.61391       	79.6516        	79.629845      	79.46795       	79.63575       	79.72423       	80.27006       	80.53275       	81.34918       	82.26857       	80.26392       	78.55415       	79.6421        	79.541595      	79.4932        	79.40125       	79.50985       	79.85111       	79.260544      	79.69077       	79.675415      	79.45963       	79.39879       	79.71309       	79.66904       	79.69886       	79.715004      	79.489586      	79.82915       	79.41359       	79.48993       	79.63886       	79.634285      	78.73406       	79.682724      	77.905624      	79.42642       	79.72745       	80.15331       	79.34292       	79.53461       	
79.457825      	79.99477       	81.15858       	82.174255      	80.87194       	81.19584       	78.69879       	79.56363       	79.34384       	79.20586       	79.71735       	79.83209       	79.26924       	79.20348       	79.70006       	79.81409       	79.38909       	79.66878       	79.584305      	79.7778        	79.64875       	79.09369       	79.67602       	79.73125       	79.48463       	79.54792       	79.626724      	74.99715       	77.34975       	77.17404       	78.243904      	78.14048       	79.07172       	79.46097       	79.64817       	79.62144       	79.3852        	79.58601       	79.82307       	79.51968       	79.79716       	79.52983       	79.74288       	79.49694       	79.606255      	79.593094      	79.6839        	79.74558       	79.41443       	79.59077       	79.86393       	79.408264      	79.62457       	79.64092       	79.60042       	79.83399       	79.35151       	79.46316       	79.81498       	79.444275      	79.80798       	79.376274      	79.33153       	79.910164      	79.42276       	79.83224       	80.45512       	80.827385      	80.17347       	82.37606       	79.14264       	79.69151       	79.216484      	79.015335      	80.05125       	79.68994       	79.10926       	79.648094      	79.65819       	79.655945      	79.40047       	79.48078       	79.66591       	79.583435      	79.364235      	79.73932       	80.00846       	79.14733       	79.5959        	79.71154       	79.45405       	79.65559       	79.69727       	79.72345       	79.55018       	79.24831       	79.86778       	79.406044      	79.37742       	79.54461       	
79.64093       	79.87866       	80.4109        	81.3539        	81.637535      	83.1927        	80.11725       	79.56896       	79.57466       	79.18063       	79.298355      	79.80467       	79.48952       	79.16357       	79.59163       	79.64676       	79.59807       	79.60457       	79.30104       	79.9766        	79.53398       	79.374855      	79.49311       	79.72583       	79.488434      	79.650345      	79.756134      	79.37847       	75.77268       	78.03117       	78.05964       	78.43297       	78.33353       	79.147995      	79.52086       	79.64235       	79.75096       	79.52912       	79.59931       	79.988716      	79.30607       	79.61352       	79.71354       	79.60897       	79.72307       	79.553894      	79.76489       	79.523735      	79.32168       	79.68296       	79.7858        	79.27188       	79.86025       	79.55338       	79.62035       	79.53877       	79.43303       	80.0228        	79.49932       	79.10364       	79.96588       	79.35199       	79.54603       	79.57401       	79.74922       	80.00777       	81.01952       	80.69189       	79.279564      	81.96516       	83.23132       	78.56863       	79.24698       	79.42446       	79.6493        	79.62024       	79.595085      	79.34226       	79.59938       	79.70061       	79.437126      	79.71496       	79.75288       	79.37637       	79.684784      	79.75871       	79.61296       	79.465515      	79.33808       	79.856865      	79.65561       	79.118225      	79.806725      	79.540474      	79.69088       	79.425285      	79.427895      	79.530235      	79.50886       	79.34          	
79.53264       	79.80121       	80.25503       	81.09141       	81.53946       	80.09616       	81.96224       	79.0723        	79.2625        	79.70221       	79.30467       	79.57085       	79.48959       	79.48794       	79.61686       	79.66818       	79.62429       	79.42109       	79.45421       	79.79172       	79.48665       	79.56936       	79.86323       	79.328255      	79.55068       	79.94473       	79.354576      	79.7011        	76.809265      	77.05119       	77.78776       	78.24843       	78.26604       	78.71916       	79.34691       	79.66613       	79.424965      	79.96071       	79.3406        	79.56306       	79.8788        	79.5712        	79.486916      	79.79762       	79.54705       	79.42225       	79.80337       	79.46418       	79.75724       	79.66813       	79.40372       	79.71127       	79.6336        	79.513466      	79.286415      	79.8721        	80.155815      	79.28561       	80.00048       	79.58816       	79.8363        	80.293564      	79.834404      	79.569496      	79.79277       	80.31623       	81.07419       	79.123604      	79.668106      	80.59028       	80.101         	78.71757       	79.47107       	79.61268       	79.422905      	79.37052       	79.515274      	79.9003        	79.05657       	79.12469       	79.789         	79.53996       	79.38555       	79.61094       	79.902214      	79.3894        	79.30875       	79.68469       	79.691574      	79.47549       	79.4969        	79.43539       	79.90634       	79.318855      	79.44493       	79.600044      	79.65384       	79.462135      	79.30144       	79.939125      	
79.18746       	79.22556       	79.775024      	81.05158       	81.19413       	81.3487        	82.860756      	79.35537       	78.77075       	79.29577       	79.78221       	79.05468       	79.60776       	79.786766      	79.460144      	79.59217       	79.34395       	79.83407       	79.6016        	79.2845        	79.58235       	79.803         	79.514404      	79.74512       	79.51657       	79.74497       	79.36922       	79.51317       	79.74923       	76.67066       	78.062744      	77.243034      	78.55959       	78.22123       	78.933876      	79.64318       	79.54674       	79.61856       	79.69374       	79.56848       	79.703255      	79.68299       	79.55826       	79.66407       	79.51203       	79.77143       	79.56442       	79.57744       	79.7124        	79.69843       	79.81689       	79.53587       	79.89232       	79.861885      	79.678894      	79.79806       	80.439354      	79.44699       	79.88904       	80.02731       	80.462135      	80.22822       	80.620094      	79.74695       	79.8769        	80.15381       	80.20229       	79.821686      	79.673454      	78.578735      	79.15538       	79.26221       	79.6279        	79.44284       	79.618675      	79.38614       	79.44326       	79.83073       	79.446465      	79.3767        	79.95603       	79.61577       	79.48103       	79.4169        	79.7849        	79.500725      	79.67879       	79.439316      	79.65914       	79.815125      	79.255615      	79.687546      	79.78398       	79.42874       	79.666504      	79.577         	79.582924      	79.462265      	79.26384       	79.75976       	
79.632996      	79.78747       	79.6082        	79.80589       	80.82624       	81.04043       	79.98761       	81.400826      	79.032814      	79.139404      	79.6224        	79.38116       	79.58823       	79.52503       	79.52359       	79.624756      	79.66538       	79.51278       	79.11792       	79.662575      	79.25499       	79.83875       	79.900246      	80.28703       	78.64781       	79.673096      	79.13665       	79.55988       	79.83421       	79.50569       	76.26376       	78.00156       	78.488045      	78.266846      	78.19438       	79.39129       	79.5683        	79.48986       	79.61823       	79.59074       	79.789215      	79.667435      	79.34747       	80.092804      	79.881645      	79.512405      	80.5017        	79.83146       	79.75853       	79.97759       	80.16105       	79.71593       	80.03228       	79.83126       	80.126884      	80.19176       	80.36911       	80.1924        	80.09196       	80.0258        	80.049324      	79.929184      	80.224625      	76.26096       	78.930336      	79.28132       	79.696625      	79.636955      	79.67227       	79.43604       	79.70068       	79.602234      	79.23035       	79.85982       	79.76669       	79.48329       	79.23702       	79.7125        	79.823654      	79.35607       	79.676285      	79.46381       	79.582115      	79.61409       	79.441765      	79.87271       	79.3731        	79.48047       	79.942726      	79.27813       	79.70403       	79.527824      	79.428665      	79.77703       	79.36981       	79.59334       	79.68926       	79.4432        	79.59009       	79.17303       	
79.74638       	79.59281       	79.41285       	79.9358        	80.76612       	80.73686       	81.26113       	80.90862       	80.67615       	78.94617       	79.54362       	79.515625      	79.41604       	79.69754       	79.37633       	79.5892        	79.53454       	79.33345       	79.55147       	79.97854       	79.29645       	79.372086      	79.64906       	79.599045      	79.334114      	79.552925      	79.66958       	79.594795      	79.73625       	79.36771       	76.78107       	77.43856       	76.69753       	78.80863       	78.694244      	78.79305       	79.186455      	79.989494      	80.20732       	79.64198       	80.04767       	80.11664       	79.43099       	80.22225       	79.66677       	80.106064      	80.509514      	80.26429       	80.34846       	79.83717       	80.26651       	80.260666      	79.68638       	80.00183       	79.30756       	79.59674       	77.734985      	79.0799        	79.13505       	79.740906      	79.42751       	79.03577       	79.64103       	79.65843       	79.65724       	79.69972       	79.47169       	79.61815       	79.72514       	79.7879        	79.40595       	79.53755       	79.73917       	79.679504      	79.722916      	79.55905       	79.546776      	79.56135       	79.637344      	79.39247       	79.79885       	79.491234      	79.749794      	79.51685       	79.66183       	79.6554        	79.56817       	79.480995      	79.65764       	79.50964       	79.568245      	79.57429       	79.79599       	79.50498       	79.5513        	79.693         	79.409996      	79.58988       	79.60479       	79.630356      	
79.78967       	79.66696       	79.46747       	79.53791       	79.8948        	80.55286       	80.67444       	80.7269        	80.88021       	78.54843       	79.33934       	79.55593       	79.30958       	79.6874        	79.62368       	79.50433       	79.56016       	79.57224       	79.52616       	79.575874      	79.53517       	79.8509        	79.49915       	79.450195      	79.73744       	79.754074      	79.55423       	79.33197       	79.79641       	79.79988       	77.18495       	76.7412        	79.5843        	79.83218       	78.13424       	78.191246      	79.40538       	80.090904      	80.225365      	79.79045       	80.48123       	80.31621       	80.043816      	80.26279       	79.978424      	79.89027       	79.7901        	79.43637       	77.146324      	78.98602       	79.618996      	79.60266       	79.06163       	79.3351        	80.07879       	79.42878       	79.22425       	79.84749       	79.65076       	79.59332       	79.40311       	79.70375       	79.6805        	79.52064       	79.68506       	79.64568       	79.49195       	79.5742        	79.630135      	79.7142        	79.668655      	79.53431       	79.79714       	79.70957       	79.45893       	79.47929       	79.8979        	79.46099       	79.47452       	79.681435      	79.582596      	79.71165       	79.59347       	79.577354      	79.50951       	79.59442       	79.586136      	79.823456      	79.587456      	79.32539       	79.72043       	79.4433        	79.46665       	79.70444       	79.49428       	79.6881        	79.69777       	79.35037       	79.82448       	79.31463       	
79.508675      	79.575424      	79.76744       	79.581505      	79.485535      	80.34156       	80.676834      	81.21528       	81.57556       	80.87894       	79.023544      	79.43055       	79.29881       	79.731865      	79.16631       	79.2502        	79.82463       	79.459206      	79.521805      	79.729034      	79.35924       	79.77914       	79.46613       	79.79989       	79.60466       	79.62873       	79.51759       	79.66215       	79.63531       	79.65994       	79.41948       	79.56083       	78.864944      	79.27088       	77.86868       	79.26612       	79.643974      	79.88838       	80.28323       	79.30968       	80.10716       	78.67607       	78.5184        	79.65047       	79.47777       	79.318474      	79.8448        	79.483315      	79.62057       	79.45774       	79.64838       	79.72282       	79.57845       	79.66691       	79.58762       	79.55468       	79.79459       	79.30681       	79.624146      	79.75302       	79.63362       	79.46055       	79.65062       	79.50538       	79.604866      	79.57578       	79.727196      	79.55417       	79.360855      	79.88039       	79.674934      	79.6248        	79.57687       	79.69912       	79.62442       	79.20876       	79.77594       	79.60612       	79.41882       	79.85741       	79.62048       	79.577126      	79.37797       	79.94274       	79.61277       	79.55289       	79.55963       	79.63476       	79.935234      	79.28917       	79.458954      	79.912674      	79.34821       	79.44483       	79.52113       	79.827614      	79.60516       	79.58304       	79.81026       	79.559204      	
79.66396       	79.59428       	79.55378       	79.51252       	79.54218       	79.9689        	80.60139       	80.64343       	80.52615       	83.44809       	80.086266      	78.8188        	79.412796      	79.54121       	79.59449       	79.63064       	79.46589       	79.46946       	79.62259       	79.615166      	79.643135      	79.69212       	79.63306       	79.25617       	79.84269       	79.65473       	79.48226       	79.54087       	79.664055      	79.58781       	79.52973       	79.75039       	79.490204      	79.815285      	79.42464       	79.270454      	79.84833       	79.446106      	79.64099       	79.43089       	79.673355      	79.5729        	79.604256      	79.58676       	79.47067       	79.49125       	79.6769        	79.72092       	79.686356      	79.8698        	79.65025       	79.543785      	79.59068       	79.33709       	79.73248       	79.81616       	79.47505       	79.592674      	79.77962       	79.52506       	79.586716      	79.4782        	79.7585        	79.67878       	79.32468       	79.650505      	79.76849       	79.634026      	79.80939       	79.21627       	79.9978        	79.57576       	79.355606      	79.78244       	79.71867       	79.45493       	79.673485      	79.45292       	79.83324       	79.70523       	79.35481       	79.62274       	79.65475       	79.5468        	79.58243       	79.50233       	80.002625      	79.54852       	79.37907       	79.756096      	79.670815      	79.73007       	79.45392       	79.763664      	79.777336      	79.38329       	79.70617       	79.42871       	79.5895        	79.57765       	
79.30018       	79.31012       	79.76307       	80.107956      	79.7349        	79.63791       	81.127045      	80.67963       	79.20256       	82.26404       	82.4143        	78.76148       	79.38537       	79.5093        	79.43338       	79.4022        	79.617615      	79.52352       	79.51755       	79.70956       	79.52642       	79.80728       	79.59485       	79.299736      	79.73457       	79.50645       	79.75154       	79.705376      	79.44865       	79.52298       	79.79885       	79.367485      	79.49823       	79.72115       	79.54931       	79.75912       	79.35117       	79.39911       	79.79407       	79.43888       	79.537964      	79.67386       	79.35969       	79.69582       	79.671616      	79.26003       	79.64578       	79.49102       	79.664536      	79.9456        	79.456696      	79.729996      	79.419975      	79.63751       	79.78165       	79.5994        	79.76072       	79.40129       	79.740234      	79.69409       	79.3114        	79.80366       	79.59631       	79.62758       	79.46134       	79.84606       	79.563736      	79.23254       	79.7135        	79.66295       	79.52602       	79.762         	79.66694       	79.630745      	79.61152       	79.57436       	79.71106       	79.73265       	79.44165       	79.754745      	79.6958        	79.37196       	79.73542       	79.77805       	79.55242       	79.69953       	79.47131       	79.609436      	79.63248       	79.601616      	79.66312       	79.56464       	79.68445       	79.62077       	79.48462       	79.678345      	79.775345      	79.49898       	79.46126       	79.545074      	
79.7424        	79.735916      	79.76978       	80.23716       	80.008224      	80.03917       	80.96064       	79.5308        	79.23737       	80.008446      	82.25449       	79.10842       	79.59864       	79.23701       	79.56271       	79.56136       	79.296265      	79.49108       	79.74669       	79.71347       	79.63748       	79.24221       	79.941574      	79.50576       	79.4383        	79.67693       	79.61863       	79.47511       	79.83337       	79.27704       	79.79949       	79.61866       	79.33675       	79.73514       	79.26736       	79.62517       	79.68065       	79.475525      	79.62503       	79.422646      	79.75819       	79.5288        	79.27795       	79.88865       	79.36835       	79.88787       	79.4613        	79.56256       	79.75951       	79.60084       	79.60138       	79.80146       	79.31084       	79.57871       	79.715034      	79.45931       	79.65091       	79.65938       	79.87834       	79.48593       	79.52511       	79.87529       	79.40031       	79.68884       	79.71759       	79.58406       	79.41834       	79.48979       	79.82123       	79.7289        	79.16721       	79.85679       	79.788704      	79.62943       	79.461655      	79.428474      	79.87495       	79.428696      	79.8357        	79.422935      	79.37921       	79.7797        	79.77319       	79.62888       	79.280014      	79.68936       	79.75653       	79.332634      	79.541534      	79.60582       	79.648         	79.715805      	79.29516       	79.69514       	79.63008       	79.46724       	79.595665      	79.839554      	79.58046       	79.24337       	
79.8865        	80.19757       	80.815475      	80.78105       	80.64417       	79.79338       	79.71374       	80.61611       	79.645424      	79.330635      	79.18193       	79.50685       	79.43665       	79.60864       	79.45888       	79.55796       	79.84207       	79.22136       	79.65091       	79.94245       	79.358406      	79.35785       	79.90656       	79.57373       	79.53139       	79.61474       	79.684         	79.48951       	79.72          	79.4081        	79.695015      	79.67463       	79.26424       	79.51303       	79.67181       	79.46372       	79.708015      	79.77404       	79.41765       	79.46176       	79.63059       	79.784805      	79.605385      	79.634155      	79.55734       	79.61298       	79.6427        	79.722206      	79.68046       	79.384766      	79.663574      	79.8106        	79.59917       	79.368675      	79.26176       	79.64564       	79.77546       	79.73796       	80.04455       	79.29151       	79.52599       	79.737656      	79.48668       	79.95047       	79.44404       	79.49445       	79.49071       	79.5583        	79.61725       	79.61534       	79.59316       	79.72827       	79.684006      	79.727356      	79.739426      	79.86603       	79.32948       	79.65006       	79.633804      	79.427795      	79.793686      	79.58659       	79.62481       	79.61616       	79.40269       	79.98855       	79.63861       	79.20013       	79.75272       	79.42483       	79.617714      	79.58238       	79.26605       	79.706894      	79.519775      	79.79855       	79.5603        	79.557465      	79.65845       	73.72949       	
79.87237       	80.70785       	78.95117       	77.59505       	79.2525        	79.30376       	79.384125      	79.26493       	79.94953       	79.36893       	79.47965       	79.63          	79.73463       	79.55893       	79.38529       	79.78326       	79.68965       	79.38196       	79.554375      	79.77859       	79.58632       	79.55558       	79.55193       	79.70962       	79.44749       	79.47566       	79.81359       	79.71977       	79.56694       	79.4386        	79.790085      	79.53092       	79.61469       	79.5485        	79.80158       	79.34877       	79.353874      	79.92329       	79.70557       	79.21885       	79.60119       	79.62024       	79.539         	79.59562       	79.77827       	79.746         	79.85883       	79.49691       	79.531204      	79.58673       	79.60393       	79.67062       	79.47547       	79.695656      	79.44029       	79.97351       	79.43743       	79.30179       	80.046875      	79.52095       	79.75383       	79.56621       	79.56632       	79.71774       	79.52891       	79.35594       	79.90223       	79.35461       	79.45373       	79.73967       	79.576706      	79.5835        	79.665855      	79.839584      	79.55894       	79.6301        	79.74576       	79.6172        	79.34585       	79.63545       	79.875595      	79.634544      	79.29445       	79.855774      	79.336235      	79.618225      	79.72565       	79.437004      	79.608444      	79.555016      	79.61705       	79.78276       	79.481514      	79.52286       	79.7259        	79.500496      	79.57639       	79.49769       	79.84621       	74.24658       	
79.70041       	79.99318       	79.592735      	79.437         	79.31351       	79.43782       	79.745316      	79.60971       	79.60452       	79.766464      	79.5538        	79.52532       	79.56845       	79.621         	79.95707       	79.12548       	79.78045       	79.69702       	79.1598        	79.754196      	79.73394       	79.38851       	79.75448       	79.80449       	79.02917       	79.84417       	79.759026      	79.50127       	79.72894       	79.62593       	79.431305      	79.68372       	79.66205       	79.435135      	79.62385       	79.62681       	79.45436       	79.745636      	79.49617       	79.51149       	79.882576      	79.26017       	79.43028       	79.53362       	79.61171       	80.02331       	79.394875      	79.47968       	79.91235       	79.39218       	79.83037       	79.68517       	79.49295       	79.76776       	79.39726       	79.53244       	79.89871       	79.565315      	79.48743       	74.74589       	78.876564      	80.15212       	80.08897       	81.16967       	78.82979       	79.255356      	79.70509       	79.35277       	79.4622        	79.462845      	77.73449       	79.375946      	78.66427       	80.75518       	79.08255       	79.392815      	79.76309       	79.20723       	79.39182       	79.747986      	79.5695        	79.34887       	79.677475      	79.60514       	79.81274       	79.48796       	79.500404      	79.77782       	79.299385      	79.46159       	79.78473       	79.66798       	79.467384      	79.801285      	79.488266      	79.59176       	79.60999       	79.67518       	75.54987       	76.74035       	
79.74984       	79.639175      	79.45378       	79.64648       	79.7292        	79.53864       	79.51833       	79.50605       	79.58073       	79.725746      	79.85141       	79.3058        	79.865456      	79.70085       	79.53545       	79.71053       	79.59315       	79.551575      	79.58691       	79.571396      	79.85759       	79.42546       	79.62526       	79.74886       	79.390274      	79.68389       	79.52765       	79.701904      	79.952835      	79.15733       	79.82434       	79.70516       	79.35584       	79.76928       	79.463066      	79.70458       	79.84549       	79.44329       	79.63113       	79.618385      	79.57211       	79.672844      	79.168205      	79.552         	79.74191       	79.69692       	79.6016        	79.906654      	79.56875       	79.56723       	79.62065       	79.60508       	79.57045       	79.60819       	79.53892       	79.780975      	79.34461       	76.04757       	78.39657       	78.80571       	79.257195      	79.89958       	81.23          	79.11919       	78.42988       	79.18423       	79.40007       	79.481346      	79.864525      	79.569885      	79.543045      	75.070114      	78.26845       	79.94662       	79.9838        	80.10354       	81.99963       	80.52238       	79.177345      	79.194145      	79.79207       	79.44921       	79.31718       	79.89625       	79.386284      	79.47527       	79.633675      	79.68891       	79.61549       	79.509254      	79.38445       	79.86373       	79.538475      	79.155365      	80.1537        	79.508286      	79.34535       	79.678665      	79.51479       	74.1072        	
79.82079       	79.82155       	79.887955      	79.827644      	79.72706       	79.69816       	79.34652       	79.47642       	79.91572       	79.49575       	79.84186       	79.39356       	79.88067       	79.400826      	79.55274       	79.76304       	79.471794      	79.601204      	79.69701       	79.61215       	79.64176       	79.46263       	79.813156      	79.42674       	79.68727       	79.477234      	79.66543       	79.666245      	79.2277        	79.922386      	79.41819       	79.494026      	79.74671       	79.71512       	79.54582       	79.57072       	79.63905       	79.66607       	79.546165      	79.49575       	79.46324       	79.72933       	79.32248       	79.59364       	80.023384      	79.26152       	79.72226       	79.57842       	79.61939       	79.73835       	79.5147        	79.534035      	79.45083       	79.242195      	78.15333       	79.07104       	78.93168       	79.2296        	79.59948       	79.49215       	79.60037       	79.56516       	79.58666       	79.62386       	78.302956      	77.357506      	77.98521       	78.91213       	79.51188       	79.52997       	78.765396      	79.682526      	79.68238       	79.924706      	80.13846       	80.491         	80.86594       	82.77349       	79.17461       	78.89287       	79.654         	79.58884       	79.22358       	79.92415       	79.42737       	79.25011       	79.98129       	79.52419       	79.57617       	79.65745       	79.62578       	79.74313       	79.26899       	79.61032       	79.95138       	79.34518       	79.708916      	79.574394      	79.320076      	79.773834      	
79.872345      	79.85996       	79.62768       	79.4817        	79.43711       	79.60403       	79.89776       	79.36638       	79.21547       	79.71013       	79.75854       	79.70114       	79.50166       	79.68044       	79.543625      	79.572464      	79.69987       	79.44694       	79.74428       	79.48246       	79.69194       	79.92532       	79.31564       	79.725044      	79.907234      	79.2353        	79.59237       	79.91007       	79.37004       	79.713844      	79.461         	79.585915      	79.77926       	79.34377       	79.78974       	79.75421       	79.339714      	79.60152       	79.892365      	79.359276      	79.47395       	79.68238       	79.35448       	79.421104      	79.99011       	79.512474      	79.48654       	78.47797       	78.97471       	78.69764       	79.35893       	79.48604       	79.61944       	79.47922       	79.60377       	79.392334      	76.03744       	78.71652       	78.110176      	78.66651       	79.28054       	79.34211       	79.314926      	79.785576      	79.45433       	79.619026      	79.44468       	79.67244       	79.62273       	79.54995       	79.578514      	79.445595      	79.83159       	79.51129       	79.81099       	80.63751       	80.41894       	81.83282       	82.096306      	78.70184       	79.58865       	79.15935       	79.49802       	79.624306      	79.49441       	79.566925      	79.51524       	79.781235      	79.34174       	79.64721       	79.623146      	79.4328        	79.66594       	79.6128        	79.4754        	79.535385      	79.69772       	79.472664      	79.52197       	79.521164      	
79.707115      	79.66065       	79.83944       	79.898346      	79.70902       	79.8353        	79.406364      	79.31321       	79.886925      	79.42433       	79.818474      	79.90588       	79.4799        	79.743225      	79.69498       	79.490395      	79.46697       	79.80204       	79.60219       	79.21242       	79.9582        	79.742905      	79.58838       	79.75417       	79.60082       	79.43491       	79.647255      	79.67081       	79.8942        	79.22555       	79.62251       	79.67599       	79.64456       	79.74317       	79.47986       	79.714325      	79.38816       	79.78781       	79.47265       	79.48947       	79.77914       	79.650024      	76.84987       	77.69964       	80.164406      	79.58308       	79.27352       	79.55365       	79.90944       	77.92031       	77.790436      	78.101425      	78.81662       	79.2272        	79.35657       	79.59881       	79.769165      	79.36483       	79.61685       	79.39505       	79.75452       	79.93385       	79.28412       	79.76424       	79.66208       	79.663994      	79.58759       	79.5667        	79.75224       	79.554405      	79.68685       	79.54348       	79.698166      	79.39338       	79.642235      	80.363144      	80.349815      	81.048836      	80.02177       	82.08785       	79.02103       	79.012314      	79.50831       	79.79694       	79.35956       	79.32805       	79.59202       	79.5785        	79.63674       	79.48802       	79.64178       	79.66477       	79.55461       	79.542435      	79.49296       	79.64655       	79.457275      	79.50091       	79.78767       	79.481384      	
79.70518       	79.61578       	79.72199       	79.843216      	79.55107       	79.71671       	79.36428       	79.69443       	79.4417        	79.697655      	79.76498       	79.47415       	79.66913       	79.685104      	79.40011       	79.86629       	79.63646       	79.47104       	79.777824      	79.53152       	79.53065       	79.602486      	79.60166       	79.60656       	79.61253       	79.61705       	79.47909       	79.609535      	79.69625       	79.627365      	79.51651       	79.73083       	79.56515       	79.5691        	79.8866        	79.51947       	79.58754       	79.6135        	79.46259       	79.567566      	78.855194      	76.70916       	77.182816      	78.25163       	78.41608       	79.14627       	79.154         	79.46943       	79.56612       	79.5533        	79.61949       	79.77595       	79.388504      	79.689415      	79.57198       	79.664406      	79.7045        	79.421074      	79.74075       	79.7144        	79.50989       	79.53312       	79.74442       	79.4631        	79.74838       	79.57355       	79.499916      	79.60812       	79.58326       	79.77113       	79.75378       	79.52078       	79.39003       	79.56298       	79.80433       	79.85389       	80.381935      	80.5999        	81.234764      	83.53477       	79.9346        	79.29969       	79.24136       	79.50518       	79.56008       	79.69253       	79.12429       	79.84864       	79.64518       	79.484146      	79.65808       	79.701164      	79.54221       	79.58824       	79.45017       	79.60252       	79.49651       	79.647865      	79.591415      	79.423515      	
79.55291       	79.53871       	79.73689       	80.020966      	79.77375       	79.33571       	79.751656      	79.282166      	79.81568       	79.571014      	79.90046       	79.61388       	79.44072       	79.764         	79.46167       	79.47089       	79.92651       	79.51339       	79.50167       	79.688545      	79.54827       	79.54422       	79.4321        	79.57599       	79.91852       	79.50299       	79.532936      	79.582756      	79.78181       	79.51823       	79.526474      	79.77614       	79.50191       	79.40827       	79.70234       	79.60996       	79.47526       	79.66962       	79.85529       	73.471535      	73.60326       	72.84589       	78.11608       	81.5537        	84.59239       	80.0244        	79.09727       	79.40738       	79.5595        	79.679695      	79.554756      	79.34165       	79.81432       	79.46555       	79.410866      	79.723366      	79.78113       	79.46668       	79.74743       	79.57221       	79.45689       	79.680756      	79.651596      	79.68457       	79.37805       	79.98946       	79.52341       	79.47322       	79.72429       	79.56588       	79.63339       	79.65162       	79.42611       	79.74438       	79.56743       	79.62715       	80.17509       	80.34368       	80.67435       	80.93251       	80.91188       	78.73086       	79.24327       	79.8317        	79.06106       	79.53763       	79.36658       	79.55607       	79.96836       	79.34881       	79.56439       	79.74848       	79.495415      	79.550385      	79.50539       	79.72561       	79.73631       	79.62544       	79.34956       	79.60631       	
79.71364       	79.66951       	79.492805      	79.61274       	79.86874       	79.96413       	79.3038        	79.49536       	79.631584      	79.80331       	79.44191       	79.545555      	79.52984       	79.90181       	79.595         	79.56803       	79.55463       	79.69183       	79.73304       	79.374275      	79.7324        	79.67757       	79.52262       	79.620056      	79.756424      	79.58827       	79.4437        	79.70489       	79.37996       	79.5395        	79.736786      	79.32353       	79.90839       	79.61958       	79.65937       	79.5012        	79.5007        	79.05953       	74.05171       	76.70181       	75.762405      	76.9097        	75.99818       	79.93576       	79.246086      	80.49416       	81.59396       	84.35915       	80.6419        	79.31945       	79.2871        	79.66452       	79.39245       	79.48771       	79.611916      	79.69867       	79.47405       	79.51444       	79.78495       	79.66187       	79.57491       	79.518425      	79.52804       	79.79162       	79.37047       	79.52656       	79.64407       	79.58868       	79.51404       	79.48893       	79.78933       	79.42396       	79.660255      	79.7625        	79.367874      	79.70194       	79.85669       	80.52989       	80.432076      	80.957146      	80.8719        	79.55165       	78.69503       	79.44206       	79.62589       	79.28121       	79.69222       	79.42775       	79.59971       	79.69341       	79.29468       	79.64258       	79.6307        	79.57936       	79.64346       	79.95152       	79.289474      	79.57034       	79.528564      	79.643684      	
79.76807       	79.79251       	79.53027       	79.88674       	79.90704       	79.428535      	79.17496       	79.44409       	78.86702       	79.33281       	79.04943       	79.06543       	78.825294      	81.06908       	80.20803       	79.30784       	79.6923        	79.491356      	79.41642       	79.578354      	79.583565      	79.5305        	79.496155      	79.537766      	79.679474      	79.63172       	79.67083       	79.46215       	79.744896      	79.44951       	79.65407       	79.66897       	79.59654       	79.8434        	79.423065      	79.45731       	74.5265        	73.59398       	75.53136       	75.003         	76.232315      	78.116165      	79.05801       	79.59057       	80.2641        	80.256065      	80.67945       	82.12222       	85.12513       	83.27618       	78.797806      	79.313225      	79.532135      	79.46247       	79.696815      	79.46683       	79.47443       	79.57711       	79.59075       	79.66022       	79.6111        	79.43997       	79.62399       	79.70854       	79.51164       	79.4302        	79.57618       	79.708305      	79.93195       	79.32129       	79.53376       	79.63235       	79.56264       	79.61116       	79.609856      	79.68093       	79.60836       	79.99216       	80.45262       	80.68837       	80.47685       	80.6683        	78.80099       	79.55826       	79.288864      	79.42403       	79.7227        	79.47674       	79.64176       	79.517136      	79.34959       	79.79333       	79.43065       	79.5802        	79.78274       	79.643776      	79.66084       	79.34367       	79.47638       	79.73218       	
79.23109       	79.50731       	79.23261       	78.51962       	78.694756      	79.68732       	79.71268       	79.46493       	79.74332       	79.57038       	79.45459       	78.07107       	77.89775       	79.60718       	79.925606      	80.179474      	80.12323       	81.136604      	79.10301       	79.15213       	79.642204      	79.174515      	79.75489       	79.78028       	79.37066       	79.79743       	79.68536       	79.328674      	79.6906        	79.64494       	79.49599       	79.52439       	79.66603       	79.727936      	79.37889       	79.65754       	77.094284      	70.34288       	75.16352       	77.24236       	78.60671       	78.978745      	78.78749       	79.562096      	80.16481       	80.95934       	80.90708       	79.51772       	81.39811       	83.79319       	85.55868       	78.521194      	79.40278       	79.51388       	79.46866       	79.526405      	79.4566        	79.69795       	79.52039       	79.53141       	79.512184      	79.54033       	79.55034       	79.538666      	79.78499       	79.80155       	79.29082       	79.59647       	79.83549       	79.33265       	79.51183       	79.70356       	79.492905      	79.610245      	79.53922       	79.80591       	79.432396      	79.67394       	80.21469       	80.32647       	81.168495      	80.7024        	80.44471       	78.911255      	79.434265      	79.61622       	79.33289       	79.471306      	79.69698       	79.63263       	79.4555        	79.55061       	79.48331       	79.69664       	79.846214      	79.293655      	79.55375       	79.735405      	79.5042        	79.71081       	
79.80828       	79.48939       	78.83309       	76.703026      	77.597336      	78.762886      	79.441864      	79.0318        	79.04556       	79.65747       	79.53074       	79.62116       	79.68443       	79.5773        	80.25196       	80.2365        	81.004265      	82.487854      	79.42842       	79.35032       	79.28486       	79.41802       	79.49824       	79.31444       	79.76276       	79.36999       	79.531654      	79.75286       	79.46124       	79.612816      	79.61841       	79.688866      	79.57722       	79.41778       	79.80643       	70.33388       	75.533005      	75.19903       	75.2384        	76.1573        	80.36633       	77.65222       	78.213936      	79.25135       	80.320816      	81.58965       	80.629845      	77.94447       	80.62083       	83.46508       	85.304054      	78.7964        	79.27102       	79.45076       	79.22594       	79.755455      	79.52723       	79.34106       	79.79775       	79.61789       	79.53071       	79.52566       	79.6244        	79.499725      	79.61565       	79.44598       	79.65337       	79.82683       	79.20529       	79.92517       	79.637726      	79.72396       	79.44927       	79.67332       	79.68612       	79.584076      	79.30846       	79.77434       	80.161606      	80.38523       	80.768684      	80.23988       	82.86524       	79.770035      	79.03887       	79.47763       	79.7559        	79.350136      	79.55823       	79.82226       	79.46426       	79.12821       	79.894554      	79.63805       	79.47454       	79.65178       	79.55747       	79.49119       	79.6452        	79.563194      	
79.60308       	79.67045       	79.33149       	79.303055      	79.45318       	79.65016       	79.6324        	79.33243       	79.77988       	79.519226      	79.34012       	79.843666      	79.51563       	79.71559       	79.757484      	80.21435       	80.46416       	81.05783       	81.46249       	80.69409       	78.941376      	79.621994      	79.56406       	79.42609       	79.62994       	79.442795      	79.56772       	79.63955       	79.36955       	79.66949       	79.72157       	79.62671       	79.51068       	79.53883       	79.84388       	68.0346        	72.99211       	78.53434       	76.69918       	77.2099        	79.80829       	79.458176      	78.236         	79.4836        	80.44856       	81.07663       	78.69072       	78.23084       	80.70275       	84.27581       	80.79168       	79.243484      	79.39193       	79.46865       	79.52075       	79.584465      	79.74275       	79.41152       	79.57296       	79.7176        	79.68356       	79.33991       	79.49097       	79.702446      	79.48418       	79.31127       	79.736496      	79.697296      	79.23151       	79.64376       	79.59578       	79.631836      	79.52455       	79.638405      	79.72555       	79.44847       	79.49702       	79.712456      	79.68152       	80.15752       	80.27372       	81.4901        	81.35484       	80.03031       	79.48096       	79.600006      	79.44716       	79.415695      	79.66477       	79.33788       	79.52648       	79.6684        	79.59534       	79.5154        	79.72473       	79.64383       	79.55157       	79.51226       	79.73863       	79.512665      	
79.74432       	79.91733       	79.71871       	79.48082       	79.653564      	79.385056      	79.54136       	79.50875       	79.79466       	79.57399       	79.54142       	79.54921       	79.84558       	79.55913       	79.44589       	80.089806      	80.572266      	80.69026       	80.74328       	83.322685      	79.255264      	79.36152       	79.24017       	79.54679       	79.367744      	79.4822        	79.7072        	79.48809       	79.57105       	79.67282       	79.546295      	79.68395       	79.40725       	79.79387       	79.53585       	79.517166      	79.519485      	74.14677       	74.857605      	78.39606       	73.78106       	78.2464        	78.14008       	79.66569       	76.61181       	80.20937       	79.96787       	81.78487       	79.26152       	79.237335      	79.561005      	79.57291       	79.6363        	79.41963       	79.65776       	79.59516       	79.58093       	79.593666      	79.59873       	79.52684       	79.75667       	79.61329       	79.59257       	79.733345      	79.65362       	79.35237       	79.62365       	79.663155      	79.48548       	79.59839       	79.61098       	79.60896       	79.55397       	79.26467       	80.04965       	79.51252       	79.46907       	79.59743       	79.6263        	79.96081       	80.17675       	80.639206      	81.54257       	82.36141       	79.22812       	79.29601       	79.598656      	79.29404       	79.465096      	80.00853       	79.545265      	79.3745        	79.5997        	79.5728        	79.650116      	79.62007       	79.423546      	79.92318       	79.22032       	79.78271       	
79.663704      	79.75224       	79.51029       	79.60422       	79.58002       	79.60473       	79.44664       	79.735756      	79.53154       	79.70752       	79.47834       	79.69983       	79.58121       	79.60101       	79.54177       	79.85779       	80.46827       	80.2501        	81.311966      	80.61756       	80.76083       	78.9257        	79.44366       	79.42636       	79.403366      	79.564674      	79.59007       	79.69147       	79.44694       	79.62469       	79.71131       	79.50254       	79.638565      	79.59441       	79.71403       	79.70183       	79.46348       	79.368996      	79.75725       	79.50575       	79.80827       	78.1555        	76.82164       	79.790474      	76.41707       	78.53951       	78.4407        	78.84468       	79.47844       	79.74279       	79.772484      	79.31858       	79.5813        	79.90058       	79.44165       	79.55882       	79.74756       	79.46504       	79.71831       	79.44104       	79.681145      	79.82679       	79.529564      	79.66418       	79.70089       	79.52456       	79.30594       	79.85723       	79.52752       	79.38784       	79.76584       	79.791306      	79.715034      	79.153175      	79.69319       	79.7279        	79.519035      	79.382164      	79.63033       	79.80497       	80.08591       	80.16256       	80.83074       	81.36382       	81.06953       	78.59965       	79.582275      	79.76289       	79.19465       	79.371475      	79.744484      	79.74902       	79.33143       	79.495445      	79.70176       	79.62761       	79.40338       	79.55032       	79.783005      	79.302795      	
79.83614       	79.81597       	79.49739       	79.435196      	79.76304       	79.564026      	79.4556        	79.60149       	79.84618       	79.34451       	79.638954      	79.54605       	79.4649        	79.76339       	79.58763       	79.53218       	80.12863       	80.37913       	80.45173       	80.825806      	81.414085      	78.7783        	79.316986      	79.53335       	79.321846      	79.60635       	79.47556       	79.56185       	79.76579       	79.555534      	79.58561       	79.403465      	79.580246      	79.69299       	79.647736      	79.56825       	79.59585       	79.60211       	79.59242       	79.49951       	79.48205       	79.60843       	74.29724       	76.99148       	79.41885       	78.04916       	78.287544      	78.55389       	79.21878       	79.67269       	79.531494      	79.54554       	79.82591       	79.506905      	79.62236       	79.68041       	79.58273       	79.460434      	79.771126      	79.96708       	79.17477       	79.5387        	79.75579       	79.73523       	79.535545      	79.30376       	79.8548        	79.60141       	79.35382       	79.609184      	79.64495       	79.51116       	79.388306      	79.61966       	79.82988       	79.6031        	79.283         	79.74262       	79.71811       	79.44609       	80.00073       	80.32681       	80.463394      	81.10493       	81.2422        	80.34325       	79.11073       	79.511116      	79.44439       	79.407745      	79.5357        	79.46324       	79.53399       	79.73498       	79.59338       	79.58961       	79.52773       	79.72142       	79.66939       	79.51104       	
79.61083       	79.81883       	79.47508       	79.479034      	79.740326      	79.457825      	79.29866       	79.7074        	79.64353       	79.57399       	79.43642       	79.56359       	79.93377       	79.641624      	79.02407       	79.573105      	80.07185       	80.09713       	80.342         	81.72898       	81.160126      	79.73681       	78.994934      	79.29127       	79.61441       	79.12316       	79.52586       	79.92322       	79.37335       	79.58877       	79.399185      	79.8008        	79.24096       	79.56763       	79.9266        	79.35116       	79.541245      	79.40859       	79.926384      	79.40068       	79.41114       	79.627754      	79.92315       	73.89112       	76.83279       	77.59178       	78.31879       	77.80637       	78.872536      	79.90471       	79.35001       	79.51755       	79.69001       	79.77791       	79.74676       	79.16676       	79.83069       	79.904564      	79.41336       	79.488335      	79.584526      	79.736435      	79.23195       	79.445854      	79.90058       	79.3546        	79.6744        	79.7212        	79.681885      	79.53988       	79.48026       	79.763985      	79.4695        	79.38465       	79.58628       	79.637276      	79.90326       	79.45869       	79.57563       	79.715065      	79.40344       	80.24909       	80.598404      	80.561935      	80.186134      	82.284485      	79.066864      	78.94207       	79.595276      	79.54472       	79.45407       	79.57146       	79.59988       	79.45862       	79.69762       	79.554565      	79.5648        	79.713745      	79.53548       	79.82288       	
79.50273       	79.72757       	79.94671       	79.6206        	79.880745      	79.55471       	79.766014      	79.27431       	79.582855      	79.81014       	79.42735       	79.70442       	79.57469       	79.6696        	79.577         	79.47208       	79.6007        	79.976395      	80.40412       	80.34899       	81.424736      	83.18445       	79.036705      	79.00848       	79.47496       	79.57008       	79.73188       	79.46426       	79.49282       	79.6397        	79.6856        	79.56592       	79.56898       	79.6771        	79.500145      	79.21264       	79.89386       	79.57546       	79.470924      	79.67651       	79.54177       	79.89882       	79.33019       	79.65278       	75.829216      	77.78592       	78.28843       	78.544235      	78.60383       	78.85035       	79.70354       	79.76225       	79.571465      	79.36272       	79.71814       	79.76896       	79.608185      	79.36411       	79.65688       	79.90264       	79.494835      	79.579094      	79.77336       	79.79333       	79.575455      	79.20441       	79.94899       	79.61675       	79.38239       	79.704384      	79.748085      	79.49385       	79.47725       	79.57452       	79.72579       	79.628914      	79.56825       	79.70056       	79.56131       	79.60701       	79.528175      	79.59893       	80.44232       	80.436325      	81.053635      	81.45226       	80.39689       	78.97024       	79.476654      	79.46749       	79.62969       	79.54367       	79.24397       	79.63074       	79.81593       	79.04835       	79.73423       	79.651276      	79.48987       	79.74965       	
